title:bread1, start timestamp:1736414859.712958, stop timestamp:1736414869.745501, headset type:EPOCX, headset serial:E50208A5, headset firmware:720, channels:168, sampling rate:eeg_128;mot_32;pm_0.1;pow_8, samples:1286      , version:2.2, 
Timestamp,EEG.Counter,EEG.Interpolated,EEG.AF3,EEG.F7,EEG.F3,EEG.FC5,EEG.T7,EEG.P7,EEG.O1,EEG.O2,EEG.P8,EEG.T8,EEG.FC6,EEG.F4,EEG.F8,EEG.AF4,EEG.RawCq,EEG.Battery,EEG.BatteryPercent,MarkerIndex,MarkerType,MarkerValueInt,EEG.MarkerHardware,CQ.AF3,CQ.F7,CQ.F3,CQ.FC5,CQ.T7,CQ.P7,CQ.O1,CQ.O2,CQ.P8,CQ.T8,CQ.FC6,CQ.F4,CQ.F8,CQ.AF4,CQ.Overall,EQ.SampleRateQuality,EQ.OVERALL,EQ.AF3,EQ.F7,EQ.F3,EQ.FC5,EQ.T7,EQ.P7,EQ.O1,EQ.O2,EQ.P8,EQ.T8,EQ.FC6,EQ.F4,EQ.F8,EQ.AF4,MOT.CounterMems,MOT.InterpolatedMems,MOT.Q0,MOT.Q1,MOT.Q2,MOT.Q3,MOT.AccX,MOT.AccY,MOT.AccZ,MOT.MagX,MOT.MagY,MOT.MagZ,PM.Attention.IsActive,PM.Attention.Scaled,PM.Attention.Raw,PM.Attention.Min,PM.Attention.Max,PM.Engagement.IsActive,PM.Engagement.Scaled,PM.Engagement.Raw,PM.Engagement.Min,PM.Engagement.Max,PM.Excitement.IsActive,PM.Excitement.Scaled,PM.Excitement.Raw,PM.Excitement.Min,PM.Excitement.Max,PM.LongTermExcitement,PM.Stress.IsActive,PM.Stress.Scaled,PM.Stress.Raw,PM.Stress.Min,PM.Stress.Max,PM.Relaxation.IsActive,PM.Relaxation.Scaled,PM.Relaxation.Raw,PM.Relaxation.Min,PM.Relaxation.Max,PM.Interest.IsActive,PM.Interest.Scaled,PM.Interest.Raw,PM.Interest.Min,PM.Interest.Max,POW.AF3.Theta,POW.AF3.Alpha,POW.AF3.BetaL,POW.AF3.BetaH,POW.AF3.Gamma,POW.F7.Theta,POW.F7.Alpha,POW.F7.BetaL,POW.F7.BetaH,POW.F7.Gamma,POW.F3.Theta,POW.F3.Alpha,POW.F3.BetaL,POW.F3.BetaH,POW.F3.Gamma,POW.FC5.Theta,POW.FC5.Alpha,POW.FC5.BetaL,POW.FC5.BetaH,POW.FC5.Gamma,POW.T7.Theta,POW.T7.Alpha,POW.T7.BetaL,POW.T7.BetaH,POW.T7.Gamma,POW.P7.Theta,POW.P7.Alpha,POW.P7.BetaL,POW.P7.BetaH,POW.P7.Gamma,POW.O1.Theta,POW.O1.Alpha,POW.O1.BetaL,POW.O1.BetaH,POW.O1.Gamma,POW.O2.Theta,POW.O2.Alpha,POW.O2.BetaL,POW.O2.BetaH,POW.O2.Gamma,POW.P8.Theta,POW.P8.Alpha,POW.P8.BetaL,POW.P8.BetaH,POW.P8.Gamma,POW.T8.Theta,POW.T8.Alpha,POW.T8.BetaL,POW.T8.BetaH,POW.T8.Gamma,POW.FC6.Theta,POW.FC6.Alpha,POW.FC6.BetaL,POW.FC6.BetaH,POW.FC6.Gamma,POW.F4.Theta,POW.F4.Alpha,POW.F4.BetaL,POW.F4.BetaH,POW.F4.Gamma,POW.F8.Theta,POW.F8.Alpha,POW.F8.BetaL,POW.F8.BetaH,POW.F8.Gamma,POW.AF4.Theta,POW.AF4.Alpha,POW.AF4.BetaL,POW.AF4.BetaH,POW.AF4.Gamma
1736414859.712958,112.000000,0.000000,4292.436035,4341.538574,4269.871582,4319.230957,4348.717773,4358.974121,4379.615234,4547.563965,4547.051270,4558.846191,4480.000000,5644.487305,4307.820313,4258.589844,0.000000,0.000000,6.000000,,,,0.000000,0.000000,0.000000,0.000000,0.000000,0.000000,0.000000,0.000000,0.000000,0.000000,0.000000,0.000000,0.000000,0.000000,0.000000,0.000000,,,,,,,,,,,,,,,,,28.000000,0.000000,0.716333,-0.690247,0.007874,0.101807,-0.157734,-0.984495,0.038091,-7.050628,-14.960380,-0.524677,,,,,,,,,,,,,,,,,,,,,,,,,,,,,,,,,,,,,,,,,,,,,,,,,,,,,,,,,,,,,,,,,,,,,,,,,,,,,,,,,,,,,,,,,,,,,,,,,,,,,
1736414859.720866,113.000000,0.000000,4291.666504,4338.205078,4267.307617,4316.538574,4349.871582,4356.922852,4380.641113,4545.769043,4544.743652,4559.102539,4480.641113,5643.846191,4307.051270,4257.307617,0.000000,0.000000,6.000000,,,,0.000000,0.000000,0.000000,0.000000,0.000000,0.000000,0.000000,0.000000,0.000000,0.000000,0.000000,0.000000,0.000000,0.000000,0.000000,0.000000,,,,,,,,,,,,,,,,,,,,,,,,,,,,,,,,,,,,,,,,,,,,,,,,,,,,,,,,,,,,,,,,,,,,,,,,,,,,,,,,,,,,,,,,,,,,,,,,,,,,,,,,,,,,,,,,,,,,,,,,,,,,,,,,,
1736414859.728674,114.000000,0.000000,4295.256348,4337.307617,4272.436035,4314.743652,4349.358887,4357.436035,4380.641113,4546.794922,4545.641113,4557.820313,4481.025879,5642.436035,4309.230957,4257.051270,0.000000,0.000000,6.000000,,,,0.000000,0.000000,0.000000,0.000000,0.000000,0.000000,0.000000,0.000000,0.000000,0.000000,0.000000,0.000000,0.000000,0.000000,0.000000,0.000000,,,,,,,,,,,,,,,,,,,,,,,,,,,,,,,,,,,,,,,,,,,,,,,,,,,,,,,,,,,,,,,,,,,,,,,,,,,,,,,,,,,,,,,,,,,,,,,,,,,,,,,,,,,,,,,,,,,,,,,,,,,,,,,,,
1736414859.736582,115.000000,0.000000,4295.128418,4339.743652,4274.615234,4318.974121,4347.820313,4358.077148,4380.384766,4546.538574,4548.717773,4558.589844,4482.179688,5642.179688,4307.948730,4256.410156,0.000000,0.000000,6.000000,,,,0.000000,0.000000,0.000000,0.000000,0.000000,0.000000,0.000000,0.000000,0.000000,0.000000,0.000000,0.000000,0.000000,0.000000,0.000000,0.000000,,,,,,,,,,,,,,,,,,,,,,,,,,,,,,,,,,,,,,,,,,,,,,,,,,,,,,,,,,,,0.089522,0.029160,0.051842,0.020785,0.023809,0.044872,0.018688,0.008578,0.018785,0.031164,0.046433,0.029058,0.032095,0.027758,0.027146,0.036746,0.011961,0.049745,0.023768,0.026561,0.019123,0.031620,0.040938,0.014648,0.024708,0.014792,0.020288,0.023295,0.042337,0.026974,0.029750,0.059543,0.020137,0.018881,0.024973,0.038870,0.020494,0.016714,0.014975,0.016395,0.019926,0.026717,0.064395,0.045352,0.022014,0.015234,0.014153,0.026476,0.016132,0.009752,0.027811,0.066712,0.034149,0.034453,0.036590,0.054856,0.044725,0.019739,0.036579,0.047894,0.041953,0.021611,0.057088,0.021404,0.019142,0.018277,0.013246,0.028705,0.027662,0.027905
1736414859.744390,116.000000,0.000000,4293.333496,4338.333496,4270.000000,4320.128418,4347.563965,4355.128418,4379.358887,4545.641113,4546.153809,4561.282227,4484.230957,5643.077148,4305.128418,4257.563965,0.000000,0.000000,6.000000,,,,0.000000,0.000000,0.000000,0.000000,0.000000,0.000000,0.000000,0.000000,0.000000,0.000000,0.000000,0.000000,0.000000,0.000000,0.000000,0.000000,,,,,,,,,,,,,,,,,29.000000,0.000000,0.716333,-0.690247,0.007874,0.101807,-0.157734,-0.990355,0.033696,-7.028898,-14.847674,-0.522209,,,,,,,,,,,,,,,,,,,,,,,,,,,,,,,,,,,,,,,,,,,,,,,,,,,,,,,,,,,,,,,,,,,,,,,,,,,,,,,,,,,,,,,,,,,,,,,,,,,,,
1736414859.752098,117.000000,0.000000,4295.128418,4338.077148,4268.205078,4317.563965,4347.948730,4355.897461,4378.077148,4548.461426,4542.820313,4561.666504,4484.743652,5641.922852,4305.256348,4258.846191,0.000000,0.000000,6.000000,,,,0.000000,0.000000,0.000000,0.000000,0.000000,0.000000,0.000000,0.000000,0.000000,0.000000,0.000000,0.000000,0.000000,0.000000,0.000000,0.000000,,,,,,,,,,,,,,,,,,,,,,,,,,,,,,,,,,,,,,,,,,,,,,,,,,,,,,,,,,,,,,,,,,,,,,,,,,,,,,,,,,,,,,,,,,,,,,,,,,,,,,,,,,,,,,,,,,,,,,,,,,,,,,,,,
1736414859.759906,118.000000,0.000000,4292.820313,4338.333496,4267.051270,4318.974121,4348.846191,4359.230957,4379.230957,4549.358887,4545.641113,4558.461426,4486.025879,5642.436035,4304.358887,4256.153809,0.000000,0.000000,6.000000,,,,0.000000,0.000000,0.000000,0.000000,0.000000,0.000000,0.000000,0.000000,0.000000,0.000000,0.000000,0.000000,0.000000,0.000000,0.000000,0.000000,,,,,,,,,,,,,,,,,,,,,,,,,,,,,,,,,,,,,,,,,,,,,,,,,,,,,,,,,,,,,,,,,,,,,,,,,,,,,,,,,,,,,,,,,,,,,,,,,,,,,,,,,,,,,,,,,,,,,,,,,,,,,,,,,
1736414859.767614,119.000000,0.000000,4295.256348,4338.333496,4270.512695,4321.025879,4347.179688,4357.948730,4380.897461,4544.743652,4548.333496,4558.333496,4485.641113,5645.128418,4303.846191,4256.922852,0.000000,0.000000,6.000000,,,,0.000000,0.000000,0.000000,0.000000,0.000000,0.000000,0.000000,0.000000,0.000000,0.000000,0.000000,0.000000,0.000000,0.000000,0.000000,0.000000,,,,,,,,,,,,,,,,,,,,,,,,,,,,,,,,,,,,,,,,,,,,,,,,,,,,,,,,,,,,,,,,,,,,,,,,,,,,,,,,,,,,,,,,,,,,,,,,,,,,,,,,,,,,,,,,,,,,,,,,,,,,,,,,,
1736414859.775422,120.000000,0.000000,4296.153809,4338.205078,4271.025879,4319.743652,4344.743652,4356.410156,4380.384766,4544.358887,4547.820313,4560.897461,4482.948730,5644.102539,4306.794922,4258.974121,0.000000,0.000000,6.000000,,,,0.000000,0.000000,0.000000,0.000000,0.000000,0.000000,0.000000,0.000000,0.000000,0.000000,0.000000,0.000000,0.000000,0.000000,0.000000,0.000000,,,,,,,,,,,,,,,,,30.000000,0.000000,0.716324,-0.690247,0.007874,0.101868,-0.153339,-0.981077,0.044927,-6.992675,-14.946240,-0.469988,,,,,,,,,,,,,,,,,,,,,,,,,,,,,,,,,,,,,,,,,,,,,,,,,,,,,,,,,,,,,,,,,,,,,,,,,,,,,,,,,,,,,,,,,,,,,,,,,,,,,
1736414859.783130,121.000000,0.000000,4291.282227,4338.461426,4267.307617,4318.717773,4347.563965,4358.205078,4377.051270,4547.307617,4547.820313,4561.666504,4480.384766,5643.333496,4307.051270,4256.282227,0.000000,0.000000,6.000000,,,,0.000000,0.000000,0.000000,0.000000,0.000000,0.000000,0.000000,0.000000,0.000000,0.000000,0.000000,0.000000,0.000000,0.000000,0.000000,0.000000,,,,,,,,,,,,,,,,,,,,,,,,,,,,,,,,,,,,,,,,,,,,,,,,,,,,,,,,,,,,,,,,,,,,,,,,,,,,,,,,,,,,,,,,,,,,,,,,,,,,,,,,,,,,,,,,,,,,,,,,,,,,,,,,,
1736414859.791038,122.000000,0.000000,4293.461426,4340.000000,4270.256348,4320.128418,4352.436035,4359.487305,4375.128418,4545.384766,4548.205078,4561.666504,4480.384766,5645.256348,4304.871582,4256.025879,0.000000,0.000000,6.000000,,,,0.000000,0.000000,0.000000,0.000000,0.000000,0.000000,0.000000,0.000000,0.000000,0.000000,0.000000,0.000000,0.000000,0.000000,0.000000,0.000000,,,,,,,,,,,,,,,,,,,,,,,,,,,,,,,,,,,,,,,,,,,,,,,,,,,,,,,,,,,,,,,,,,,,,,,,,,,,,,,,,,,,,,,,,,,,,,,,,,,,,,,,,,,,,,,,,,,,,,,,,,,,,,,,,
1736414859.798846,123.000000,0.000000,4294.615234,4340.256348,4270.897461,4320.512695,4350.897461,4359.743652,4375.897461,4544.871582,4548.077148,4563.077148,4483.077148,5644.102539,4306.538574,4258.461426,0.000000,0.000000,6.000000,,,,0.000000,0.000000,0.000000,0.000000,0.000000,0.000000,0.000000,0.000000,0.000000,0.000000,0.000000,0.000000,0.000000,0.000000,0.000000,0.000000,,,,,,,,,,,,,,,,,,,,,,,,,,,,,,,,,,,,,,,,,,,,,,,,,,,,,,,,,,,,,,,,,,,,,,,,,,,,,,,,,,,,,,,,,,,,,,,,,,,,,,,,,,,,,,,,,,,,,,,,,,,,,,,,,
1736414859.806754,124.000000,0.000000,4292.820313,4343.077148,4268.974121,4318.461426,4346.282227,4362.179688,4377.436035,4545.897461,4548.205078,4562.436035,4483.589844,5642.307617,4307.948730,4257.307617,0.000000,0.000000,6.000000,,,,0.000000,0.000000,0.000000,0.000000,0.000000,0.000000,0.000000,0.000000,0.000000,0.000000,0.000000,0.000000,0.000000,0.000000,0.000000,0.000000,,,,,,,,,,,,,,,,,31.000000,0.000000,0.716334,-0.690247,0.007813,0.101807,-0.143084,-0.985472,0.051764,-7.043408,-14.901616,-0.339656,,,,,,,,,,,,,,,,,,,,,,,,,,,,,,,,,,,,,,,,,,,,,,,,,,,,,,,,,,,,,,,,,,,,,,,,,,,,,,,,,,,,,,,,,,,,,,,,,,,,,
1736414859.814562,125.000000,0.000000,4293.717773,4342.948730,4270.512695,4316.282227,4346.794922,4361.538574,4378.589844,4547.307617,4548.333496,4560.641113,4482.563965,5644.487305,4304.871582,4256.410156,0.000000,0.000000,6.000000,,,,0.000000,0.000000,0.000000,0.000000,0.000000,0.000000,0.000000,0.000000,0.000000,0.000000,0.000000,0.000000,0.000000,0.000000,0.000000,0.000000,,,,,,,,,,,,,,,,,,,,,,,,,,,,,,,,,,,,,,,,,,,,,,,,,,,,,,,,,,,,,,,,,,,,,,,,,,,,,,,,,,,,,,,,,,,,,,,,,,,,,,,,,,,,,,,,,,,,,,,,,,,,,,,,,
1736414859.822470,126.000000,0.000000,4294.743652,4339.230957,4271.153809,4317.692383,4348.333496,4356.666504,4377.436035,4549.102539,4546.153809,4560.384766,4483.077148,5645.128418,4303.846191,4256.794922,0.000000,0.000000,6.000000,,,,0.000000,0.000000,0.000000,0.000000,0.000000,0.000000,0.000000,0.000000,0.000000,0.000000,0.000000,0.000000,0.000000,0.000000,0.000000,0.000000,,,,,,,,,,,,,,,,,,,,,,,,,,,,,,,,,,,,,,,,,,,,,,,,,,,,,,,,,,,,,,,,,,,,,,,,,,,,,,,,,,,,,,,,,,,,,,,,,,,,,,,,,,,,,,,,,,,,,,,,,,,,,,,,,
1736414859.830278,127.000000,0.000000,4295.128418,4339.871582,4270.769043,4322.692383,4347.820313,4356.282227,4376.794922,4546.153809,4544.743652,4559.487305,4483.717773,5644.230957,4308.333496,4257.692383,6.000000,0.000000,6.000000,,,,0.000000,0.000000,0.000000,0.000000,0.000000,0.000000,0.000000,0.000000,0.000000,0.000000,0.000000,0.000000,0.000000,0.000000,0.000000,0.000000,,,,,,,,,,,,,,,,,,,,,,,,,,,,,,,,,,,,,,,,,,,,,,,,,,,,,,,,,,,,,,,,,,,,,,,,,,,,,,,,,,,,,,,,,,,,,,,,,,,,,,,,,,,,,,,,,,,,,,,,,,,,,,,,,
1736414859.838086,0.000000,0.000000,4293.461426,4340.641113,4271.922852,4322.179688,4348.205078,4357.948730,4377.948730,4543.717773,4545.384766,4560.000000,4482.692383,5643.974121,4311.410156,4259.102539,0.000000,0.000000,6.000000,,,,0.000000,0.000000,0.000000,0.000000,0.000000,0.000000,0.000000,0.000000,0.000000,0.000000,0.000000,0.000000,0.000000,0.000000,0.000000,0.000000,,,,,,,,,,,,,,,,,0.000000,0.000000,0.716392,-0.690186,0.007874,0.101807,-0.146014,-0.986449,0.039067,-6.989067,-14.878121,-0.289024,,,,,,,,,,,,,,,,,,,,,,,,,,,,,,,,,,,,,,,,,,,,,,,,,,,,,,,,,,,,,,,,,,,,,,,,,,,,,,,,,,,,,,,,,,,,,,,,,,,,,
1736414859.845794,1.000000,0.000000,4293.205078,4340.384766,4273.077148,4318.077148,4350.128418,4357.179688,4379.358887,4544.743652,4545.641113,4560.512695,4482.436035,5641.666504,4308.974121,4260.384766,0.000000,0.000000,6.000000,,,,0.000000,0.000000,0.000000,0.000000,0.000000,0.000000,0.000000,0.000000,0.000000,0.000000,0.000000,0.000000,0.000000,0.000000,0.000000,0.000000,,,,,,,,,,,,,,,,,,,,,,,,,,,,,,,,,,,,,,,,,,,,,,,,,,,,,,,,,,,,,,,,,,,,,,,,,,,,,,,,,,,,,,,,,,,,,,,,,,,,,,,,,,,,,,,,,,,,,,,,,,,,,,,,,
1736414859.853602,2.000000,0.000000,4294.871582,4340.128418,4270.641113,4318.205078,4349.358887,4357.820313,4379.871582,4546.153809,4546.025879,4559.102539,4483.333496,5640.641113,4305.512695,4258.974121,0.000000,0.000000,6.000000,,,,0.000000,0.000000,0.000000,0.000000,0.000000,0.000000,0.000000,0.000000,0.000000,0.000000,0.000000,0.000000,0.000000,0.000000,0.000000,0.000000,,,,,,,,,,,,,,,,,,,,,,,,,,,,,,,,,,,,,,,,,,,,,,,,,,,,,,,,,,,,,,,,,,,,,,,,,,,,,,,,,,,,,,,,,,,,,,,,,,,,,,,,,,,,,,,,,,,,,,,,,,,,,,,,,
1736414859.861310,3.000000,0.000000,4294.102539,4340.512695,4269.230957,4319.230957,4346.282227,4358.974121,4379.871582,4547.436035,4547.307617,4560.256348,4483.717773,5642.820313,4306.025879,4255.897461,0.000000,0.000000,6.000000,,,,0.000000,0.000000,0.000000,0.000000,0.000000,0.000000,0.000000,0.000000,0.000000,0.000000,0.000000,0.000000,0.000000,0.000000,0.000000,0.000000,,,,,,,,,,,,,,,,,,,,,,,,,,,,,,,,,,,,,,,,,,,,,,,,,,,,,,,,,,,,0.089223,0.024349,0.035451,0.023859,0.024731,0.048807,0.021801,0.006261,0.019229,0.030765,0.048250,0.026256,0.026010,0.025953,0.024949,0.037252,0.010794,0.048952,0.025744,0.025384,0.015097,0.028138,0.037432,0.018020,0.024646,0.015363,0.019280,0.019836,0.037488,0.025832,0.033809,0.050937,0.019078,0.021948,0.023660,0.042199,0.027459,0.015289,0.013679,0.017781,0.020584,0.023899,0.064035,0.043016,0.021283,0.013631,0.014880,0.024759,0.015339,0.009635,0.025876,0.069892,0.029282,0.035627,0.033662,0.042794,0.050032,0.022077,0.030950,0.043955,0.037489,0.017230,0.054423,0.020915,0.021463,0.020539,0.017834,0.028985,0.025962,0.027574
1736414859.869118,4.000000,0.000000,4295.512695,4341.922852,4271.922852,4321.538574,4347.179688,4359.102539,4380.769043,4546.922852,4546.666504,4561.922852,4483.205078,5644.743652,4306.538574,4257.179688,0.000000,0.000000,6.000000,,,,0.000000,0.000000,0.000000,0.000000,0.000000,0.000000,0.000000,0.000000,0.000000,0.000000,0.000000,0.000000,0.000000,0.000000,0.000000,0.000000,,,,,,,,,,,,,,,,,1.000000,0.000000,0.716393,-0.690186,0.007751,0.101807,-0.153827,-0.975217,0.036626,-7.056827,-14.990310,-0.310122,,,,,,,,,,,,,,,,,,,,,,,,,,,,,,,,,,,,,,,,,,,,,,,,,,,,,,,,,,,,,,,,,,,,,,,,,,,,,,,,,,,,,,,,,,,,,,,,,,,,,
1736414859.876826,5.000000,0.000000,4297.051270,4341.282227,4270.384766,4320.128418,4347.436035,4357.948730,4381.282227,4546.666504,4547.307617,4561.025879,4483.077148,5644.487305,4305.256348,4259.487305,0.000000,0.000000,6.000000,,,,0.000000,0.000000,0.000000,0.000000,0.000000,0.000000,0.000000,0.000000,0.000000,0.000000,0.000000,0.000000,0.000000,0.000000,0.000000,0.000000,,,,,,,,,,,,,,,,,,,,,,,,,,,,,,,,,,,,,,,,,,,,,,,,,,,,,,,,,,,,,,,,,,,,,,,,,,,,,,,,,,,,,,,,,,,,,,,,,,,,,,,,,,,,,,,,,,,,,,,,,,,,,,,,,
1736414859.884734,6.000000,0.000000,4294.358887,4342.436035,4268.205078,4320.769043,4346.666504,4357.179688,4378.205078,4547.948730,4547.692383,4559.358887,4480.897461,5643.333496,4305.256348,4258.077148,0.000000,0.000000,6.000000,,,,0.000000,0.000000,0.000000,0.000000,0.000000,0.000000,0.000000,0.000000,0.000000,0.000000,0.000000,0.000000,0.000000,0.000000,0.000000,0.000000,,,,,,,,,,,,,,,,,,,,,,,,,,,,,,,,,,,,,,,,,,,,,,,,,,,,,,,,,,,,,,,,,,,,,,,,,,,,,,,,,,,,,,,,,,,,,,,,,,,,,,,,,,,,,,,,,,,,,,,,,,,,,,,,,
1736414859.892542,7.000000,0.000000,4291.794922,4344.743652,4270.256348,4325.000000,4347.948730,4357.051270,4373.846191,4548.461426,4545.384766,4559.743652,4478.589844,5642.307617,4304.743652,4256.153809,0.000000,0.000000,6.000000,,,,0.000000,0.000000,0.000000,0.000000,0.000000,0.000000,0.000000,0.000000,0.000000,0.000000,0.000000,0.000000,0.000000,0.000000,0.000000,0.000000,,,,,,,,,,,,,,,,,,,,,,,,,,,,,,,,,,,,,,,,,,,,,,,,,,,,,,,,,,,,,,,,,,,,,,,,,,,,,,,,,,,,,,,,,,,,,,,,,,,,,,,,,,,,,,,,,,,,,,,,,,,,,,,,,
1736414859.900450,8.000000,0.000000,4293.077148,4341.153809,4270.384766,4319.487305,4345.769043,4357.563965,4377.051270,4546.410156,4545.512695,4561.153809,4480.256348,5643.589844,4306.794922,4256.666504,0.000000,0.000000,6.000000,,,,0.000000,0.000000,0.000000,0.000000,0.000000,0.000000,0.000000,0.000000,0.000000,0.000000,0.000000,0.000000,0.000000,0.000000,0.000000,0.000000,,,,,,,,,,,,,,,,,2.000000,0.000000,0.716461,-0.690125,0.007751,0.101746,-0.156757,-0.998169,0.047857,-7.084477,-15.007945,-0.262443,,,,,,,,,,,,,,,,,,,,,,,,,,,,,,,,,,,,,,,,,,,,,,,,,,,,,,,,,,,,,,,,,,,,,,,,,,,,,,,,,,,,,,,,,,,,,,,,,,,,,
1736414859.908258,9.000000,0.000000,4298.333496,4337.436035,4272.051270,4317.948730,4343.846191,4357.436035,4380.769043,4543.717773,4546.282227,4561.153809,4482.820313,5645.000000,4310.256348,4258.333496,0.000000,0.000000,6.000000,,,,0.000000,0.000000,0.000000,0.000000,0.000000,0.000000,0.000000,0.000000,0.000000,0.000000,0.000000,0.000000,0.000000,0.000000,0.000000,0.000000,,,,,,,,,,,,,,,,,,,,,,,,,,,,,,,,,,,,,,,,,,,,,,,,,,,,,,,,,,,,,,,,,,,,,,,,,,,,,,,,,,,,,,,,,,,,,,,,,,,,,,,,,,,,,,,,,,,,,,,,,,,,,,,,,
1736414859.916165,10.000000,0.000000,4297.307617,4338.205078,4274.230957,4321.794922,4346.666504,4356.794922,4379.487305,4545.641113,4545.897461,4559.358887,4483.461426,5643.205078,4306.922852,4259.358887,0.000000,0.000000,6.000000,,,,0.000000,0.000000,0.000000,0.000000,0.000000,0.000000,0.000000,0.000000,0.000000,0.000000,0.000000,0.000000,0.000000,0.000000,0.000000,0.000000,,,,,,,,,,,,,,,,,,,,,,,,,,,,,,,,,,,,,,,,,,,,,,,,,,,,,,,,,,,,,,,,,,,,,,,,,,,,,,,,,,,,,,,,,,,,,,,,,,,,,,,,,,,,,,,,,,,,,,,,,,,,,,,,,
1736414859.923973,11.000000,0.000000,4292.563965,4340.128418,4271.794922,4317.820313,4349.615234,4357.179688,4378.717773,4549.871582,4546.410156,4558.846191,4483.077148,5642.692383,4304.743652,4259.743652,0.000000,0.000000,6.000000,,,,0.000000,0.000000,0.000000,0.000000,0.000000,0.000000,0.000000,0.000000,0.000000,0.000000,0.000000,0.000000,0.000000,0.000000,0.000000,0.000000,,,,,,,,,,,,,,,,,,,,,,,,,,,,,,,,,,,,,,,,,,,,,,,,,,,,,,,,,,,,,,,,,,,,,,,,,,,,,,,,,,,,,,,,,,,,,,,,,,,,,,,,,,,,,,,,,,,,,,,,,,,,,,,,,
1736414859.931681,12.000000,0.000000,4295.641113,4342.948730,4270.256348,4316.410156,4349.102539,4356.282227,4380.128418,4548.333496,4545.000000,4560.769043,4483.077148,5644.743652,4308.589844,4259.743652,0.000000,0.000000,6.000000,,,,0.000000,0.000000,0.000000,0.000000,0.000000,0.000000,0.000000,0.000000,0.000000,0.000000,0.000000,0.000000,0.000000,0.000000,0.000000,0.000000,,,,,,,,,,,,,,,,,3.000000,0.000000,0.716469,-0.690125,0.007751,0.101685,-0.154316,-0.980100,0.040532,-7.192697,-14.840484,-0.252865,,,,,,,,,,,,,,,,,,,,,,,,,,,,,,,,,,,,,,,,,,,,,,,,,,,,,,,,,,,,,,,,,,,,,,,,,,,,,,,,,,,,,,,,,,,,,,,,,,,,,
1736414859.939589,13.000000,0.000000,4296.538574,4339.102539,4269.743652,4319.615234,4347.179688,4355.641113,4379.230957,4546.538574,4542.307617,4560.512695,4482.948730,5646.410156,4309.102539,4260.769043,0.000000,0.000000,6.000000,,,,0.000000,0.000000,0.000000,0.000000,0.000000,0.000000,0.000000,0.000000,0.000000,0.000000,0.000000,0.000000,0.000000,0.000000,0.000000,0.000000,,,,,,,,,,,,,,,,,,,,,,,,,,,,,,,,,,,,,,,,,,,,,,,,,,,,,,,,,,,,,,,,,,,,,,,,,,,,,,,,,,,,,,,,,,,,,,,,,,,,,,,,,,,,,,,,,,,,,,,,,,,,,,,,,
1736414859.947397,14.000000,0.000000,4295.256348,4335.000000,4270.128418,4319.358887,4346.410156,4358.846191,4378.205078,4548.333496,4543.205078,4556.666504,4482.179688,5645.128418,4305.512695,4259.358887,0.000000,0.000000,6.000000,,,,0.000000,0.000000,0.000000,0.000000,0.000000,0.000000,0.000000,0.000000,0.000000,0.000000,0.000000,0.000000,0.000000,0.000000,0.000000,0.000000,,,,,,,,,,,,,,,,,,,,,,,,,,,,,,,,,,,,,,,,,,,,,,,,,,,,,,,,,,,,,,,,,,,,,,,,,,,,,,,,,,,,,,,,,,,,,,,,,,,,,,,,,,,,,,,,,,,,,,,,,,,,,,,,,
1736414859.955205,15.000000,0.000000,4293.077148,4339.358887,4271.282227,4317.948730,4348.205078,4360.897461,4379.487305,4547.948730,4545.256348,4557.563965,4482.436035,5642.179688,4305.641113,4255.256348,0.000000,0.000000,6.000000,,,,0.000000,0.000000,0.000000,0.000000,0.000000,0.000000,0.000000,0.000000,0.000000,0.000000,0.000000,0.000000,0.000000,0.000000,0.000000,0.000000,,,,,,,,,,,,,,,,,,,,,,,,,,,,,,,,,,,,,,,,,,,,,,,,,,,,,,,,,,,,,,,,,,,,,,,,,,,,,,,,,,,,,,,,,,,,,,,,,,,,,,,,,,,,,,,,,,,,,,,,,,,,,,,,,
1736414859.962913,16.000000,0.000000,4289.871582,4343.205078,4270.256348,4318.333496,4349.487305,4357.692383,4376.666504,4545.769043,4542.820313,4561.794922,4484.871582,5642.692383,4306.538574,4256.794922,0.000000,0.000000,6.000000,,,,0.000000,0.000000,0.000000,0.000000,0.000000,0.000000,0.000000,0.000000,0.000000,0.000000,0.000000,0.000000,0.000000,0.000000,0.000000,0.000000,,,,,,,,,,,,,,,,,4.000000,0.000000,0.716420,-0.690186,0.007690,0.101624,-0.158711,-0.998657,0.042974,-7.206760,-14.873102,-0.277579,,,,,,,,,,,,,,,,,,,,,,,,,,,,,,,,,,,,,,,,,,,,,,,,,,,,,,,,,,,,,,,,,,,,,,,,,,,,,,,,,,,,,,,,,,,,,,,,,,,,,
1736414859.970721,17.000000,0.000000,4292.051270,4342.820313,4271.025879,4316.666504,4348.461426,4357.307617,4375.128418,4546.538574,4542.563965,4561.538574,4483.974121,5643.974121,4306.153809,4260.000000,0.000000,0.000000,6.000000,,,,0.000000,0.000000,0.000000,0.000000,0.000000,0.000000,0.000000,0.000000,0.000000,0.000000,0.000000,0.000000,0.000000,0.000000,0.000000,0.000000,,,,,,,,,,,,,,,,,,,,,,,,,,,,,,,,,,,,,,,,,,,,,,,,,,,,,,,,,,,,,,,,,,,,,,,,,,,,,,,,,,,,,,,,,,,,,,,,,,,,,,,,,,,,,,,,,,,,,,,,,,,,,,,,,
1736414859.978429,18.000000,0.000000,4294.230957,4341.666504,4269.871582,4315.641113,4349.102539,4359.102539,4376.922852,4548.205078,4546.025879,4558.717773,4481.666504,5643.461426,4305.769043,4258.717773,0.000000,0.000000,6.000000,,,,0.000000,0.000000,0.000000,0.000000,0.000000,0.000000,0.000000,0.000000,0.000000,0.000000,0.000000,0.000000,0.000000,0.000000,0.000000,0.000000,,,,,,,,,,,,,,,,,,,,,,,,,,,,,,,,,,,,,,,,,,,,,,,,,,,,,,,,,,,,,,,,,,,,,,,,,,,,,,,,,,,,,,,,,,,,,,,,,,,,,,,,,,,,,,,,,,,,,,,,,,,,,,,,,
1736414859.986237,19.000000,0.000000,4294.487305,4341.538574,4268.846191,4318.205078,4350.384766,4356.922852,4377.948730,4547.436035,4545.256348,4560.256348,4479.743652,5642.051270,4305.769043,4260.641113,0.000000,0.000000,6.000000,,,,0.000000,0.000000,0.000000,0.000000,0.000000,0.000000,0.000000,0.000000,0.000000,0.000000,0.000000,0.000000,0.000000,0.000000,0.000000,0.000000,,,,,,,,,,,,,,,,,,,,,,,,,,,,,,,,,,,,,,,,,,,,,,,,,,,,,,,,,,,,0.089366,0.020650,0.024756,0.026820,0.025983,0.049908,0.024047,0.005492,0.019320,0.030300,0.049686,0.024690,0.021699,0.024442,0.022862,0.035307,0.012854,0.045454,0.028081,0.024305,0.012084,0.023944,0.035610,0.021913,0.025493,0.015580,0.017104,0.017139,0.031771,0.024602,0.036437,0.041014,0.017910,0.025354,0.023133,0.045058,0.036993,0.014231,0.013014,0.018914,0.020587,0.019924,0.059661,0.038439,0.020743,0.011829,0.014898,0.020853,0.015377,0.009831,0.023643,0.071249,0.028044,0.036755,0.030364,0.032091,0.051682,0.026806,0.025660,0.038526,0.032248,0.014353,0.047439,0.020397,0.024418,0.024360,0.023079,0.029812,0.026388,0.026352
1736414859.993945,20.000000,0.000000,4295.641113,4342.307617,4271.922852,4319.615234,4349.230957,4357.051270,4378.974121,4547.179688,4541.922852,4561.794922,4479.615234,5642.563965,4306.922852,4262.436035,0.000000,0.000000,6.000000,,,,0.000000,0.000000,0.000000,0.000000,0.000000,0.000000,0.000000,0.000000,0.000000,0.000000,0.000000,0.000000,0.000000,0.000000,0.000000,0.000000,,,,,,,,,,,,,,,,,5.000000,0.000000,0.716419,-0.690186,0.007751,0.101624,-0.157734,-0.988402,0.043951,-7.252751,-14.902458,-0.233154,,,,,,,,,,,,,,,,,,,,,,,,,,,,,,,,,,,,,,,,,,,,,,,,,,,,,,,,,,,,,,,,,,,,,,,,,,,,,,,,,,,,,,,,,,,,,,,,,,,,,
1736414860.001753,21.000000,0.000000,4291.794922,4340.384766,4271.666504,4320.256348,4347.436035,4357.563965,4378.205078,4548.077148,4543.333496,4561.153809,4483.205078,5646.666504,4306.282227,4259.871582,0.000000,0.000000,6.000000,,,,0.000000,0.000000,0.000000,0.000000,0.000000,0.000000,0.000000,0.000000,0.000000,0.000000,0.000000,0.000000,0.000000,0.000000,0.000000,0.000000,,,,,,,,,,,,,,,,,,,,,,,,,,,,,,,,,,,,,,,,,,,,,,,,,,,,,,,,,,,,,,,,,,,,,,,,,,,,,,,,,,,,,,,,,,,,,,,,,,,,,,,,,,,,,,,,,,,,,,,,,,,,,,,,,
1736414860.009461,22.000000,0.000000,4292.051270,4340.512695,4270.256348,4320.384766,4346.666504,4355.769043,4377.179688,4548.077148,4545.128418,4562.436035,4483.589844,5647.948730,4304.615234,4260.512695,0.000000,0.000000,6.000000,,,,0.000000,0.000000,0.000000,0.000000,0.000000,0.000000,0.000000,0.000000,0.000000,0.000000,0.000000,0.000000,0.000000,0.000000,0.000000,0.000000,,,,,,,,,,,,,,,,,,,,,,,,,,,,,,,,,,,,,,,,,,,,,,,,,,,,,,,,,,,,,,,,,,,,,,,,,,,,,,,,,,,,,,,,,,,,,,,,,,,,,,,,,,,,,,,,,,,,,,,,,,,,,,,,,
1736414860.017369,23.000000,0.000000,4297.307617,4340.641113,4270.256348,4318.077148,4347.948730,4356.153809,4377.820313,4546.282227,4545.512695,4560.641113,4480.256348,5644.102539,4304.743652,4263.077148,0.000000,0.000000,6.000000,,,,0.000000,0.000000,0.000000,0.000000,0.000000,0.000000,0.000000,0.000000,0.000000,0.000000,0.000000,0.000000,0.000000,0.000000,0.000000,0.000000,,,,,,,,,,,,,,,,,,,,,,,,,,,,,,,,,,,,,,,,,,,,,,,,,,,,,,,,,,,,,,,,,,,,,,,,,,,,,,,,,,,,,,,,,,,,,,,,,,,,,,,,,,,,,,,,,,,,,,,,,,,,,,,,,
1736414860.025177,24.000000,0.000000,4296.282227,4340.512695,4269.871582,4318.205078,4349.615234,4359.487305,4379.230957,4546.153809,4547.436035,4556.794922,4481.922852,5644.230957,4305.128418,4261.025879,0.000000,0.000000,6.000000,,,,0.000000,0.000000,0.000000,0.000000,0.000000,0.000000,0.000000,0.000000,0.000000,0.000000,0.000000,0.000000,0.000000,0.000000,0.000000,0.000000,,,,,,,,,,,,,,,,,6.000000,0.000000,0.716410,-0.690186,0.007813,0.101685,-0.150897,-0.988402,0.042486,-7.377476,-14.662212,-0.343172,,,,,,,,,,,,,,,,,,,,,,,,,,,,,,,,,,,,,,,,,,,,,,,,,,,,,,,,,,,,,,,,,,,,,,,,,,,,,,,,,,,,,,,,,,,,,,,,,,,,,
1736414860.032985,25.000000,0.000000,4292.179688,4341.282227,4268.717773,4320.641113,4348.333496,4360.897461,4378.333496,4548.589844,4545.000000,4559.102539,4485.897461,5646.538574,4305.897461,4259.743652,0.000000,0.000000,6.000000,,,,0.000000,0.000000,0.000000,0.000000,0.000000,0.000000,0.000000,0.000000,0.000000,0.000000,0.000000,0.000000,0.000000,0.000000,0.000000,0.000000,,,,,,,,,,,,,,,,,,,,,,,,,,,,,,,,,,,,,,,,,,,,,,,,,,,,,,,,,,,,,,,,,,,,,,,,,,,,,,,,,,,,,,,,,,,,,,,,,,,,,,,,,,,,,,,,,,,,,,,,,,,,,,,,,
1736414860.040693,26.000000,0.000000,4291.922852,4337.948730,4269.102539,4318.974121,4347.307617,4361.282227,4380.000000,4548.717773,4541.282227,4563.205078,4484.871582,5643.077148,4306.025879,4260.769043,0.000000,0.000000,6.000000,,,,0.000000,0.000000,0.000000,0.000000,0.000000,0.000000,0.000000,0.000000,0.000000,0.000000,0.000000,0.000000,0.000000,0.000000,0.000000,0.000000,,,,,,,,,,,,,,,,,,,,,,,,,,,,,,,,,,,,,,,,,,,,,,,,,,,,,,,,,,,,,,,,,,,,,,,,,,,,,,,,,,,,,,,,,,,,,,,,,,,,,,,,,,,,,,,,,,,,,,,,,,,,,,,,,
1736414860.048601,27.000000,0.000000,4296.410156,4337.179688,4271.282227,4317.436035,4351.153809,4362.307617,4383.717773,4545.256348,4543.077148,4561.410156,4481.282227,5641.025879,4304.615234,4259.358887,0.000000,0.000000,6.000000,,,,0.000000,0.000000,0.000000,0.000000,0.000000,0.000000,0.000000,0.000000,0.000000,0.000000,0.000000,0.000000,0.000000,0.000000,0.000000,0.000000,,,,,,,,,,,,,,,,,,,,,,,,,,,,,,,,,,,,,,,,,,,,,,,,,,,,,,,,,,,,,,,,,,,,,,,,,,,,,,,,,,,,,,,,,,,,,,,,,,,,,,,,,,,,,,,,,,,,,,,,,,,,,,,,,
1736414860.056409,28.000000,0.000000,4296.025879,4341.538574,4269.230957,4318.205078,4352.179688,4357.948730,4380.384766,4543.589844,4545.128418,4559.871582,4481.282227,5643.333496,4305.256348,4258.333496,0.000000,0.000000,6.000000,,,,0.000000,0.000000,0.000000,0.000000,0.000000,0.000000,0.000000,0.000000,0.000000,0.000000,0.000000,0.000000,0.000000,0.000000,0.000000,0.000000,,,,,,,,,,,,,,,,,7.000000,0.000000,0.716361,-0.690247,0.007690,0.101624,-0.158711,-0.998169,0.048346,-7.356395,-14.645991,-0.342188,,,,,,,,,,,,,,,,,,,,,,,,,,,,,,,,,,,,,,,,,,,,,,,,,,,,,,,,,,,,,,,,,,,,,,,,,,,,,,,,,,,,,,,,,,,,,,,,,,,,,
1736414860.064317,29.000000,0.000000,4292.563965,4342.563965,4267.820313,4318.717773,4350.128418,4357.307617,4376.282227,4546.025879,4545.256348,4562.051270,4483.077148,5643.461426,4308.846191,4259.743652,0.000000,0.000000,6.000000,,,,0.000000,0.000000,0.000000,0.000000,0.000000,0.000000,0.000000,0.000000,0.000000,0.000000,0.000000,0.000000,0.000000,0.000000,0.000000,0.000000,,,,,,,,,,,,,,,,,,,,,,,,,,,,,,,,,,,,,,,,,,,,,,,,,,,,,,,,,,,,,,,,,,,,,,,,,,,,,,,,,,,,,,,,,,,,,,,,,,,,,,,,,,,,,,,,,,,,,,,,,,,,,,,,,
1736414860.072125,30.000000,0.000000,4294.102539,4337.948730,4272.179688,4320.128418,4349.743652,4362.307617,4377.692383,4546.666504,4545.384766,4561.538574,4479.743652,5643.846191,4309.615234,4257.820313,0.000000,0.000000,6.000000,,,,0.000000,0.000000,0.000000,0.000000,0.000000,0.000000,0.000000,0.000000,0.000000,0.000000,0.000000,0.000000,0.000000,0.000000,0.000000,0.000000,,,,,,,,,,,,,,,,,,,,,,,,,,,,,,,,,,,,,,,,,,,,,,,,,,,,,,,,,,,,,,,,,,,,,,,,,,,,,,,,,,,,,,,,,,,,,,,,,,,,,,,,,,,,,,,,,,,,,,,,,,,,,,,,,
1736414860.080033,31.000000,0.000000,4294.358887,4337.948730,4272.692383,4319.743652,4348.333496,4360.897461,4380.128418,4544.871582,4546.282227,4560.512695,4477.563965,5645.897461,4308.717773,4254.102539,0.000000,0.000000,6.000000,,,,0.000000,0.000000,0.000000,0.000000,0.000000,0.000000,0.000000,0.000000,0.000000,0.000000,0.000000,0.000000,0.000000,0.000000,0.000000,0.000000,,,,,,,,,,,,,,,,,,,,,,,,,,,,,,,,,,,,,,,,,,,,,,,,,,,,,,,,,,,,,,,,,,,,,,,,,,,,,,,,,,,,,,,,,,,,,,,,,,,,,,,,,,,,,,,,,,,,,,,,,,,,,,,,,
1736414860.087841,32.000000,0.000000,4295.512695,4344.615234,4272.692383,4318.974121,4346.282227,4357.307617,4380.256348,4544.743652,4547.436035,4561.025879,4482.563965,5644.102539,4307.948730,4257.051270,0.000000,0.000000,6.000000,,,,0.000000,0.000000,0.000000,0.000000,0.000000,0.000000,0.000000,0.000000,0.000000,0.000000,0.000000,0.000000,0.000000,0.000000,0.000000,0.000000,,,,,,,,,,,,,,,,,8.000000,0.000000,0.716353,-0.690247,0.007629,0.101685,-0.157734,-0.979123,0.043951,-7.287422,-14.798059,-0.274636,,,,,,,,,,,,,,,,,,,,,,,,,,,,,,,,,,,,,,,,,,,,,,,,,,,,,,,,,,,,,,,,,,,,,,,,,,,,,,,,,,,,,,,,,,,,,,,,,,,,,
1736414860.095749,33.000000,0.000000,4294.743652,4342.051270,4272.436035,4321.025879,4346.922852,4358.333496,4379.487305,4547.948730,4546.922852,4561.153809,4485.256348,5644.102539,4306.282227,4259.743652,0.000000,0.000000,6.000000,,,,0.000000,0.000000,0.000000,0.000000,0.000000,0.000000,0.000000,0.000000,0.000000,0.000000,0.000000,0.000000,0.000000,0.000000,0.000000,0.000000,,,,,,,,,,,,,,,,,,,,,,,,,,,,,,,,,,,,,,,,,,,,,,,,,,,,,,,,,,,,,,,,,,,,,,,,,,,,,,,,,,,,,,,,,,,,,,,,,,,,,,,,,,,,,,,,,,,,,,,,,,,,,,,,,
1736414860.103557,34.000000,0.000000,4291.666504,4336.666504,4269.743652,4321.410156,4349.487305,4359.615234,4378.077148,4548.461426,4544.487305,4560.769043,4483.205078,5646.922852,4307.436035,4257.563965,0.000000,0.000000,6.000000,,,,0.000000,0.000000,0.000000,0.000000,0.000000,0.000000,0.000000,0.000000,0.000000,0.000000,0.000000,0.000000,0.000000,0.000000,0.000000,0.000000,,,,,,,,,,,,,,,,,,,,,,,,,,,,,,,,,,,,,,,,,,,,,,,,,,,,,,,,,,,,,,,,,,,,,,,,,,,,,,,,,,,,,,,,,,,,,,,,,,,,,,,,,,,,,,,,,,,,,,,,,,,,,,,,,
1736414860.111265,35.000000,0.000000,4294.358887,4338.333496,4272.307617,4318.974121,4350.256348,4356.922852,4377.563965,4546.153809,4546.153809,4560.512695,4482.436035,5645.128418,4307.563965,4258.333496,0.000000,0.000000,6.000000,,,,0.000000,0.000000,0.000000,0.000000,0.000000,0.000000,0.000000,0.000000,0.000000,0.000000,0.000000,0.000000,0.000000,0.000000,0.000000,0.000000,1.000000,0.000000,0.000000,0.000000,0.000000,0.000000,0.000000,0.000000,0.000000,0.000000,0.000000,0.000000,0.000000,0.000000,0.000000,0.000000,,,,,,,,,,,,,,,,,,,,,,,,,,,,,,,,,,,,,,,,,,,,0.087507,0.017725,0.019939,0.029447,0.027138,0.047218,0.024807,0.006001,0.018956,0.029594,0.048792,0.024354,0.018876,0.022755,0.021493,0.031415,0.016375,0.039813,0.029729,0.023809,0.010602,0.020099,0.034971,0.025451,0.026980,0.015427,0.014247,0.015253,0.026735,0.023463,0.037254,0.032520,0.016597,0.028221,0.023008,0.046437,0.046344,0.013880,0.012923,0.019545,0.019381,0.015993,0.052594,0.032745,0.020251,0.011099,0.014044,0.016039,0.015797,0.010253,0.020648,0.070488,0.030640,0.037423,0.027078,0.023976,0.049950,0.031877,0.021388,0.032766,0.027188,0.013393,0.037828,0.020077,0.027314,0.027488,0.028070,0.030713,0.028291,0.024662
1736414860.119073,36.000000,0.000000,4297.563965,4340.128418,4274.871582,4319.230957,4347.948730,4357.563965,4378.333496,4547.692383,4550.128418,4558.717773,4481.282227,5641.538574,4305.000000,4259.487305,0.000000,0.000000,6.000000,,,,0.000000,0.000000,0.000000,0.000000,0.000000,0.000000,0.000000,0.000000,0.000000,0.000000,0.000000,0.000000,0.000000,0.000000,0.000000,0.000000,,,,,,,,,,,,,,,,,9.000000,0.000000,0.716353,-0.690247,0.007629,0.101685,-0.161641,-0.982053,0.051276,-7.308680,-14.801586,-0.330506,,,,,,,,,,,,,,,,,,,,,,,,,,,,,,,,,,,,,,,,,,,,,,,,,,,,,,,,,,,,,,,,,,,,,,,,,,,,,,,,,,,,,,,,,,,,,,,,,,,,,
1736414860.126781,37.000000,0.000000,4299.230957,4341.538574,4272.948730,4321.922852,4345.384766,4362.179688,4376.922852,4547.820313,4548.974121,4556.666504,4478.589844,5642.820313,4305.512695,4258.205078,0.000000,0.000000,6.000000,,,,0.000000,0.000000,0.000000,0.000000,0.000000,0.000000,0.000000,0.000000,0.000000,0.000000,0.000000,0.000000,0.000000,0.000000,0.000000,0.000000,,,,,,,,,,,,,,,,,,,,,,,,,,,,,,,,,,,,,,,,,,,,,,,,,,,,,,,,,,,,,,,,,,,,,,,,,,,,,,,,,,,,,,,,,,,,,,,,,,,,,,,,,,,,,,,,,,,,,,,,,,,,,,,,,
1736414860.134589,38.000000,0.000000,4297.948730,4341.410156,4268.461426,4318.717773,4347.563965,4362.051270,4374.743652,4545.000000,4547.051270,4558.333496,4478.461426,5644.102539,4306.794922,4257.820313,0.000000,0.000000,6.000000,,,,0.000000,0.000000,0.000000,0.000000,0.000000,0.000000,0.000000,0.000000,0.000000,0.000000,0.000000,0.000000,0.000000,0.000000,0.000000,0.000000,,,,,,,,,,,,,,,,,,,,,,,,,,,,,,,,,,,,,,,,,,,,,,,,,,,,,,,,,,,,,,,,,,,,,,,,,,,,,,,,,,,,,,,,,,,,,,,,,,,,,,,,,,,,,,,,,,,,,,,,,,,,,,,,,
1736414860.142297,39.000000,0.000000,4295.897461,4340.000000,4267.820313,4315.256348,4351.153809,4359.615234,4377.179688,4545.128418,4547.563965,4560.000000,4480.256348,5641.538574,4303.974121,4257.692383,0.000000,0.000000,6.000000,,,,0.000000,0.000000,0.000000,0.000000,0.000000,0.000000,0.000000,0.000000,0.000000,0.000000,0.000000,0.000000,0.000000,0.000000,0.000000,0.000000,,,,,,,,,,,,,,,,,,,,,,,,,,,,,,,,,,,,,,,,,,,,,,,,,,,,,,,,,,,,,,,,,,,,,,,,,,,,,,,,,,,,,,,,,,,,,,,,,,,,,,,,,,,,,,,,,,,,,,,,,,,,,,,,,
1736414860.150105,40.000000,0.000000,4297.563965,4340.512695,4273.333496,4318.974121,4349.230957,4360.256348,4380.512695,4545.512695,4545.512695,4560.000000,4481.666504,5641.410156,4302.692383,4256.666504,0.000000,0.000000,6.000000,,,,0.000000,0.000000,0.000000,0.000000,0.000000,0.000000,0.000000,0.000000,0.000000,0.000000,0.000000,0.000000,0.000000,0.000000,0.000000,0.000000,,,,,,,,,,,,,,,,,10.000000,0.000000,0.716413,-0.690186,0.007507,0.101685,-0.151874,-0.987425,0.055183,-7.261145,-14.788095,-0.347455,,,,,,,,,,,,,,,,,,,,,,,,,,,,,,,,,,,,,,,,,,,,,,,,,,,,,,,,,,,,,,,,,,,,,,,,,,,,,,,,,,,,,,,,,,,,,,,,,,,,,
1736414860.157813,41.000000,0.000000,4295.000000,4338.333496,4270.769043,4320.256348,4346.666504,4358.077148,4379.743652,4544.487305,4545.000000,4558.974121,4484.230957,5645.512695,4306.410156,4257.820313,0.000000,0.000000,6.000000,,,,0.000000,0.000000,0.000000,0.000000,0.000000,0.000000,0.000000,0.000000,0.000000,0.000000,0.000000,0.000000,0.000000,0.000000,0.000000,0.000000,,,,,,,,,,,,,,,,,,,,,,,,,,,,,,,,,,,,,,,,,,,,,,,,,,,,,,,,,,,,,,,,,,,,,,,,,,,,,,,,,,,,,,,,,,,,,,,,,,,,,,,,,,,,,,,,,,,,,,,,,,,,,,,,,
1736414860.165621,42.000000,0.000000,4291.538574,4337.307617,4267.436035,4318.461426,4348.589844,4355.641113,4380.128418,4545.769043,4545.384766,4559.102539,4482.307617,5645.897461,4306.794922,4260.512695,0.000000,0.000000,6.000000,,,,0.000000,0.000000,0.000000,0.000000,0.000000,0.000000,0.000000,0.000000,0.000000,0.000000,0.000000,0.000000,0.000000,0.000000,0.000000,0.000000,,,,,,,,,,,,,,,,,,,,,,,,,,,,,,,,,,,,,,,,,,,,,,,,,,,,,,,,,,,,,,,,,,,,,,,,,,,,,,,,,,,,,,,,,,,,,,,,,,,,,,,,,,,,,,,,,,,,,,,,,,,,,,,,,
1736414860.173329,43.000000,0.000000,4293.589844,4339.487305,4270.256348,4320.000000,4348.589844,4358.461426,4382.436035,4548.461426,4545.128418,4560.641113,4479.871582,5642.563965,4306.025879,4260.897461,0.000000,0.000000,6.000000,,,,0.000000,0.000000,0.000000,0.000000,0.000000,0.000000,0.000000,0.000000,0.000000,0.000000,0.000000,0.000000,0.000000,0.000000,0.000000,0.000000,,,,,,,,,,,,,,,,,,,,,,,,,,,,,,,,,,,,,,,,,,,,,,,,,,,,,,,,,,,,,,,,,,,,,,,,,,,,,,,,,,,,,,,,,,,,,,,,,,,,,,,,,,,,,,,,,,,,,,,,,,,,,,,,,
1736414860.181137,44.000000,0.000000,4296.282227,4338.461426,4271.794922,4318.846191,4346.153809,4357.820313,4380.512695,4550.128418,4545.512695,4560.512695,4481.025879,5642.307617,4308.333496,4260.128418,0.000000,0.000000,6.000000,,,,0.000000,0.000000,0.000000,0.000000,0.000000,0.000000,0.000000,0.000000,0.000000,0.000000,0.000000,0.000000,0.000000,0.000000,0.000000,0.000000,,,,,,,,,,,,,,,,,11.000000,0.000000,0.716346,-0.690247,0.007507,0.101746,-0.166036,-0.992797,0.046392,-7.251698,-14.759285,-0.312710,,,,,,,,,,,,,,,,,,,,,,,,,,,,,,,,,,,,,,,,,,,,,,,,,,,,,,,,,,,,,,,,,,,,,,,,,,,,,,,,,,,,,,,,,,,,,,,,,,,,,
1736414860.188845,45.000000,0.000000,4296.922852,4339.615234,4271.538574,4316.410156,4347.820313,4355.128418,4377.051270,4549.102539,4545.641113,4559.871582,4479.102539,5644.871582,4308.589844,4258.589844,0.000000,0.000000,6.000000,,,,0.000000,0.000000,0.000000,0.000000,0.000000,0.000000,0.000000,0.000000,0.000000,0.000000,0.000000,0.000000,0.000000,0.000000,0.000000,0.000000,,,,,,,,,,,,,,,,,,,,,,,,,,,,,,,,,,,,,,,,,,,,,,,,,,,,,,,,,,,,,,,,,,,,,,,,,,,,,,,,,,,,,,,,,,,,,,,,,,,,,,,,,,,,,,,,,,,,,,,,,,,,,,,,,
1736414860.196653,46.000000,0.000000,4293.717773,4342.820313,4270.128418,4318.461426,4349.487305,4358.205078,4376.410156,4546.153809,4546.153809,4560.384766,4479.230957,5644.230957,4308.333496,4258.717773,0.000000,0.000000,6.000000,,,,0.000000,0.000000,0.000000,0.000000,0.000000,0.000000,0.000000,0.000000,0.000000,0.000000,0.000000,0.000000,0.000000,0.000000,0.000000,0.000000,,,,,,,,,,,,,,,,,,,,,,,,,,,,,,,,,,,,,,,,,,,,,,,,,,,,,,,,,,,,,,,,,,,,,,,,,,,,,,,,,,,,,,,,,,,,,,,,,,,,,,,,,,,,,,,,,,,,,,,,,,,,,,,,,
1736414860.204361,47.000000,0.000000,4294.871582,4342.051270,4271.666504,4321.922852,4347.692383,4360.641113,4377.820313,4545.256348,4546.025879,4561.282227,4480.512695,5640.897461,4310.897461,4259.615234,0.000000,0.000000,6.000000,,,,0.000000,0.000000,0.000000,0.000000,0.000000,0.000000,0.000000,0.000000,0.000000,0.000000,0.000000,0.000000,0.000000,0.000000,0.000000,0.000000,,,,,,,,,,,,,,,,,,,,,,,,,,,,,,,,,,,,,,,,,,,,,,,,,,,,,,,,,,,,,,,,,,,,,,,,,,,,,,,,,,,,,,,,,,,,,,,,,,,,,,,,,,,,,,,,,,,,,,,,,,,,,,,,,
1736414860.212169,48.000000,0.000000,4297.692383,4339.487305,4273.205078,4321.922852,4347.436035,4358.205078,4378.461426,4545.897461,4545.641113,4562.051270,4478.461426,5640.384766,4310.641113,4256.922852,0.000000,0.000000,6.000000,,,,0.000000,0.000000,0.000000,0.000000,0.000000,0.000000,0.000000,0.000000,0.000000,0.000000,0.000000,0.000000,0.000000,0.000000,0.000000,0.000000,,,,,,,,,,,,,,,,,12.000000,0.000000,0.716345,-0.690247,0.007568,0.101746,-0.158222,-0.985960,0.059578,-7.243194,-14.683356,-0.248105,,,,,,,,,,,,,,,,,,,,,,,,,,,,,,,,,,,,,,,,,,,,,,,,,,,,,,,,,,,,,,,,,,,,,,,,,,,,,,,,,,,,,,,,,,,,,,,,,,,,,
1736414860.219877,49.000000,0.000000,4295.128418,4338.333496,4268.974121,4319.487305,4348.461426,4358.717773,4377.820313,4546.794922,4546.666504,4563.974121,4481.025879,5642.307617,4306.922852,4254.743652,0.000000,0.000000,6.000000,,,,0.000000,0.000000,0.000000,0.000000,0.000000,0.000000,0.000000,0.000000,0.000000,0.000000,0.000000,0.000000,0.000000,0.000000,0.000000,0.000000,,,,,,,,,,,,,,,,,,,,,,,,,,,,,,,,,,,,,,,,,,,,,,,,,,,,,,,,,,,,,,,,,,,,,,,,,,,,,,,,,,,,,,,,,,,,,,,,,,,,,,,,,,,,,,,,,,,,,,,,,,,,,,,,,
1736414860.227685,50.000000,0.000000,4295.641113,4339.358887,4268.846191,4321.410156,4348.333496,4362.179688,4377.436035,4546.282227,4546.538574,4564.230957,4486.025879,5641.666504,4305.128418,4259.871582,0.000000,0.000000,6.000000,,,,0.000000,0.000000,0.000000,0.000000,0.000000,0.000000,0.000000,0.000000,0.000000,0.000000,0.000000,0.000000,0.000000,0.000000,0.000000,0.000000,,,,,,,,,,,,,,,,,,,,,,,,,,,,,,,,,,,,,,,,,,,,,,,,,,,,,,,,,,,,,,,,,,,,,,,,,,,,,,,,,,,,,,,,,,,,,,,,,,,,,,,,,,,,,,,,,,,,,,,,,,,,,,,,,
1736414860.235393,51.000000,0.000000,4295.641113,4338.717773,4273.077148,4320.769043,4347.307617,4360.256348,4377.820313,4545.128418,4545.000000,4560.641113,4483.846191,5640.384766,4303.974121,4261.794922,0.000000,0.000000,6.000000,,,,0.000000,0.000000,0.000000,0.000000,0.000000,0.000000,0.000000,0.000000,0.000000,0.000000,0.000000,0.000000,0.000000,0.000000,0.000000,0.000000,,,,,,,,,,,,,,,,,,,,,,,,,,,,,,,,,,,,,,,,,,,,,,,,,,,,,,,,,,,,0.082101,0.015291,0.019798,0.031594,0.027952,0.041387,0.024579,0.007554,0.018499,0.028704,0.044926,0.025051,0.016795,0.020669,0.021305,0.026849,0.019857,0.033437,0.029966,0.024149,0.010418,0.017360,0.034350,0.027946,0.028506,0.015112,0.011889,0.014004,0.023257,0.022470,0.036245,0.027303,0.015216,0.029830,0.022831,0.045254,0.052339,0.014414,0.013351,0.019655,0.017376,0.013481,0.044522,0.027213,0.019627,0.012435,0.012831,0.011739,0.016141,0.010839,0.017007,0.068029,0.035413,0.037393,0.024125,0.018420,0.045992,0.035639,0.018338,0.027584,0.023519,0.014257,0.028330,0.020015,0.029481,0.028253,0.031960,0.031388,0.030525,0.023050
1736414860.243301,52.000000,0.000000,4292.948730,4339.358887,4272.307617,4317.948730,4346.025879,4358.461426,4376.666504,4546.794922,4544.358887,4560.000000,4481.410156,5640.897461,4302.948730,4257.051270,0.000000,0.000000,6.000000,,,,0.000000,0.000000,0.000000,0.000000,0.000000,0.000000,0.000000,0.000000,0.000000,0.000000,0.000000,0.000000,0.000000,0.000000,0.000000,0.000000,,,,,,,,,,,,,,,,,13.000000,0.000000,0.716396,-0.690186,0.007507,0.101807,-0.149921,-0.984007,0.045416,-7.135541,-14.748354,-0.256628,,,,,,,,,,,,,,,,,,,,,,,,,,,,,,,,,,,,,,,,,,,,,,,,,,,,,,,,,,,,,,,,,,,,,,,,,,,,,,,,,,,,,,,,,,,,,,,,,,,,,
1736414860.251109,53.000000,0.000000,4295.000000,4342.563965,4269.487305,4321.282227,4346.666504,4359.358887,4376.922852,4547.948730,4545.000000,4562.051270,4483.333496,5641.282227,4304.871582,4258.205078,0.000000,0.000000,6.000000,,,,0.000000,0.000000,0.000000,0.000000,0.000000,0.000000,0.000000,0.000000,0.000000,0.000000,0.000000,0.000000,0.000000,0.000000,0.000000,0.000000,,,,,,,,,,,,,,,,,,,,,,,,,,,,,,,,,,,,,,,,,,,,,,,,,,,,,,,,,,,,,,,,,,,,,,,,,,,,,,,,,,,,,,,,,,,,,,,,,,,,,,,,,,,,,,,,,,,,,,,,,,,,,,,,,
1736414860.259017,54.000000,0.000000,4297.051270,4340.000000,4270.769043,4318.974121,4348.974121,4359.358887,4378.077148,4544.743652,4547.051270,4562.563965,4482.436035,5642.563965,4306.410156,4262.051270,0.000000,0.000000,6.000000,,,,0.000000,0.000000,0.000000,0.000000,0.000000,0.000000,0.000000,0.000000,0.000000,0.000000,0.000000,0.000000,0.000000,0.000000,0.000000,0.000000,,,,,,,,,,,,,,,,,,,,,,,,,,,,,,,,,,,,,,,,,,,,,,,,,,,,,,,,,,,,,,,,,,,,,,,,,,,,,,,,,,,,,,,,,,,,,,,,,,,,,,,,,,,,,,,,,,,,,,,,,,,,,,,,,
1736414860.266825,55.000000,0.000000,4293.846191,4338.077148,4273.589844,4317.563965,4350.512695,4360.897461,4376.153809,4543.333496,4548.333496,4562.563965,4479.230957,5645.769043,4305.641113,4260.128418,0.000000,0.000000,6.000000,,,,0.000000,0.000000,0.000000,0.000000,0.000000,0.000000,0.000000,0.000000,0.000000,0.000000,0.000000,0.000000,0.000000,0.000000,0.000000,0.000000,,,,,,,,,,,,,,,,,,,,,,,,,,,,,,,,,,,,,,,,,,,,,,,,,,,,,,,,,,,,,,,,,,,,,,,,,,,,,,,,,,,,,,,,,,,,,,,,,,,,,,,,,,,,,,,,,,,,,,,,,,,,,,,,,
1736414860.274733,56.000000,0.000000,4291.282227,4340.000000,4272.563965,4320.897461,4351.282227,4359.871582,4375.128418,4548.717773,4545.512695,4563.077148,4478.333496,5646.153809,4305.000000,4256.666504,0.000000,0.000000,6.000000,,,,0.000000,0.000000,0.000000,0.000000,0.000000,0.000000,0.000000,0.000000,0.000000,0.000000,0.000000,0.000000,0.000000,0.000000,0.000000,0.000000,,,,,,,,,,,,,,,,,14.000000,0.000000,0.716355,-0.690247,0.007446,0.101685,-0.147479,-0.996215,0.051764,-7.155321,-14.740186,-0.330965,,,,,,,,,,,,,,,,,,,,,,,,,,,,,,,,,,,,,,,,,,,,,,,,,,,,,,,,,,,,,,,,,,,,,,,,,,,,,,,,,,,,,,,,,,,,,,,,,,,,,
1736414860.282541,57.000000,0.000000,4294.102539,4339.487305,4270.641113,4320.000000,4351.410156,4357.820313,4376.666504,4551.153809,4544.358887,4561.666504,4480.897461,5643.077148,4307.307617,4256.666504,0.000000,0.000000,6.000000,,,,0.000000,0.000000,0.000000,0.000000,0.000000,0.000000,0.000000,0.000000,0.000000,0.000000,0.000000,0.000000,0.000000,0.000000,0.000000,0.000000,,,,,,,,,,,,,,,,,,,,,,,,,,,,,,,,,,,,,,,,,,,,,,,,,,,,,,,,,,,,,,,,,,,,,,,,,,,,,,,,,,,,,,,,,,,,,,,,,,,,,,,,,,,,,,,,,,,,,,,,,,,,,,,,,
1736414860.290448,58.000000,0.000000,4297.307617,4339.358887,4273.461426,4320.000000,4349.230957,4359.230957,4377.179688,4546.025879,4545.256348,4558.205078,4482.820313,5641.025879,4309.358887,4258.589844,0.000000,0.000000,6.000000,,,,0.000000,0.000000,0.000000,0.000000,0.000000,0.000000,0.000000,0.000000,0.000000,0.000000,0.000000,0.000000,0.000000,0.000000,0.000000,0.000000,,,,,,,,,,,,,,,,,,,,,,,,,,,,,,,,,,,,,,,,,,,,,,,,,,,,,,,,,,,,,,,,,,,,,,,,,,,,,,,,,,,,,,,,,,,,,,,,,,,,,,,,,,,,,,,,,,,,,,,,,,,,,,,,,
1736414860.298256,59.000000,0.000000,4295.256348,4340.000000,4274.102539,4320.384766,4347.179688,4359.871582,4376.410156,4547.307617,4545.000000,4559.615234,4482.563965,5641.922852,4308.077148,4259.615234,0.000000,0.000000,6.000000,,,,0.000000,0.000000,0.000000,0.000000,0.000000,0.000000,0.000000,0.000000,0.000000,0.000000,0.000000,0.000000,0.000000,0.000000,0.000000,0.000000,,,,,,,,,,,,,,,,,,,,,,,,,,,,,,,,,,,,,,,,,,,,,,,,,,,,,,,,,,,,,,,,,,,,,,,,,,,,,,,,,,,,,,,,,,,,,,,,,,,,,,,,,,,,,,,,,,,,,,,,,,,,,,,,,
1736414860.306164,60.000000,0.000000,4295.512695,4340.128418,4271.410156,4320.256348,4348.717773,4357.948730,4375.641113,4549.743652,4543.717773,4562.307617,4483.077148,5642.436035,4307.692383,4259.871582,0.000000,0.000000,6.000000,,,,0.000000,0.000000,0.000000,0.000000,0.000000,0.000000,0.000000,0.000000,0.000000,0.000000,0.000000,0.000000,0.000000,0.000000,0.000000,0.000000,,,,,,,,,,,,,,,,,15.000000,0.000000,0.716481,-0.690125,0.007507,0.101624,-0.161152,-0.982542,0.050299,-7.173122,-14.866167,-0.481202,,,,,,,,,,,,,,,,,,,,,,,,,,,,,,,,,,,,,,,,,,,,,,,,,,,,,,,,,,,,,,,,,,,,,,,,,,,,,,,,,,,,,,,,,,,,,,,,,,,,,
1736414860.313972,61.000000,0.000000,4295.512695,4340.897461,4270.641113,4320.128418,4349.358887,4357.307617,4376.410156,4546.410156,4543.717773,4561.025879,4481.538574,5643.205078,4307.692383,4258.846191,0.000000,0.000000,6.000000,,,,0.000000,0.000000,0.000000,0.000000,0.000000,0.000000,0.000000,0.000000,0.000000,0.000000,0.000000,0.000000,0.000000,0.000000,0.000000,0.000000,,,,,,,,,,,,,,,,,,,,,,,,,,,,,,,,,,,,,,,,,,,,,,,,,,,,,,,,,,,,,,,,,,,,,,,,,,,,,,,,,,,,,,,,,,,,,,,,,,,,,,,,,,,,,,,,,,,,,,,,,,,,,,,,,
1736414860.321680,62.000000,0.000000,4291.794922,4338.974121,4268.846191,4319.230957,4347.692383,4357.820313,4379.230957,4545.641113,4545.128418,4560.384766,4478.589844,5643.974121,4305.000000,4258.974121,0.000000,0.000000,6.000000,,,,0.000000,0.000000,0.000000,0.000000,0.000000,0.000000,0.000000,0.000000,0.000000,0.000000,0.000000,0.000000,0.000000,0.000000,0.000000,0.000000,,,,,,,,,,,,,,,,,,,,,,,,,,,,,,,,,,,,,,,,,,,,,,,,,,,,,,,,,,,,,,,,,,,,,,,,,,,,,,,,,,,,,,,,,,,,,,,,,,,,,,,,,,,,,,,,,,,,,,,,,,,,,,,,,
1736414860.329488,63.000000,0.000000,4295.256348,4338.717773,4270.512695,4318.589844,4348.717773,4358.717773,4380.384766,4547.307617,4545.512695,4560.769043,4481.025879,5640.769043,4305.000000,4260.769043,0.000000,0.000000,6.000000,,,,0.000000,0.000000,0.000000,0.000000,0.000000,0.000000,0.000000,0.000000,0.000000,0.000000,0.000000,0.000000,0.000000,0.000000,0.000000,0.000000,,,,,,,,,,,,,,,,,,,,,,,,,,,,,,,,,,,,,,,,,,,,,,,,,,,,,,,,,,,,,,,,,,,,,,,,,,,,,,,,,,,,,,,,,,,,,,,,,,,,,,,,,,,,,,,,,,,,,,,,,,,,,,,,,
1736414860.337196,64.000000,0.000000,4294.871582,4339.102539,4272.307617,4316.282227,4348.846191,4356.538574,4379.230957,4546.922852,4545.897461,4560.769043,4485.128418,5640.384766,4309.230957,4261.153809,0.000000,0.000000,6.000000,,,,0.000000,0.000000,0.000000,0.000000,0.000000,0.000000,0.000000,0.000000,0.000000,0.000000,0.000000,0.000000,0.000000,0.000000,0.000000,0.000000,,,,,,,,,,,,,,,,,16.000000,0.000000,0.716499,-0.690125,0.007446,0.101501,-0.162129,-0.991332,0.042974,-7.389143,-14.846217,-0.416415,,,,,,,,,,,,,,,,,,,,,,,,,,,,,,,,,,,,,,,,,,,,,,,,,,,,,,,,,,,,,,,,,,,,,,,,,,,,,,,,,,,,,,,,,,,,,,,,,,,,,
1736414860.345004,65.000000,0.000000,4290.384766,4338.205078,4270.769043,4315.769043,4347.436035,4352.820313,4377.820313,4546.153809,4545.000000,4560.128418,4482.948730,5644.230957,4308.717773,4258.077148,0.000000,0.000000,6.000000,,,,0.000000,0.000000,0.000000,0.000000,0.000000,0.000000,0.000000,0.000000,0.000000,0.000000,0.000000,0.000000,0.000000,0.000000,0.000000,0.000000,,,,,,,,,,,,,,,,,,,,,,,,,,,,,,,,,,,,,,,,,,,,,,,,,,,,,,,,,,,,,,,,,,,,,,,,,,,,,,,,,,,,,,,,,,,,,,,,,,,,,,,,,,,,,,,,,,,,,,,,,,,,,,,,,
1736414860.352712,66.000000,0.000000,4291.922852,4338.205078,4269.743652,4317.820313,4348.589844,4356.282227,4376.410156,4547.948730,4543.974121,4560.256348,4479.871582,5643.717773,4306.538574,4255.512695,0.000000,0.000000,6.000000,,,,0.000000,0.000000,0.000000,0.000000,0.000000,0.000000,0.000000,0.000000,0.000000,0.000000,0.000000,0.000000,0.000000,0.000000,0.000000,0.000000,,,,,,,,,,,,,,,,,,,,,,,,,,,,,,,,,,,,,,,,,,,,,,,,,,,,,,,,,,,,,,,,,,,,,,,,,,,,,,,,,,,,,,,,,,,,,,,,,,,,,,,,,,,,,,,,,,,,,,,,,,,,,,,,,
1736414860.360520,67.000000,0.000000,4292.563965,4338.974121,4267.051270,4317.563965,4348.846191,4358.461426,4376.282227,4548.846191,4544.871582,4559.743652,4481.282227,5642.948730,4310.256348,4256.410156,0.000000,0.000000,6.000000,,,,0.000000,0.000000,0.000000,0.000000,0.000000,0.000000,0.000000,0.000000,0.000000,0.000000,0.000000,0.000000,0.000000,0.000000,0.000000,0.000000,,,,,,,,,,,,,,,,,,,,,,,,,,,,,,,,,,,,,,,,,,,,,,,,,,,,,,,,,,,,0.073293,0.013461,0.022565,0.033056,0.028599,0.034316,0.024338,0.009850,0.018631,0.028073,0.039140,0.026131,0.015080,0.018426,0.022302,0.023005,0.022556,0.027673,0.028759,0.025166,0.010965,0.015947,0.032973,0.029129,0.029461,0.014769,0.011786,0.013463,0.021488,0.021585,0.034099,0.025583,0.014098,0.030104,0.022331,0.041536,0.053001,0.015784,0.014164,0.019444,0.015274,0.013320,0.036855,0.022990,0.018841,0.016182,0.012031,0.008923,0.016140,0.011646,0.013367,0.064706,0.040233,0.036788,0.021832,0.014804,0.041560,0.037692,0.016205,0.023536,0.022677,0.016803,0.021162,0.019939,0.030451,0.026857,0.034398,0.031897,0.031831,0.021923
1736414860.368228,68.000000,0.000000,4295.769043,4338.461426,4269.615234,4317.051270,4347.051270,4355.897461,4376.538574,4545.641113,4545.256348,4559.615234,4482.948730,5647.307617,4311.922852,4257.051270,0.000000,0.000000,6.000000,,,,0.000000,0.000000,0.000000,0.000000,0.000000,0.000000,0.000000,0.000000,0.000000,0.000000,0.000000,0.000000,0.000000,0.000000,0.000000,0.000000,,,,,,,,,,,,,,,,,17.000000,0.000000,0.716440,-0.690186,0.007446,0.101501,-0.156757,-0.990844,0.047369,-7.233562,-14.811595,-0.491440,,,,,,,,,,,,,,,,,,,,,,,,,,,,,,,,,,,,,,,,,,,,,,,,,,,,,,,,,,,,,,,,,,,,,,,,,,,,,,,,,,,,,,,,,,,,,,,,,,,,,
1736414860.376136,69.000000,0.000000,4297.179688,4336.794922,4274.615234,4319.487305,4347.436035,4357.307617,4375.000000,4546.410156,4545.512695,4559.743652,4483.717773,5647.948730,4307.179688,4255.512695,0.000000,0.000000,6.000000,,,,0.000000,0.000000,0.000000,0.000000,0.000000,0.000000,0.000000,0.000000,0.000000,0.000000,0.000000,0.000000,0.000000,0.000000,0.000000,0.000000,,,,,,,,,,,,,,,,,,,,,,,,,,,,,,,,,,,,,,,,,,,,,,,,,,,,,,,,,,,,,,,,,,,,,,,,,,,,,,,,,,,,,,,,,,,,,,,,,,,,,,,,,,,,,,,,,,,,,,,,,,,,,,,,,
1736414860.383944,70.000000,0.000000,4293.461426,4339.871582,4270.512695,4320.000000,4348.974121,4359.230957,4378.974121,4548.461426,4546.538574,4559.358887,4482.307617,5642.563965,4303.205078,4256.794922,0.000000,0.000000,6.000000,,,,0.000000,0.000000,0.000000,0.000000,0.000000,0.000000,0.000000,0.000000,0.000000,0.000000,0.000000,0.000000,0.000000,0.000000,0.000000,0.000000,,,,,,,,,,,,,,,,,,,,,,,,,,,,,,,,,,,,,,,,,,,,,,,,,,,,,,,,,,,,,,,,,,,,,,,,,,,,,,,,,,,,,,,,,,,,,,,,,,,,,,,,,,,,,,,,,,,,,,,,,,,,,,,,,
1736414860.391852,71.000000,0.000000,4293.974121,4344.230957,4266.153809,4318.974121,4348.461426,4355.512695,4384.487305,4545.128418,4545.256348,4560.000000,4478.589844,5641.794922,4304.358887,4259.102539,0.000000,0.000000,6.000000,,,,0.000000,0.000000,0.000000,0.000000,0.000000,0.000000,0.000000,0.000000,0.000000,0.000000,0.000000,0.000000,0.000000,0.000000,0.000000,0.000000,,,,,,,,,,,,,,,,,,,,,,,,,,,,,,,,,,,,,,,,,,,,,,,,,,,,,,,,,,,,,,,,,,,,,,,,,,,,,,,,,,,,,,,,,,,,,,,,,,,,,,,,,,,,,,,,,,,,,,,,,,,,,,,,,
1736414860.399660,72.000000,0.000000,4293.846191,4342.051270,4269.230957,4320.512695,4346.410156,4357.307617,4382.820313,4543.461426,4545.769043,4560.512695,4479.615234,5646.666504,4306.922852,4257.436035,0.000000,0.000000,6.000000,,,,0.000000,0.000000,0.000000,0.000000,0.000000,0.000000,0.000000,0.000000,0.000000,0.000000,0.000000,0.000000,0.000000,0.000000,0.000000,0.000000,,,,,,,,,,,,,,,,,18.000000,0.000000,0.716456,-0.690186,0.007507,0.101379,-0.148456,-0.991820,0.061531,-7.326872,-14.713769,-0.492296,,,,,,,,,,,,,,,,,,,,,,,,,,,,,,,,,,,,,,,,,,,,,,,,,,,,,,,,,,,,,,,,,,,,,,,,,,,,,,,,,,,,,,,,,,,,,,,,,,,,,
1736414860.407568,73.000000,0.000000,4294.487305,4341.410156,4273.589844,4321.410156,4346.794922,4365.256348,4380.128418,4547.820313,4548.077148,4560.128418,4482.692383,5645.384766,4306.282227,4255.769043,0.000000,0.000000,6.000000,,,,0.000000,0.000000,0.000000,0.000000,0.000000,0.000000,0.000000,0.000000,0.000000,0.000000,0.000000,0.000000,0.000000,0.000000,0.000000,0.000000,,,,,,,,,,,,,,,,,,,,,,,,,,,,,,,,,,,,,,,,,,,,,,,,,,,,,,,,,,,,,,,,,,,,,,,,,,,,,,,,,,,,,,,,,,,,,,,,,,,,,,,,,,,,,,,,,,,,,,,,,,,,,,,,,
1736414860.415376,74.000000,0.000000,4295.641113,4339.230957,4271.282227,4319.487305,4347.051270,4361.922852,4380.384766,4548.846191,4546.410156,4558.461426,4481.153809,5641.025879,4306.153809,4257.948730,0.000000,0.000000,6.000000,,,,0.000000,0.000000,0.000000,0.000000,0.000000,0.000000,0.000000,0.000000,0.000000,0.000000,0.000000,0.000000,0.000000,0.000000,0.000000,0.000000,,,,,,,,,,,,,,,,,,,,,,,,,,,,,,,,,,,,,,,,,,,,,,,,,,,,,,,,,,,,,,,,,,,,,,,,,,,,,,,,,,,,,,,,,,,,,,,,,,,,,,,,,,,,,,,,,,,,,,,,,,,,,,,,,
1736414860.423284,75.000000,0.000000,4294.102539,4334.871582,4271.410156,4318.077148,4348.589844,4356.282227,4380.256348,4545.512695,4545.128418,4558.077148,4479.871582,5644.743652,4308.205078,4260.128418,0.000000,0.000000,6.000000,,,,0.000000,0.000000,0.000000,0.000000,0.000000,0.000000,0.000000,0.000000,0.000000,0.000000,0.000000,0.000000,0.000000,0.000000,0.000000,0.000000,,,,,,,,,,,,,,,,,,,,,,,,,,,,,,,,,,,,,,,,,,,,,,,,,,,,,,,,,,,,,,,,,,,,,,,,,,,,,,,,,,,,,,,,,,,,,,,,,,,,,,,,,,,,,,,,,,,,,,,,,,,,,,,,,
1736414860.431092,76.000000,0.000000,4293.589844,4337.436035,4275.000000,4318.589844,4351.025879,4360.000000,4379.743652,4546.153809,4547.948730,4560.641113,4481.025879,5647.307617,4308.333496,4260.128418,0.000000,0.000000,6.000000,,,,0.000000,0.000000,0.000000,0.000000,0.000000,0.000000,0.000000,0.000000,0.000000,0.000000,0.000000,0.000000,0.000000,0.000000,0.000000,0.000000,,,,,,,,,,,,,,,,,19.000000,0.000000,0.716573,-0.690063,0.007568,0.101379,-0.165548,-0.985472,0.043951,-7.427519,-14.559059,-0.559733,,,,,,,,,,,,,,,,,,,,,,,,,,,,,,,,,,,,,,,,,,,,,,,,,,,,,,,,,,,,,,,,,,,,,,,,,,,,,,,,,,,,,,,,,,,,,,,,,,,,,
1736414860.439000,77.000000,0.000000,4293.589844,4340.512695,4270.384766,4318.461426,4350.384766,4360.512695,4378.461426,4548.846191,4547.307617,4563.589844,4482.948730,5643.589844,4306.922852,4258.589844,0.000000,0.000000,6.000000,,,,0.000000,0.000000,0.000000,0.000000,0.000000,0.000000,0.000000,0.000000,0.000000,0.000000,0.000000,0.000000,0.000000,0.000000,0.000000,0.000000,,,,,,,,,,,,,,,,,,,,,,,,,,,,,,,,,,,,,,,,,,,,,,,,,,,,,,,,,,,,,,,,,,,,,,,,,,,,,,,,,,,,,,,,,,,,,,,,,,,,,,,,,,,,,,,,,,,,,,,,,,,,,,,,,
1736414860.446808,78.000000,0.000000,4295.512695,4339.743652,4269.230957,4320.000000,4348.077148,4357.563965,4377.436035,4548.077148,4543.589844,4562.307617,4482.820313,5641.282227,4307.948730,4257.436035,0.000000,0.000000,6.000000,,,,0.000000,0.000000,0.000000,0.000000,0.000000,0.000000,0.000000,0.000000,0.000000,0.000000,0.000000,0.000000,0.000000,0.000000,0.000000,0.000000,,,,,,,,,,,,,,,,,,,,,,,,,,,,,,,,,,,,,,,,,,,,,,,,,,,,,,,,,,,,,,,,,,,,,,,,,,,,,,,,,,,,,,,,,,,,,,,,,,,,,,,,,,,,,,,,,,,,,,,,,,,,,,,,,
1736414860.454716,79.000000,0.000000,4293.333496,4339.615234,4271.282227,4319.358887,4348.461426,4358.846191,4378.205078,4545.897461,4546.153809,4559.358887,4481.025879,5642.820313,4310.897461,4256.794922,0.000000,0.000000,6.000000,,,,0.000000,0.000000,0.000000,0.000000,0.000000,0.000000,0.000000,0.000000,0.000000,0.000000,0.000000,0.000000,0.000000,0.000000,0.000000,0.000000,,,,,,,,,,,,,,,,,,,,,,,,,,,,,,,,,,,,,,,,,,,,,,,,,,,,,,,,,,,,,,,,,,,,,,,,,,,,,,,,,,,,,,,,,,,,,,,,,,,,,,,,,,,,,,,,,,,,,,,,,,,,,,,,,
1736414860.462524,80.000000,0.000000,4290.769043,4341.282227,4271.410156,4316.282227,4350.000000,4360.256348,4381.922852,4546.922852,4549.230957,4559.358887,4481.025879,5644.487305,4310.769043,4258.077148,0.000000,0.000000,6.000000,,,,0.000000,0.000000,0.000000,0.000000,0.000000,0.000000,0.000000,0.000000,0.000000,0.000000,0.000000,0.000000,0.000000,0.000000,0.000000,0.000000,,,,,,,,,,,,,,,,,20.000000,0.000000,0.716632,-0.690002,0.007568,0.101379,-0.148456,-0.992797,0.050787,-7.451434,-14.653152,-0.487093,,,,,,,,,,,,,,,,,,,,,,,,,,,,,,,,,,,,,,,,,,,,,,,,,,,,,,,,,,,,,,,,,,,,,,,,,,,,,,,,,,,,,,,,,,,,,,,,,,,,,
1736414860.470431,81.000000,0.000000,4297.563965,4341.153809,4274.487305,4318.589844,4347.948730,4358.717773,4383.461426,4548.205078,4546.025879,4559.743652,4480.897461,5641.538574,4306.922852,4260.897461,0.000000,0.000000,6.000000,,,,0.000000,0.000000,0.000000,0.000000,0.000000,0.000000,0.000000,0.000000,0.000000,0.000000,0.000000,0.000000,0.000000,0.000000,0.000000,0.000000,,,,,,,,,,,,,,,,,,,,,,,,,,,,,,,,,,,,,,,,,,,,,,,,,,,,,,,,,,,,,,,,,,,,,,,,,,,,,,,,,,,,,,,,,,,,,,,,,,,,,,,,,,,,,,,,,,,,,,,,,,,,,,,,,
1736414860.478239,82.000000,0.000000,4299.871582,4339.615234,4273.333496,4322.307617,4346.410156,4356.025879,4380.641113,4547.179688,4545.641113,4559.102539,4478.974121,5638.846191,4303.717773,4259.102539,0.000000,0.000000,6.000000,,,,0.000000,0.000000,0.000000,0.000000,0.000000,0.000000,0.000000,0.000000,0.000000,0.000000,0.000000,0.000000,0.000000,0.000000,0.000000,0.000000,,,,,,,,,,,,,,,,,,,,,,,,,,,,,,,,,,,,,,,,,,,,,,,,,,,,,,,,,,,,,,,,,,,,,,,,,,,,,,,,,,,,,,,,,,,,,,,,,,,,,,,,,,,,,,,,,,,,,,,,,,,,,,,,,
1736414860.486147,83.000000,0.000000,4295.897461,4342.051270,4270.897461,4320.384766,4348.974121,4356.025879,4380.512695,4545.512695,4546.153809,4560.512695,4479.743652,5642.563965,4306.282227,4255.769043,0.000000,0.000000,6.000000,,,,0.000000,0.000000,0.000000,0.000000,0.000000,0.000000,0.000000,0.000000,0.000000,0.000000,0.000000,0.000000,0.000000,0.000000,0.000000,0.000000,,,,,,,,,,,,,,,,,,,,,,,,,,,,,,,,,,,,,,,,,,,,,,,,,,,,,,,,,,,,0.062869,0.012881,0.026360,0.033635,0.029537,0.027974,0.024807,0.012452,0.019862,0.028144,0.033313,0.027001,0.013687,0.016561,0.024121,0.020887,0.024295,0.023234,0.026782,0.026371,0.011741,0.015629,0.030805,0.029197,0.029473,0.014817,0.015525,0.014032,0.020975,0.020857,0.031931,0.026304,0.013914,0.029633,0.021492,0.035793,0.048483,0.017758,0.015243,0.019230,0.013986,0.015491,0.030489,0.020639,0.018034,0.022512,0.012138,0.007587,0.015825,0.012766,0.010493,0.060831,0.044123,0.036077,0.020431,0.012330,0.038250,0.038604,0.014702,0.020878,0.025260,0.021630,0.017120,0.019563,0.030088,0.025019,0.035115,0.032193,0.031347,0.021469
1736414860.494055,84.000000,0.000000,4296.153809,4343.333496,4270.384766,4318.717773,4349.487305,4360.384766,4381.922852,4545.641113,4542.436035,4560.384766,4483.717773,5646.666504,4308.205078,4256.794922,0.000000,0.000000,6.000000,,,,0.000000,0.000000,0.000000,0.000000,0.000000,0.000000,0.000000,0.000000,0.000000,0.000000,0.000000,0.000000,0.000000,0.000000,0.000000,0.000000,,,,,,,,,,,,,,,,,21.000000,0.000000,0.716623,-0.690002,0.007568,0.101440,-0.148456,-0.987425,0.053229,-7.372957,-14.671171,-0.438384,,,,,,,,,,,,,,,,,,,,,,,,,,,,,,,,,,,,,,,,,,,,,,,,,,,,,,,,,,,,,,,,,,,,,,,,,,,,,,,,,,,,,,,,,,,,,,,,,,,,,
1736414860.501863,85.000000,0.000000,4297.179688,4340.512695,4270.000000,4319.743652,4347.307617,4360.897461,4382.436035,4546.282227,4543.717773,4558.077148,4483.077148,5643.589844,4305.641113,4258.589844,0.000000,0.000000,6.000000,,,,0.000000,0.000000,0.000000,0.000000,0.000000,0.000000,0.000000,0.000000,0.000000,0.000000,0.000000,0.000000,0.000000,0.000000,0.000000,0.000000,,,,,,,,,,,,,,,,,,,,,,,,,,,,,,,,,,,,,,,,,,,,,,,,,,,,,,,,,,,,,,,,,,,,,,,,,,,,,,,,,,,,,,,,,,,,,,,,,,,,,,,,,,,,,,,,,,,,,,,,,,,,,,,,,
1736414860.509771,86.000000,0.000000,4294.487305,4340.769043,4271.025879,4317.692383,4347.692383,4357.820313,4381.922852,4544.615234,4549.487305,4559.230957,4481.410156,5641.794922,4306.538574,4258.717773,0.000000,0.000000,6.000000,,,,0.000000,0.000000,0.000000,0.000000,0.000000,0.000000,0.000000,0.000000,0.000000,0.000000,0.000000,0.000000,0.000000,0.000000,0.000000,0.000000,,,,,,,,,,,,,,,,,,,,,,,,,,,,,,,,,,,,,,,,,,,,,,,,,,,,,,,,,,,,,,,,,,,,,,,,,,,,,,,,,,,,,,,,,,,,,,,,,,,,,,,,,,,,,,,,,,,,,,,,,,,,,,,,,
1736414860.517579,87.000000,0.000000,4292.692383,4342.563965,4269.230957,4317.179688,4349.102539,4357.179688,4381.794922,4546.282227,4548.205078,4561.538574,4484.615234,5643.461426,4310.384766,4257.563965,0.000000,0.000000,6.000000,,,,0.000000,0.000000,0.000000,0.000000,0.000000,0.000000,0.000000,0.000000,0.000000,0.000000,0.000000,0.000000,0.000000,0.000000,0.000000,0.000000,,,,,,,,,,,,,,,,,,,,,,,,,,,,,,,,,,,,,,,,,,,,,,,,,,,,,,,,,,,,,,,,,,,,,,,,,,,,,,,,,,,,,,,,,,,,,,,,,,,,,,,,,,,,,,,,,,,,,,,,,,,,,,,,,
1736414860.525387,88.000000,0.000000,4294.743652,4342.436035,4267.563965,4320.769043,4348.077148,4357.692383,4382.179688,4550.000000,4544.487305,4560.000000,4484.102539,5642.948730,4308.717773,4256.538574,0.000000,0.000000,6.000000,,,,0.000000,0.000000,0.000000,0.000000,0.000000,0.000000,0.000000,0.000000,0.000000,0.000000,0.000000,0.000000,0.000000,0.000000,0.000000,0.000000,,,,,,,,,,,,,,,,,22.000000,0.000000,0.716624,-0.690002,0.007507,0.101440,-0.154316,-0.986937,0.043951,-7.368994,-14.587387,-0.494546,,,,,,,,,,,,,,,,,,,,,,,,,,,,,,,,,,,,,,,,,,,,,,,,,,,,,,,,,,,,,,,,,,,,,,,,,,,,,,,,,,,,,,,,,,,,,,,,,,,,,
1736414860.533095,89.000000,0.000000,4295.641113,4341.153809,4271.025879,4320.769043,4347.563965,4357.692383,4380.641113,4550.128418,4546.025879,4558.205078,4480.512695,5643.333496,4305.769043,4257.051270,0.000000,0.000000,6.000000,,,,0.000000,0.000000,0.000000,0.000000,0.000000,0.000000,0.000000,0.000000,0.000000,0.000000,0.000000,0.000000,0.000000,0.000000,0.000000,0.000000,,,,,,,,,,,,,,,,,,,,,,,,,,,,,,,,,,,,,,,,,,,,,,,,,,,,,,,,,,,,,,,,,,,,,,,,,,,,,,,,,,,,,,,,,,,,,,,,,,,,,,,,,,,,,,,,,,,,,,,,,,,,,,,,,
1736414860.540903,90.000000,0.000000,4293.846191,4337.563965,4272.307617,4318.717773,4347.948730,4356.666504,4378.461426,4549.102539,4546.025879,4558.846191,4482.436035,5644.615234,4305.641113,4258.205078,0.000000,0.000000,6.000000,,,,0.000000,0.000000,0.000000,0.000000,0.000000,0.000000,0.000000,0.000000,0.000000,0.000000,0.000000,0.000000,0.000000,0.000000,0.000000,0.000000,,,,,,,,,,,,,,,,,,,,,,,,,,,,,,,,,,,,,,,,,,,,,,,,,,,,,,,,,,,,,,,,,,,,,,,,,,,,,,,,,,,,,,,,,,,,,,,,,,,,,,,,,,,,,,,,,,,,,,,,,,,,,,,,,
1736414860.548611,91.000000,0.000000,4293.717773,4337.948730,4271.025879,4320.384766,4348.974121,4358.205078,4381.153809,4548.846191,4542.436035,4560.384766,4484.743652,5642.179688,4304.615234,4257.563965,0.000000,0.000000,6.000000,,,,0.000000,0.000000,0.000000,0.000000,0.000000,0.000000,0.000000,0.000000,0.000000,0.000000,0.000000,0.000000,0.000000,0.000000,0.000000,0.000000,,,,,,,,,,,,,,,,,,,,,,,,,,,,,,,,,,,,,,,,,,,,,,,,,,,,,,,,,,,,,,,,,,,,,,,,,,,,,,,,,,,,,,,,,,,,,,,,,,,,,,,,,,,,,,,,,,,,,,,,,,,,,,,,,
1736414860.556419,92.000000,0.000000,4293.846191,4343.333496,4271.666504,4320.384766,4347.948730,4361.153809,4382.948730,4549.230957,4543.205078,4561.282227,4482.179688,5641.666504,4304.615234,4256.410156,0.000000,0.000000,6.000000,,,,0.000000,0.000000,0.000000,0.000000,0.000000,0.000000,0.000000,0.000000,0.000000,0.000000,0.000000,0.000000,0.000000,0.000000,0.000000,0.000000,,,,,,,,,,,,,,,,,23.000000,0.000000,0.716582,-0.690063,0.007568,0.101318,-0.146991,-0.984984,0.045416,-7.482095,-14.595315,-0.628424,,,,,,,,,,,,,,,,,,,,,,,,,,,,,,,,,,,,,,,,,,,,,,,,,,,,,,,,,,,,,,,,,,,,,,,,,,,,,,,,,,,,,,,,,,,,,,,,,,,,,
1736414860.564127,93.000000,0.000000,4295.641113,4344.230957,4270.769043,4318.846191,4346.410156,4362.179688,4377.563965,4548.461426,4545.641113,4560.512695,4479.871582,5644.102539,4307.692383,4257.051270,0.000000,0.000000,6.000000,,,,0.000000,0.000000,0.000000,0.000000,0.000000,0.000000,0.000000,0.000000,0.000000,0.000000,0.000000,0.000000,0.000000,0.000000,0.000000,0.000000,,,,,,,,,,,,,,,,,,,,,,,,,,,,,,,,,,,,,,,,,,,,,,,,,,,,,,,,,,,,,,,,,,,,,,,,,,,,,,,,,,,,,,,,,,,,,,,,,,,,,,,,,,,,,,,,,,,,,,,,,,,,,,,,,
1736414860.571935,94.000000,0.000000,4295.641113,4339.615234,4269.871582,4321.282227,4347.051270,4360.000000,4376.153809,4547.948730,4545.897461,4560.384766,4480.128418,5644.358887,4308.205078,4257.179688,0.000000,0.000000,6.000000,,,,0.000000,0.000000,0.000000,0.000000,0.000000,0.000000,0.000000,0.000000,0.000000,0.000000,0.000000,0.000000,0.000000,0.000000,0.000000,0.000000,,,,,,,,,,,,,,,,,,,,,,,,,,,,,,,,,,,,,,,,,,,,,,,,,,,,,,,,,,,,,,,,,,,,,,,,,,,,,,,,,,,,,,,,,,,,,,,,,,,,,,,,,,,,,,,,,,,,,,,,,,,,,,,,,
1736414860.579643,95.000000,0.000000,4291.666504,4338.846191,4273.205078,4320.897461,4348.205078,4356.282227,4380.000000,4549.102539,4548.077148,4562.051270,4480.641113,5641.282227,4305.512695,4257.307617,0.000000,0.000000,6.000000,,,,0.000000,0.000000,0.000000,0.000000,0.000000,0.000000,0.000000,0.000000,0.000000,0.000000,0.000000,0.000000,0.000000,0.000000,0.000000,0.000000,,,,,,,,,,,,,,,,,,,,,,,,,,,,,,,,,,,,,,,,,,,,,,,,,,,,,,,,,,,,,,,,,,,,,,,,,,,,,,,,,,,,,,,,,,,,,,,,,,,,,,,,,,,,,,,,,,,,,,,,,,,,,,,,,
1736414860.587451,96.000000,0.000000,4295.128418,4341.666504,4274.871582,4320.256348,4347.179688,4357.692383,4379.230957,4547.436035,4548.461426,4560.128418,4478.205078,5640.000000,4304.230957,4259.102539,0.000000,0.000000,6.000000,,,,0.000000,0.000000,0.000000,0.000000,0.000000,0.000000,0.000000,0.000000,0.000000,0.000000,0.000000,0.000000,0.000000,0.000000,0.000000,0.000000,,,,,,,,,,,,,,,,,24.000000,0.000000,0.716590,-0.690063,0.007629,0.101257,-0.150409,-0.982542,0.051764,-7.650552,-14.585784,-0.598915,,,,,,,,,,,,,,,,,,,,,,,,,,,,,,,,,,,,,,,,,,,,,,,,,,,,,,,,,,,,,,,,,,,,,,,,,,,,,,,,,,,,,,,,,,,,,,,,,,,,,
1736414860.595159,97.000000,0.000000,4298.717773,4338.205078,4271.025879,4320.897461,4347.179688,4361.666504,4377.051270,4545.512695,4545.000000,4556.922852,4476.666504,5641.153809,4306.538574,4260.512695,0.000000,0.000000,6.000000,,,,0.000000,0.000000,0.000000,0.000000,0.000000,0.000000,0.000000,0.000000,0.000000,0.000000,0.000000,0.000000,0.000000,0.000000,0.000000,0.000000,,,,,,,,,,,,,,,,,,,,,,,,,,,,,,,,,,,,,,,,,,,,,,,,,,,,,,,,,,,,,,,,,,,,,,,,,,,,,,,,,,,,,,,,,,,,,,,,,,,,,,,,,,,,,,,,,,,,,,,,,,,,,,,,,
1736414860.603067,98.000000,0.000000,4295.384766,4336.922852,4269.358887,4321.025879,4347.692383,4363.205078,4379.487305,4548.205078,4543.333496,4558.974121,4479.871582,5640.384766,4308.333496,4259.102539,0.000000,0.000000,6.000000,,,,0.000000,0.000000,0.000000,0.000000,0.000000,0.000000,0.000000,0.000000,0.000000,0.000000,0.000000,0.000000,0.000000,0.000000,0.000000,0.000000,,,,,,,,,,,,,,,,,,,,,,,,,,,,,,,,,,,,,,,,,,,,,,,,,,,,,,,,,,,,,,,,,,,,,,,,,,,,,,,,,,,,,,,,,,,,,,,,,,,,,,,,,,,,,,,,,,,,,,,,,,,,,,,,,
1736414860.610875,99.000000,0.000000,4294.615234,4342.563965,4271.025879,4323.974121,4346.794922,4360.897461,4383.589844,4548.077148,4545.384766,4562.179688,4481.922852,5641.794922,4305.128418,4259.358887,0.000000,0.000000,6.000000,,,,0.000000,0.000000,0.000000,0.000000,0.000000,0.000000,0.000000,0.000000,0.000000,0.000000,0.000000,0.000000,0.000000,0.000000,0.000000,0.000000,1.000000,0.000000,0.000000,0.000000,0.000000,0.000000,0.000000,0.000000,0.000000,0.000000,0.000000,0.000000,0.000000,0.000000,0.000000,0.000000,,,,,,,,,,,,,,,,,,,,,,,,,,,,,,,,,,,,,,,,,,,,0.051394,0.014412,0.029788,0.033223,0.031160,0.023471,0.026444,0.015090,0.022157,0.028995,0.029190,0.027869,0.012577,0.015493,0.026251,0.021116,0.025460,0.020095,0.024846,0.027168,0.012655,0.015879,0.028389,0.028552,0.028415,0.016335,0.023197,0.015931,0.021067,0.020540,0.030612,0.028007,0.015599,0.029257,0.020563,0.029118,0.040861,0.019933,0.016348,0.019401,0.013776,0.019007,0.025828,0.019920,0.017369,0.030207,0.012994,0.007044,0.015591,0.014153,0.008565,0.056262,0.047562,0.035595,0.020030,0.010215,0.037000,0.038848,0.013734,0.019735,0.030755,0.030081,0.016173,0.018824,0.028664,0.024474,0.034033,0.032913,0.029070,0.021716
1736414860.618783,100.000000,0.000000,4295.256348,4338.461426,4269.230957,4323.205078,4348.077148,4357.692383,4380.384766,4545.384766,4546.410156,4560.384766,4481.538574,5644.487305,4304.487305,4260.512695,0.000000,0.000000,6.000000,,,,0.000000,0.000000,0.000000,0.000000,0.000000,0.000000,0.000000,0.000000,0.000000,0.000000,0.000000,0.000000,0.000000,0.000000,0.000000,0.000000,,,,,,,,,,,,,,,,,25.000000,0.000000,0.716590,-0.690063,0.007629,0.101257,-0.152362,-0.995727,0.048834,-7.602164,-14.393872,-0.539024,,,,,,,,,,,,,,,,,,,,,,,,,,,,,,,,,,,,,,,,,,,,,,,,,,,,,,,,,,,,,,,,,,,,,,,,,,,,,,,,,,,,,,,,,,,,,,,,,,,,,
1736414860.626591,101.000000,0.000000,4297.692383,4333.974121,4269.743652,4321.025879,4349.871582,4355.641113,4373.717773,4545.256348,4542.051270,4557.179688,4480.512695,5642.692383,4309.743652,4258.333496,0.000000,0.000000,6.000000,,,,0.000000,0.000000,0.000000,0.000000,0.000000,0.000000,0.000000,0.000000,0.000000,0.000000,0.000000,0.000000,0.000000,0.000000,0.000000,0.000000,,,,,,,,,,,,,,,,,,,,,,,,,,,,,,,,,,,,,,,,,,,,,,,,,,,,,,,,,,,,,,,,,,,,,,,,,,,,,,,,,,,,,,,,,,,,,,,,,,,,,,,,,,,,,,,,,,,,,,,,,,,,,,,,,
1736414860.634499,102.000000,0.000000,4299.615234,4340.000000,4271.922852,4319.615234,4348.333496,4354.615234,4373.846191,4547.563965,4542.436035,4558.077148,4480.256348,5640.769043,4308.333496,4254.743652,0.000000,0.000000,6.000000,,,,0.000000,0.000000,0.000000,0.000000,0.000000,0.000000,0.000000,0.000000,0.000000,0.000000,0.000000,0.000000,0.000000,0.000000,0.000000,0.000000,,,,,,,,,,,,,,,,,,,,,,,,,,,,,,,,,,,,,,,,,,,,,,,,,,,,,,,,,,,,,,,,,,,,,,,,,,,,,,,,,,,,,,,,,,,,,,,,,,,,,,,,,,,,,,,,,,,,,,,,,,,,,,,,,
1736414860.642307,103.000000,0.000000,4296.922852,4340.641113,4269.487305,4316.794922,4349.871582,4358.589844,4376.666504,4549.102539,4547.820313,4560.641113,4480.897461,5642.051270,4305.256348,4254.230957,0.000000,0.000000,6.000000,,,,0.000000,0.000000,0.000000,0.000000,0.000000,0.000000,0.000000,0.000000,0.000000,0.000000,0.000000,0.000000,0.000000,0.000000,0.000000,0.000000,,,,,,,,,,,,,,,,,,,,,,,,,,,,,,,,,,,,,,,,,,,,,,,,,,,,,,,,,,,,,,,,,,,,,,,,,,,,,,,,,,,,,,,,,,,,,,,,,,,,,,,,,,,,,,,,,,,,,,,,,,,,,,,,,
1736414860.650214,104.000000,0.000000,4295.384766,4337.563965,4269.102539,4318.717773,4352.820313,4360.769043,4376.794922,4545.128418,4544.615234,4560.384766,4482.436035,5642.948730,4308.205078,4257.051270,0.000000,0.000000,6.000000,,,,0.000000,0.000000,0.000000,0.000000,0.000000,0.000000,0.000000,0.000000,0.000000,0.000000,0.000000,0.000000,0.000000,0.000000,0.000000,0.000000,,,,,,,,,,,,,,,,,26.000000,0.000000,0.716649,-0.690002,0.007629,0.101257,-0.150897,-0.982542,0.057136,-7.608614,-14.504485,-0.435121,,,,,,,,,,,,,,,,,,,,,,,,,,,,,,,,,,,,,,,,,,,,,,,,,,,,,,,,,,,,,,,,,,,,,,,,,,,,,,,,,,,,,,,,,,,,,,,,,,,,,
1736414860.658022,105.000000,0.000000,4294.102539,4339.615234,4269.487305,4319.743652,4350.384766,4359.487305,4377.820313,4544.230957,4540.384766,4559.358887,4484.615234,5641.922852,4307.179688,4257.307617,0.000000,0.000000,6.000000,,,,0.000000,0.000000,0.000000,0.000000,0.000000,0.000000,0.000000,0.000000,0.000000,0.000000,0.000000,0.000000,0.000000,0.000000,0.000000,0.000000,,,,,,,,,,,,,,,,,,,,,,,,,,,,,,,,,,,,,,,,,,,,,,,,,,,,,,,,,,,,,,,,,,,,,,,,,,,,,,,,,,,,,,,,,,,,,,,,,,,,,,,,,,,,,,,,,,,,,,,,,,,,,,,,,
1736414860.665930,106.000000,0.000000,4294.871582,4341.282227,4269.487305,4318.461426,4348.205078,4361.794922,4380.897461,4547.692383,4545.256348,4558.846191,4482.179688,5642.436035,4304.230957,4255.384766,0.000000,0.000000,6.000000,,,,0.000000,0.000000,0.000000,0.000000,0.000000,0.000000,0.000000,0.000000,0.000000,0.000000,0.000000,0.000000,0.000000,0.000000,0.000000,0.000000,,,,,,,,,,,,,,,,,,,,,,,,,,,,,,,,,,,,,,,,,,,,,,,,,,,,,,,,,,,,,,,,,,,,,,,,,,,,,,,,,,,,,,,,,,,,,,,,,,,,,,,,,,,,,,,,,,,,,,,,,,,,,,,,,
1736414860.673738,107.000000,0.000000,4297.307617,4340.256348,4271.666504,4319.615234,4350.000000,4362.692383,4380.769043,4548.205078,4548.717773,4560.384766,4480.641113,5644.743652,4305.384766,4256.025879,0.000000,0.000000,6.000000,,,,0.000000,0.000000,0.000000,0.000000,0.000000,0.000000,0.000000,0.000000,0.000000,0.000000,0.000000,0.000000,0.000000,0.000000,0.000000,0.000000,,,,,,,,,,,,,,,,,,,,,,,,,,,,,,,,,,,,,,,,,,,,,,,,,,,,,,,,,,,,,,,,,,,,,,,,,,,,,,,,,,,,,,,,,,,,,,,,,,,,,,,,,,,,,,,,,,,,,,,,,,,,,,,,,
1736414860.681646,108.000000,0.000000,4292.948730,4339.615234,4271.666504,4321.538574,4349.487305,4356.410156,4379.358887,4547.051270,4544.230957,4564.230957,4481.153809,5646.538574,4305.769043,4258.205078,0.000000,0.000000,6.000000,,,,0.000000,0.000000,0.000000,0.000000,0.000000,0.000000,0.000000,0.000000,0.000000,0.000000,0.000000,0.000000,0.000000,0.000000,0.000000,0.000000,,,,,,,,,,,,,,,,,27.000000,0.000000,0.716599,-0.690063,0.007568,0.101196,-0.152851,-0.984495,0.045416,-7.564419,-14.637369,-0.391609,,,,,,,,,,,,,,,,,,,,,,,,,,,,,,,,,,,,,,,,,,,,,,,,,,,,,,,,,,,,,,,,,,,,,,,,,,,,,,,,,,,,,,,,,,,,,,,,,,,,,
1736414860.689454,109.000000,0.000000,4290.384766,4341.794922,4272.563965,4322.563965,4347.692383,4355.641113,4382.051270,4546.666504,4543.589844,4563.333496,4480.000000,5644.230957,4306.282227,4258.717773,0.000000,0.000000,6.000000,,,,0.000000,0.000000,0.000000,0.000000,0.000000,0.000000,0.000000,0.000000,0.000000,0.000000,0.000000,0.000000,0.000000,0.000000,0.000000,0.000000,,,,,,,,,,,,,,,,,,,,,,,,,,,,,,,,,,,,,,,,,,,,,,,,,,,,,,,,,,,,,,,,,,,,,,,,,,,,,,,,,,,,,,,,,,,,,,,,,,,,,,,,,,,,,,,,,,,,,,,,,,,,,,,,,
1736414860.697162,110.000000,0.000000,4292.820313,4342.563965,4272.179688,4319.871582,4348.846191,4361.922852,4381.794922,4546.794922,4546.282227,4558.974121,4479.487305,5643.333496,4308.589844,4257.563965,0.000000,0.000000,6.000000,,,,0.000000,0.000000,0.000000,0.000000,0.000000,0.000000,0.000000,0.000000,0.000000,0.000000,0.000000,0.000000,0.000000,0.000000,0.000000,0.000000,,,,,,,,,,,,,,,,,,,,,,,,,,,,,,,,,,,,,,,,,,,,,,,,,,,,,,,,,,,,,,,,,,,,,,,,,,,,,,,,,,,,,,,,,,,,,,,,,,,,,,,,,,,,,,,,,,,,,,,,,,,,,,,,,
1736414860.704970,111.000000,0.000000,4293.717773,4342.051270,4268.077148,4318.974121,4350.000000,4361.794922,4377.563965,4546.282227,4545.384766,4559.743652,4482.563965,5646.666504,4306.538574,4256.922852,0.000000,0.000000,6.000000,,,,0.000000,0.000000,0.000000,0.000000,0.000000,0.000000,0.000000,0.000000,0.000000,0.000000,0.000000,0.000000,0.000000,0.000000,0.000000,0.000000,,,,,,,,,,,,,,,,,,,,,,,,,,,,,,,,,,,,,,,,,,,,,,,,,,,,,,,,,,,,,,,,,,,,,,,,,,,,,,,,,,,,,,,,,,,,,,,,,,,,,,,,,,,,,,,,,,,,,,,,,,,,,,,,,
1736414860.712678,112.000000,0.000000,4294.487305,4340.897461,4267.307617,4321.922852,4348.077148,4359.102539,4377.820313,4546.153809,4544.615234,4561.794922,4482.563965,5645.256348,4304.871582,4255.897461,0.000000,0.000000,6.000000,,,,0.000000,0.000000,0.000000,0.000000,0.000000,0.000000,0.000000,0.000000,0.000000,0.000000,0.000000,0.000000,0.000000,0.000000,0.000000,0.000000,,,,,,,,,,,,,,,,,28.000000,0.000000,0.716590,-0.690063,0.007629,0.101257,-0.153827,-0.983518,0.041997,-7.541311,-14.773633,-0.369115,,,,,,,,,,,,,,,,,,,,,,,,,,,,,,,,,,,,,,,,,,,,,,,,,,,,,,,,,,,,,,,,,,,,,,,,,,,,,,,,,,,,,,,,,,,,,,,,,,,,,
1736414860.720486,113.000000,0.000000,4296.666504,4340.000000,4268.846191,4322.436035,4347.051270,4359.487305,4379.743652,4546.410156,4544.358887,4557.436035,4478.846191,5641.025879,4307.436035,4255.128418,0.000000,0.000000,6.000000,,,,0.000000,0.000000,0.000000,0.000000,0.000000,0.000000,0.000000,0.000000,0.000000,0.000000,0.000000,0.000000,0.000000,0.000000,0.000000,0.000000,,,,,,,,,,,,,,,,,,,,,,,,,,,,,,,,,,,,,,,,,,,,,,,,,,,,,,,,,,,,,,,,,,,,,,,,,,,,,,,,,,,,,,,,,,,,,,,,,,,,,,,,,,,,,,,,,,,,,,,,,,,,,,,,,
1736414860.728194,114.000000,0.000000,4295.897461,4341.025879,4269.743652,4320.512695,4348.077148,4359.358887,4377.436035,4546.153809,4544.358887,4555.128418,4477.436035,5641.410156,4306.025879,4254.743652,0.000000,0.000000,6.000000,,,,0.000000,0.000000,0.000000,0.000000,0.000000,0.000000,0.000000,0.000000,0.000000,0.000000,0.000000,0.000000,0.000000,0.000000,0.000000,0.000000,,,,,,,,,,,,,,,,,,,,,,,,,,,,,,,,,,,,,,,,,,,,,,,,,,,,,,,,,,,,,,,,,,,,,,,,,,,,,,,,,,,,,,,,,,,,,,,,,,,,,,,,,,,,,,,,,,,,,,,,,,,,,,,,,
1736414860.736002,115.000000,0.000000,4290.769043,4338.205078,4269.615234,4317.179688,4349.102539,4357.948730,4375.897461,4545.641113,4543.974121,4561.666504,4480.641113,5644.102539,4306.153809,4254.358887,0.000000,0.000000,6.000000,,,,0.000000,0.000000,0.000000,0.000000,0.000000,0.000000,0.000000,0.000000,0.000000,0.000000,0.000000,0.000000,0.000000,0.000000,0.000000,0.000000,,,,,,,,,,,,,,,,,,,,,,,,,,,,,,,,,,,,,,,,,,,,,,,,,,,,,,,,,,,,0.040620,0.018467,0.031825,0.031728,0.033457,0.020915,0.029056,0.017907,0.025123,0.030267,0.027077,0.028791,0.011569,0.015386,0.028353,0.022850,0.026585,0.017810,0.023402,0.027162,0.013668,0.016410,0.026424,0.027644,0.026423,0.020497,0.032872,0.018233,0.021457,0.021097,0.030106,0.029957,0.020564,0.029541,0.019850,0.022300,0.033321,0.021620,0.017232,0.020249,0.014600,0.022279,0.022482,0.019946,0.016934,0.037693,0.014100,0.006495,0.015927,0.015511,0.007457,0.050641,0.051701,0.035174,0.020659,0.008282,0.037860,0.038650,0.013351,0.020225,0.037753,0.042381,0.018085,0.018022,0.026817,0.026090,0.031613,0.034699,0.025683,0.022465
1736414860.743710,116.000000,0.000000,4290.000000,4335.641113,4270.512695,4317.307617,4349.358887,4359.358887,4377.948730,4546.410156,4544.102539,4563.717773,4485.512695,5645.512695,4309.102539,4256.025879,0.000000,0.000000,6.000000,,,,0.000000,0.000000,0.000000,0.000000,0.000000,0.000000,0.000000,0.000000,0.000000,0.000000,0.000000,0.000000,0.000000,0.000000,0.000000,0.000000,,,,,,,,,,,,,,,,,29.000000,0.000000,0.716573,-0.690063,0.007568,0.101379,-0.165548,-0.984984,0.049811,-7.320513,-14.962936,-0.298870,,,,,,,,,,,,,,,,,,,,,,,,,,,,,,,,,,,,,,,,,,,,,,,,,,,,,,,,,,,,,,,,,,,,,,,,,,,,,,,,,,,,,,,,,,,,,,,,,,,,,
1736414860.751518,117.000000,0.000000,4293.974121,4338.974121,4270.769043,4321.410156,4348.974121,4363.333496,4380.000000,4546.922852,4545.897461,4557.692383,4483.077148,5644.871582,4308.717773,4257.820313,0.000000,0.000000,6.000000,,,,0.000000,0.000000,0.000000,0.000000,0.000000,0.000000,0.000000,0.000000,0.000000,0.000000,0.000000,0.000000,0.000000,0.000000,0.000000,0.000000,,,,,,,,,,,,,,,,,,,,,,,,,,,,,,,,,,,,,,,,,,,,,,,,,,,,,,,,,,,,,,,,,,,,,,,,,,,,,,,,,,,,,,,,,,,,,,,,,,,,,,,,,,,,,,,,,,,,,,,,,,,,,,,,,
1736414860.759226,118.000000,0.000000,4292.948730,4340.000000,4268.974121,4322.307617,4348.333496,4360.512695,4378.846191,4545.384766,4548.077148,4557.436035,4477.563965,5641.025879,4309.230957,4256.922852,0.000000,0.000000,6.000000,,,,0.000000,0.000000,0.000000,0.000000,0.000000,0.000000,0.000000,0.000000,0.000000,0.000000,0.000000,0.000000,0.000000,0.000000,0.000000,0.000000,,,,,,,,,,,,,,,,,,,,,,,,,,,,,,,,,,,,,,,,,,,,,,,,,,,,,,,,,,,,,,,,,,,,,,,,,,,,,,,,,,,,,,,,,,,,,,,,,,,,,,,,,,,,,,,,,,,,,,,,,,,,,,,,,
1736414860.767034,119.000000,0.000000,4293.077148,4338.974121,4271.666504,4320.512695,4350.641113,4356.282227,4376.538574,4544.615234,4548.077148,4561.410156,4479.615234,5638.205078,4308.589844,4256.282227,0.000000,0.000000,6.000000,,,,0.000000,0.000000,0.000000,0.000000,0.000000,0.000000,0.000000,0.000000,0.000000,0.000000,0.000000,0.000000,0.000000,0.000000,0.000000,0.000000,,,,,,,,,,,,,,,,,,,,,,,,,,,,,,,,,,,,,,,,,,,,,,,,,,,,,,,,,,,,,,,,,,,,,,,,,,,,,,,,,,,,,,,,,,,,,,,,,,,,,,,,,,,,,,,,,,,,,,,,,,,,,,,,,
1736414860.774742,120.000000,0.000000,4296.282227,4339.743652,4270.641113,4320.512695,4352.307617,4357.692383,4376.538574,4547.563965,4546.153809,4561.410156,4483.974121,5642.692383,4304.871582,4256.922852,0.000000,0.000000,6.000000,,,,0.000000,0.000000,0.000000,0.000000,0.000000,0.000000,0.000000,0.000000,0.000000,0.000000,0.000000,0.000000,0.000000,0.000000,0.000000,0.000000,,,,,,,,,,,,,,,,,30.000000,0.000000,0.716574,-0.690063,0.007507,0.101379,-0.148944,-0.989379,0.045416,-7.205128,-14.783309,-0.352316,,,,,,,,,,,,,,,,,,,,,,,,,,,,,,,,,,,,,,,,,,,,,,,,,,,,,,,,,,,,,,,,,,,,,,,,,,,,,,,,,,,,,,,,,,,,,,,,,,,,,
1736414860.782650,121.000000,0.000000,4294.871582,4339.487305,4266.410156,4320.128418,4350.128418,4360.897461,4376.025879,4548.589844,4543.974121,4560.512695,4481.666504,5647.692383,4304.743652,4256.666504,0.000000,0.000000,6.000000,,,,0.000000,0.000000,0.000000,0.000000,0.000000,0.000000,0.000000,0.000000,0.000000,0.000000,0.000000,0.000000,0.000000,0.000000,0.000000,0.000000,,,,,,,,,,,,,,,,,,,,,,,,,,,,,,,,,,,,,,,,,,,,,,,,,,,,,,,,,,,,,,,,,,,,,,,,,,,,,,,,,,,,,,,,,,,,,,,,,,,,,,,,,,,,,,,,,,,,,,,,,,,,,,,,,
1736414860.790458,122.000000,0.000000,4295.384766,4338.077148,4270.384766,4316.922852,4350.384766,4362.307617,4375.641113,4545.000000,4542.692383,4560.128418,4479.487305,5646.666504,4305.384766,4256.153809,0.000000,0.000000,6.000000,,,,0.000000,0.000000,0.000000,0.000000,0.000000,0.000000,0.000000,0.000000,0.000000,0.000000,0.000000,0.000000,0.000000,0.000000,0.000000,0.000000,,,,,,,,,,,,,,,,,,,,,,,,,,,,,,,,,,,,,,,,,,,,,,,,,,,,,,,,,,,,,,,,,,,,,,,,,,,,,,,,,,,,,,,,,,,,,,,,,,,,,,,,,,,,,,,,,,,,,,,,,,,,,,,,,
1736414860.798366,123.000000,0.000000,4296.666504,4338.461426,4273.333496,4314.743652,4349.871582,4361.538574,4377.051270,4544.358887,4544.743652,4560.512695,4483.461426,5645.256348,4304.230957,4256.410156,0.000000,0.000000,6.000000,,,,0.000000,0.000000,0.000000,0.000000,0.000000,0.000000,0.000000,0.000000,0.000000,0.000000,0.000000,0.000000,0.000000,0.000000,0.000000,0.000000,,,,,,,,,,,,,,,,,,,,,,,,,,,,,,,,,,,,,,,,,,,,,,,,,,,,,,,,,,,,,,,,,,,,,,,,,,,,,,,,,,,,,,,,,,,,,,,,,,,,,,,,,,,,,,,,,,,,,,,,,,,,,,,,,
1736414860.806174,124.000000,0.000000,4296.282227,4340.512695,4272.307617,4317.436035,4347.436035,4361.666504,4377.436035,4546.153809,4545.641113,4561.794922,4483.589844,5642.820313,4305.000000,4258.333496,0.000000,0.000000,6.000000,,,,0.000000,0.000000,0.000000,0.000000,0.000000,0.000000,0.000000,0.000000,0.000000,0.000000,0.000000,0.000000,0.000000,0.000000,0.000000,0.000000,,,,,,,,,,,,,,,,,31.000000,0.000000,0.716564,-0.690063,0.007629,0.101440,-0.154316,-0.992797,0.040532,-7.151282,-14.888311,-0.350418,,,,,,,,,,,,,,,,,,,,,,,,,,,,,,,,,,,,,,,,,,,,,,,,,,,,,,,,,,,,,,,,,,,,,,,,,,,,,,,,,,,,,,,,,,,,,,,,,,,,,
1736414860.814082,125.000000,0.000000,4295.000000,4338.333496,4271.794922,4318.589844,4349.487305,4361.794922,4377.179688,4545.256348,4544.358887,4560.384766,4480.000000,5638.974121,4304.487305,4259.102539,0.000000,0.000000,6.000000,,,,0.000000,0.000000,0.000000,0.000000,0.000000,0.000000,0.000000,0.000000,0.000000,0.000000,0.000000,0.000000,0.000000,0.000000,0.000000,0.000000,,,,,,,,,,,,,,,,,,,,,,,,,,,,,,,,,,,,,,,,,,,,,,,,,,,,,,,,,,,,,,,,,,,,,,,,,,,,,,,,,,,,,,,,,,,,,,,,,,,,,,,,,,,,,,,,,,,,,,,,,,,,,,,,,
1736414860.821890,126.000000,0.000000,4294.102539,4337.051270,4271.922852,4315.384766,4350.641113,4359.487305,4376.922852,4544.358887,4546.410156,4557.563965,4479.487305,5642.436035,4303.974121,4256.794922,0.000000,0.000000,6.000000,,,,0.000000,0.000000,0.000000,0.000000,0.000000,0.000000,0.000000,0.000000,0.000000,0.000000,0.000000,0.000000,0.000000,0.000000,0.000000,0.000000,,,,,,,,,,,,,,,,,,,,,,,,,,,,,,,,,,,,,,,,,,,,,,,,,,,,,,,,,,,,,,,,,,,,,,,,,,,,,,,,,,,,,,,,,,,,,,,,,,,,,,,,,,,,,,,,,,,,,,,,,,,,,,,,,
1736414860.829798,127.000000,0.000000,4296.922852,4341.922852,4272.820313,4316.153809,4348.717773,4358.461426,4375.256348,4547.179688,4546.025879,4559.102539,4480.256348,5647.948730,4307.436035,4255.512695,6.000000,0.000000,6.000000,,,,0.000000,0.000000,0.000000,0.000000,0.000000,0.000000,0.000000,0.000000,0.000000,0.000000,0.000000,0.000000,0.000000,0.000000,0.000000,0.000000,,,,,,,,,,,,,,,,,,,,,,,,,,,,,,,,,,,,,,,,,,,,,,,,,,,,,,,,,,,,,,,,,,,,,,,,,,,,,,,,,,,,,,,,,,,,,,,,,,,,,,,,,,,,,,,,,,,,,,,,,,,,,,,,,
1736414860.837606,0.000000,0.000000,4296.794922,4341.282227,4270.641113,4319.230957,4348.974121,4358.717773,4377.436035,4548.589844,4542.948730,4561.410156,4481.282227,5644.615234,4308.717773,4256.282227,0.000000,0.000000,6.000000,,,,0.000000,0.000000,0.000000,0.000000,0.000000,0.000000,0.000000,0.000000,0.000000,0.000000,0.000000,0.000000,0.000000,0.000000,0.000000,0.000000,,,,,,,,,,,,,,,,,0.000000,0.000000,0.716631,-0.690002,0.007690,0.101379,-0.163106,-0.985472,0.044927,-7.086154,-14.866147,-0.332043,,,,,,,,,,,,,,,,,,,,,,,,,,,,,,,,,,,,,,,,,,,,,,,,,,,,,,,,,,,,,,,,,,,,,,,,,,,,,,,,,,,,,,,,,,,,,,,,,,,,,
1736414860.845514,1.000000,0.000000,4297.692383,4338.589844,4269.487305,4318.846191,4350.512695,4357.820313,4380.897461,4544.743652,4545.384766,4558.461426,4480.256348,5640.384766,4307.692383,4255.384766,0.000000,0.000000,6.000000,,,,0.000000,0.000000,0.000000,0.000000,0.000000,0.000000,0.000000,0.000000,0.000000,0.000000,0.000000,0.000000,0.000000,0.000000,0.000000,0.000000,,,,,,,,,,,,,,,,,,,,,,,,,,,,,,,,,,,,,,,,,,,,,,,,,,,,,,,,,,,,,,,,,,,,,,,,,,,,,,,,,,,,,,,,,,,,,,,,,,,,,,,,,,,,,,,,,,,,,,,,,,,,,,,,,
1736414860.853322,2.000000,0.000000,4299.743652,4341.922852,4270.897461,4317.948730,4349.102539,4358.717773,4378.974121,4545.769043,4547.948730,4558.205078,4479.871582,5643.461426,4307.820313,4254.743652,0.000000,0.000000,6.000000,,,,0.000000,0.000000,0.000000,0.000000,0.000000,0.000000,0.000000,0.000000,0.000000,0.000000,0.000000,0.000000,0.000000,0.000000,0.000000,0.000000,,,,,,,,,,,,,,,,,,,,,,,,,,,,,,,,,,,,,,,,,,,,,,,,,,,,,,,,,,,,,,,,,,,,,,,,,,,,,,,,,,,,,,,,,,,,,,,,,,,,,,,,,,,,,,,,,,,,,,,,,,,,,,,,,
1736414860.861030,3.000000,0.000000,4296.410156,4342.307617,4270.897461,4320.384766,4346.922852,4358.717773,4379.230957,4549.358887,4545.641113,4560.000000,4481.410156,5645.256348,4307.563965,4257.307617,0.000000,0.000000,6.000000,,,,0.000000,0.000000,0.000000,0.000000,0.000000,0.000000,0.000000,0.000000,0.000000,0.000000,0.000000,0.000000,0.000000,0.000000,0.000000,0.000000,,,,,,,,,,,,,,,,,,,,,,,,,,,,,,,,,,,,,,,,,,,,,,,,,,,,,,,,,,,,0.031528,0.024559,0.031712,0.029101,0.035960,0.019742,0.031923,0.021095,0.028286,0.031469,0.027114,0.029455,0.010597,0.016371,0.030276,0.024474,0.027932,0.016223,0.022449,0.026263,0.014779,0.017191,0.025169,0.026656,0.023844,0.027786,0.041472,0.019444,0.022453,0.022880,0.030030,0.032262,0.029351,0.030437,0.019641,0.016673,0.028559,0.022408,0.017779,0.021790,0.015725,0.023882,0.020200,0.020037,0.016933,0.042935,0.015041,0.005623,0.017176,0.016505,0.007831,0.044269,0.056942,0.034435,0.022184,0.007530,0.040152,0.037842,0.013760,0.022343,0.044595,0.056367,0.022719,0.017643,0.025304,0.029697,0.029038,0.037616,0.022100,0.023349
1736414860.868838,4.000000,0.000000,4295.897461,4338.461426,4272.051270,4323.077148,4347.820313,4356.794922,4381.922852,4548.846191,4544.487305,4558.974121,4482.179688,5643.589844,4307.307617,4258.333496,0.000000,0.000000,6.000000,,,,0.000000,0.000000,0.000000,0.000000,0.000000,0.000000,0.000000,0.000000,0.000000,0.000000,0.000000,0.000000,0.000000,0.000000,0.000000,0.000000,,,,,,,,,,,,,,,,,1.000000,0.000000,0.716630,-0.690002,0.007751,0.101379,-0.155781,-0.982542,0.048346,-7.194205,-14.846199,-0.398839,,,,,,,,,,,,,,,,,,,,,,,,,,,,,,,,,,,,,,,,,,,,,,,,,,,,,,,,,,,,,,,,,,,,,,,,,,,,,,,,,,,,,,,,,,,,,,,,,,,,,
1736414860.876546,5.000000,0.000000,4295.769043,4337.692383,4270.897461,4320.256348,4349.230957,4358.717773,4378.974121,4547.179688,4547.820313,4556.922852,4483.589844,5644.102539,4309.102539,4255.128418,0.000000,0.000000,6.000000,,,,0.000000,0.000000,0.000000,0.000000,0.000000,0.000000,0.000000,0.000000,0.000000,0.000000,0.000000,0.000000,0.000000,0.000000,0.000000,0.000000,,,,,,,,,,,,,,,,,,,,,,,,,,,,,,,,,,,,,,,,,,,,,,,,,,,,,,,,,,,,,,,,,,,,,,,,,,,,,,,,,,,,,,,,,,,,,,,,,,,,,,,,,,,,,,,,,,,,,,,,,,,,,,,,,
1736414860.884354,6.000000,0.000000,4294.358887,4339.102539,4270.000000,4318.205078,4347.563965,4360.000000,4376.666504,4545.512695,4549.615234,4558.077148,4484.487305,5644.487305,4307.820313,4255.000000,0.000000,0.000000,6.000000,,,,0.000000,0.000000,0.000000,0.000000,0.000000,0.000000,0.000000,0.000000,0.000000,0.000000,0.000000,0.000000,0.000000,0.000000,0.000000,0.000000,,,,,,,,,,,,,,,,,,,,,,,,,,,,,,,,,,,,,,,,,,,,,,,,,,,,,,,,,,,,,,,,,,,,,,,,,,,,,,,,,,,,,,,,,,,,,,,,,,,,,,,,,,,,,,,,,,,,,,,,,,,,,,,,,
1736414860.892062,7.000000,0.000000,4295.000000,4338.461426,4271.922852,4318.589844,4346.153809,4357.179688,4380.641113,4546.410156,4547.436035,4559.871582,4482.692383,5644.102539,4305.256348,4260.256348,0.000000,0.000000,6.000000,,,,0.000000,0.000000,0.000000,0.000000,0.000000,0.000000,0.000000,0.000000,0.000000,0.000000,0.000000,0.000000,0.000000,0.000000,0.000000,0.000000,,,,,,,,,,,,,,,,,,,,,,,,,,,,,,,,,,,,,,,,,,,,,,,,,,,,,,,,,,,,,,,,,,,,,,,,,,,,,,,,,,,,,,,,,,,,,,,,,,,,,,,,,,,,,,,,,,,,,,,,,,,,,,,,,
1736414860.899870,8.000000,0.000000,4296.153809,4338.077148,4269.358887,4316.538574,4347.563965,4357.307617,4381.922852,4548.974121,4544.871582,4559.871582,4482.563965,5645.000000,4307.436035,4261.666504,0.000000,0.000000,6.000000,,,,0.000000,0.000000,0.000000,0.000000,0.000000,0.000000,0.000000,0.000000,0.000000,0.000000,0.000000,0.000000,0.000000,0.000000,0.000000,0.000000,,,,,,,,,,,,,,,,,2.000000,0.000000,0.716571,-0.690063,0.007751,0.101379,-0.161152,-0.984495,0.048834,-7.191451,-14.944912,-0.325622,,,,,,,,,,,,,,,,,,,,,,,,,,,,,,,,,,,,,,,,,,,,,,,,,,,,,,,,,,,,,,,,,,,,,,,,,,,,,,,,,,,,,,,,,,,,,,,,,,,,,
1736414860.907578,9.000000,0.000000,4297.051270,4342.179688,4269.102539,4318.077148,4348.333496,4360.384766,4377.563965,4548.589844,4543.205078,4560.641113,4484.615234,5644.358887,4310.128418,4258.846191,0.000000,0.000000,6.000000,,,,0.000000,0.000000,0.000000,0.000000,0.000000,0.000000,0.000000,0.000000,0.000000,0.000000,0.000000,0.000000,0.000000,0.000000,0.000000,0.000000,,,,,,,,,,,,,,,,,,,,,,,,,,,,,,,,,,,,,,,,,,,,,,,,,,,,,,,,,,,,,,,,,,,,,,,,,,,,,,,,,,,,,,,,,,,,,,,,,,,,,,,,,,,,,,,,,,,,,,,,,,,,,,,,,
1736414860.915386,10.000000,0.000000,4295.384766,4342.948730,4271.410156,4320.512695,4347.436035,4359.743652,4375.641113,4547.563965,4543.974121,4560.641113,4482.436035,5642.563965,4307.051270,4256.538574,0.000000,0.000000,6.000000,,,,0.000000,0.000000,0.000000,0.000000,0.000000,0.000000,0.000000,0.000000,0.000000,0.000000,0.000000,0.000000,0.000000,0.000000,0.000000,0.000000,,,,,,,,,,,,,,,,,,,,,,,,,,,,,,,,,,,,,,,,,,,,,,,,,,,,,,,,,,,,,,,,,,,,,,,,,,,,,,,,,,,,,,,,,,,,,,,,,,,,,,,,,,,,,,,,,,,,,,,,,,,,,,,,,
1736414860.923094,11.000000,0.000000,4296.282227,4340.641113,4269.102539,4317.307617,4348.974121,4358.974121,4378.717773,4548.589844,4545.000000,4560.512695,4480.256348,5642.948730,4304.615234,4257.051270,0.000000,0.000000,6.000000,,,,0.000000,0.000000,0.000000,0.000000,0.000000,0.000000,0.000000,0.000000,0.000000,0.000000,0.000000,0.000000,0.000000,0.000000,0.000000,0.000000,,,,,,,,,,,,,,,,,,,,,,,,,,,,,,,,,,,,,,,,,,,,,,,,,,,,,,,,,,,,,,,,,,,,,,,,,,,,,,,,,,,,,,,,,,,,,,,,,,,,,,,,,,,,,,,,,,,,,,,,,,,,,,,,,
1736414860.930902,12.000000,0.000000,4297.948730,4339.743652,4268.077148,4320.384766,4350.256348,4359.871582,4380.512695,4547.436035,4546.922852,4561.538574,4483.077148,5643.077148,4307.563965,4258.717773,0.000000,0.000000,6.000000,,,,0.000000,0.000000,0.000000,0.000000,0.000000,0.000000,0.000000,0.000000,0.000000,0.000000,0.000000,0.000000,0.000000,0.000000,0.000000,0.000000,,,,,,,,,,,,,,,,,3.000000,0.000000,0.716612,-0.690002,0.007813,0.101501,-0.152851,-0.984495,0.049322,-7.322306,-14.967088,-0.509726,,,,,,,,,,,,,,,,,,,,,,,,,,,,,,,,,,,,,,,,,,,,,,,,,,,,,,,,,,,,,,,,,,,,,,,,,,,,,,,,,,,,,,,,,,,,,,,,,,,,,
1736414860.938610,13.000000,0.000000,4294.615234,4336.794922,4270.128418,4324.487305,4348.589844,4359.871582,4377.563965,4544.487305,4548.205078,4560.897461,4484.230957,5642.436035,4308.589844,4256.538574,0.000000,0.000000,6.000000,,,,0.000000,0.000000,0.000000,0.000000,0.000000,0.000000,0.000000,0.000000,0.000000,0.000000,0.000000,0.000000,0.000000,0.000000,0.000000,0.000000,,,,,,,,,,,,,,,,,,,,,,,,,,,,,,,,,,,,,,,,,,,,,,,,,,,,,,,,,,,,,,,,,,,,,,,,,,,,,,,,,,,,,,,,,,,,,,,,,,,,,,,,,,,,,,,,,,,,,,,,,,,,,,,,,
1736414860.946518,14.000000,0.000000,4293.461426,4336.538574,4272.051270,4320.512695,4348.461426,4357.820313,4377.179688,4546.794922,4546.025879,4559.743652,4482.307617,5644.487305,4306.666504,4258.333496,0.000000,0.000000,6.000000,,,,0.000000,0.000000,0.000000,0.000000,0.000000,0.000000,0.000000,0.000000,0.000000,0.000000,0.000000,0.000000,0.000000,0.000000,0.000000,0.000000,,,,,,,,,,,,,,,,,,,,,,,,,,,,,,,,,,,,,,,,,,,,,,,,,,,,,,,,,,,,,,,,,,,,,,,,,,,,,,,,,,,,,,,,,,,,,,,,,,,,,,,,,,,,,,,,,,,,,,,,,,,,,,,,,
1736414860.954326,15.000000,0.000000,4294.230957,4338.461426,4271.153809,4318.717773,4350.641113,4356.025879,4379.615234,4550.256348,4546.410156,4559.871582,4482.051270,5645.897461,4308.077148,4263.333496,0.000000,0.000000,6.000000,,,,0.000000,0.000000,0.000000,0.000000,0.000000,0.000000,0.000000,0.000000,0.000000,0.000000,0.000000,0.000000,0.000000,0.000000,0.000000,0.000000,,,,,,,,,,,,,,,,,,,,,,,,,,,,,,,,,,,,,,,,,,,,,,,,,,,,,,,,,,,,,,,,,,,,,,,,,,,,,,,,,,,,,,,,,,,,,,,,,,,,,,,,,,,,,,,,,,,,,,,,,,,,,,,,,
1736414860.962234,16.000000,0.000000,4294.743652,4339.102539,4268.589844,4322.051270,4351.410156,4358.205078,4378.205078,4550.384766,4549.871582,4561.153809,4482.436035,5643.333496,4309.487305,4261.666504,0.000000,0.000000,6.000000,,,,0.000000,0.000000,0.000000,0.000000,0.000000,0.000000,0.000000,0.000000,0.000000,0.000000,0.000000,0.000000,0.000000,0.000000,0.000000,0.000000,,,,,,,,,,,,,,,,,4.000000,0.000000,0.716621,-0.690002,0.007813,0.101440,-0.152362,-0.985472,0.045904,-7.306742,-15.053713,-0.375420,,,,,,,,,,,,,,,,,,,,,,,,,,,,,,,,,,,,,,,,,,,,,,,,,,,,,,,,,,,,,,,,,,,,,,,,,,,,,,,,,,,,,,,,,,,,,,,,,,,,,
1736414860.970042,17.000000,0.000000,4296.153809,4341.538574,4269.615234,4320.641113,4350.000000,4360.000000,4378.589844,4549.615234,4548.205078,4560.512695,4481.153809,5643.589844,4308.333496,4257.948730,0.000000,0.000000,6.000000,,,,0.000000,0.000000,0.000000,0.000000,0.000000,0.000000,0.000000,0.000000,0.000000,0.000000,0.000000,0.000000,0.000000,0.000000,0.000000,0.000000,,,,,,,,,,,,,,,,,,,,,,,,,,,,,,,,,,,,,,,,,,,,,,,,,,,,,,,,,,,,,,,,,,,,,,,,,,,,,,,,,,,,,,,,,,,,,,,,,,,,,,,,,,,,,,,,,,,,,,,,,,,,,,,,,
1736414860.977949,18.000000,0.000000,4293.846191,4339.743652,4271.153809,4313.589844,4348.077148,4357.948730,4381.153809,4550.128418,4543.461426,4560.256348,4481.666504,5646.666504,4307.948730,4256.282227,0.000000,0.000000,6.000000,,,,0.000000,0.000000,0.000000,0.000000,0.000000,0.000000,0.000000,0.000000,0.000000,0.000000,0.000000,0.000000,0.000000,0.000000,0.000000,0.000000,,,,,,,,,,,,,,,,,,,,,,,,,,,,,,,,,,,,,,,,,,,,,,,,,,,,,,,,,,,,,,,,,,,,,,,,,,,,,,,,,,,,,,,,,,,,,,,,,,,,,,,,,,,,,,,,,,,,,,,,,,,,,,,,,
1736414860.985757,19.000000,0.000000,4293.846191,4336.922852,4269.871582,4314.871582,4347.179688,4358.589844,4379.358887,4549.743652,4543.717773,4560.128418,4482.563965,5643.461426,4309.743652,4257.820313,0.000000,0.000000,6.000000,,,,0.000000,0.000000,0.000000,0.000000,0.000000,0.000000,0.000000,0.000000,0.000000,0.000000,0.000000,0.000000,0.000000,0.000000,0.000000,0.000000,,,,,,,,,,,,,,,,,,,,,,,,,,,,,,,,,,,,,,,,,,,,,,,,,,,,,,,,,,,,0.024700,0.031263,0.029700,0.025770,0.037945,0.019491,0.034183,0.024490,0.031144,0.032346,0.028634,0.029521,0.009893,0.018330,0.031871,0.025520,0.029644,0.015907,0.021716,0.024663,0.016223,0.018038,0.024189,0.025412,0.021133,0.037612,0.046688,0.019044,0.025001,0.025934,0.030309,0.035496,0.041066,0.031354,0.020150,0.013113,0.027348,0.022113,0.017829,0.023692,0.016401,0.023399,0.018984,0.020189,0.017720,0.044607,0.015836,0.004650,0.019319,0.017150,0.010426,0.038134,0.061930,0.033123,0.024264,0.008899,0.042638,0.035864,0.015379,0.025783,0.049479,0.067973,0.029666,0.018038,0.024696,0.033642,0.027302,0.040611,0.019049,0.023992
1736414860.993665,20.000000,0.000000,4296.922852,4341.153809,4269.871582,4321.666504,4346.922852,4362.307617,4377.307617,4548.589844,4545.512695,4560.512695,4481.666504,5639.871582,4309.615234,4260.256348,0.000000,0.000000,6.000000,,,,0.000000,0.000000,0.000000,0.000000,0.000000,0.000000,0.000000,0.000000,0.000000,0.000000,0.000000,0.000000,0.000000,0.000000,0.000000,0.000000,,,,,,,,,,,,,,,,,5.000000,0.000000,0.716580,-0.690063,0.007751,0.101318,-0.142596,-0.994262,0.050299,-7.342735,-15.015008,-0.521211,,,,,,,,,,,,,,,,,,,,,,,,,,,,,,,,,,,,,,,,,,,,,,,,,,,,,,,,,,,,,,,,,,,,,,,,,,,,,,,,,,,,,,,,,,,,,,,,,,,,,
1736414861.001473,21.000000,0.000000,4296.025879,4342.051270,4270.769043,4323.974121,4348.333496,4361.025879,4379.615234,4548.333496,4544.871582,4562.051270,4480.128418,5642.563965,4307.948730,4260.256348,0.000000,0.000000,6.000000,,,,0.000000,0.000000,0.000000,0.000000,0.000000,0.000000,0.000000,0.000000,0.000000,0.000000,0.000000,0.000000,0.000000,0.000000,0.000000,0.000000,,,,,,,,,,,,,,,,,,,,,,,,,,,,,,,,,,,,,,,,,,,,,,,,,,,,,,,,,,,,,,,,,,,,,,,,,,,,,,,,,,,,,,,,,,,,,,,,,,,,,,,,,,,,,,,,,,,,,,,,,,,,,,,,,
1736414861.009381,22.000000,0.000000,4296.025879,4338.461426,4270.256348,4323.333496,4351.794922,4356.794922,4380.384766,4546.666504,4543.589844,4561.025879,4480.641113,5643.461426,4308.205078,4260.000000,0.000000,0.000000,6.000000,,,,0.000000,0.000000,0.000000,0.000000,0.000000,0.000000,0.000000,0.000000,0.000000,0.000000,0.000000,0.000000,0.000000,0.000000,0.000000,0.000000,,,,,,,,,,,,,,,,,,,,,,,,,,,,,,,,,,,,,,,,,,,,,,,,,,,,,,,,,,,,,,,,,,,,,,,,,,,,,,,,,,,,,,,,,,,,,,,,,,,,,,,,,,,,,,,,,,,,,,,,,,,,,,,,,
1736414861.017189,23.000000,0.000000,4295.512695,4337.692383,4269.487305,4318.717773,4349.743652,4356.538574,4378.077148,4547.051270,4544.743652,4559.615234,4483.077148,5644.102539,4306.794922,4261.282227,0.000000,0.000000,6.000000,,,,0.000000,0.000000,0.000000,0.000000,0.000000,0.000000,0.000000,0.000000,0.000000,0.000000,0.000000,0.000000,0.000000,0.000000,0.000000,0.000000,,,,,,,,,,,,,,,,,,,,,,,,,,,,,,,,,,,,,,,,,,,,,,,,,,,,,,,,,,,,,,,,,,,,,,,,,,,,,,,,,,,,,,,,,,,,,,,,,,,,,,,,,,,,,,,,,,,,,,,,,,,,,,,,,
1736414861.025097,24.000000,0.000000,4294.230957,4338.717773,4271.538574,4316.153809,4344.230957,4359.487305,4378.974121,4548.846191,4547.563965,4560.000000,4484.615234,5646.538574,4305.256348,4259.487305,0.000000,0.000000,6.000000,,,,0.000000,0.000000,0.000000,0.000000,0.000000,0.000000,0.000000,0.000000,0.000000,0.000000,0.000000,0.000000,0.000000,0.000000,0.000000,0.000000,,,,,,,,,,,,,,,,,6.000000,0.000000,0.716580,-0.690063,0.007751,0.101318,-0.140154,-0.991820,0.052741,-7.275128,-15.096840,-0.552424,,,,,,,,,,,,,,,,,,,,,,,,,,,,,,,,,,,,,,,,,,,,,,,,,,,,,,,,,,,,,,,,,,,,,,,,,,,,,,,,,,,,,,,,,,,,,,,,,,,,,
1736414861.032905,25.000000,0.000000,4296.538574,4339.230957,4272.436035,4317.179688,4348.461426,4359.743652,4378.333496,4548.205078,4545.641113,4559.487305,4482.692383,5644.230957,4306.666504,4257.307617,0.000000,0.000000,6.000000,,,,0.000000,0.000000,0.000000,0.000000,0.000000,0.000000,0.000000,0.000000,0.000000,0.000000,0.000000,0.000000,0.000000,0.000000,0.000000,0.000000,,,,,,,,,,,,,,,,,,,,,,,,,,,,,,,,,,,,,,,,,,,,,,,,,,,,,,,,,,,,,,,,,,,,,,,,,,,,,,,,,,,,,,,,,,,,,,,,,,,,,,,,,,,,,,,,,,,,,,,,,,,,,,,,,
1736414861.040813,26.000000,0.000000,4295.384766,4338.205078,4267.692383,4318.589844,4353.205078,4359.487305,4377.051270,4547.436035,4543.205078,4559.487305,4482.051270,5641.538574,4308.205078,4259.230957,0.000000,0.000000,6.000000,,,,0.000000,0.000000,0.000000,0.000000,0.000000,0.000000,0.000000,0.000000,0.000000,0.000000,0.000000,0.000000,0.000000,0.000000,0.000000,0.000000,,,,,,,,,,,,,,,,,,,,,,,,,,,,,,,,,,,,,,,,,,,,,,,,,,,,,,,,,,,,,,,,,,,,,,,,,,,,,,,,,,,,,,,,,,,,,,,,,,,,,,,,,,,,,,,,,,,,,,,,,,,,,,,,,
1736414861.048621,27.000000,0.000000,4294.487305,4338.717773,4266.153809,4320.128418,4348.846191,4361.153809,4381.922852,4546.538574,4544.871582,4561.794922,4480.897461,5642.948730,4308.846191,4260.000000,0.000000,0.000000,6.000000,,,,0.000000,0.000000,0.000000,0.000000,0.000000,0.000000,0.000000,0.000000,0.000000,0.000000,0.000000,0.000000,0.000000,0.000000,0.000000,0.000000,,,,,,,,,,,,,,,,,,,,,,,,,,,,,,,,,,,,,,,,,,,,,,,,,,,,,,,,,,,,,,,,,,,,,,,,,,,,,,,,,,,,,,,,,,,,,,,,,,,,,,,,,,,,,,,,,,,,,,,,,,,,,,,,,
1736414861.056529,28.000000,0.000000,4293.974121,4340.384766,4270.641113,4318.717773,4346.794922,4360.512695,4383.077148,4546.282227,4545.256348,4560.769043,4476.922852,5641.666504,4309.615234,4257.051270,0.000000,0.000000,6.000000,,,,0.000000,0.000000,0.000000,0.000000,0.000000,0.000000,0.000000,0.000000,0.000000,0.000000,0.000000,0.000000,0.000000,0.000000,0.000000,0.000000,,,,,,,,,,,,,,,,,7.000000,0.000000,0.716631,-0.690002,0.007690,0.101379,-0.153339,-0.994750,0.049322,-7.380949,-14.987156,-0.463848,,,,,,,,,,,,,,,,,,,,,,,,,,,,,,,,,,,,,,,,,,,,,,,,,,,,,,,,,,,,,,,,,,,,,,,,,,,,,,,,,,,,,,,,,,,,,,,,,,,,,
1736414861.064337,29.000000,0.000000,4291.922852,4342.307617,4273.077148,4317.692383,4350.897461,4360.897461,4374.743652,4547.436035,4544.615234,4559.358887,4479.615234,5640.000000,4308.974121,4256.666504,0.000000,0.000000,6.000000,,,,0.000000,0.000000,0.000000,0.000000,0.000000,0.000000,0.000000,0.000000,0.000000,0.000000,0.000000,0.000000,0.000000,0.000000,0.000000,0.000000,,,,,,,,,,,,,,,,,,,,,,,,,,,,,,,,,,,,,,,,,,,,,,,,,,,,,,,,,,,,,,,,,,,,,,,,,,,,,,,,,,,,,,,,,,,,,,,,,,,,,,,,,,,,,,,,,,,,,,,,,,,,,,,,,
1736414861.072045,30.000000,0.000000,4293.846191,4340.000000,4271.153809,4319.615234,4350.384766,4361.794922,4373.974121,4548.461426,4545.512695,4561.538574,4483.589844,5642.436035,4307.051270,4260.128418,0.000000,0.000000,6.000000,,,,0.000000,0.000000,0.000000,0.000000,0.000000,0.000000,0.000000,0.000000,0.000000,0.000000,0.000000,0.000000,0.000000,0.000000,0.000000,0.000000,,,,,,,,,,,,,,,,,,,,,,,,,,,,,,,,,,,,,,,,,,,,,,,,,,,,,,,,,,,,,,,,,,,,,,,,,,,,,,,,,,,,,,,,,,,,,,,,,,,,,,,,,,,,,,,,,,,,,,,,,,,,,,,,,
1736414861.079953,31.000000,0.000000,4293.846191,4336.153809,4267.436035,4318.461426,4346.922852,4358.846191,4381.282227,4548.717773,4546.538574,4561.282227,4482.307617,5644.358887,4307.179688,4262.563965,0.000000,0.000000,6.000000,,,,0.000000,0.000000,0.000000,0.000000,0.000000,0.000000,0.000000,0.000000,0.000000,0.000000,0.000000,0.000000,0.000000,0.000000,0.000000,0.000000,,,,,,,,,,,,,,,,,,,,,,,,,,,,,,,,,,,,,,,,,,,,,,,,,,,,,,,,,,,,,,,,,,,,,,,,,,,,,,,,,,,,,,,,,,,,,,,,,,,,,,,,,,,,,,,,,,,,,,,,,,,,,,,,,
1736414861.087760,32.000000,0.000000,4294.230957,4340.128418,4271.282227,4318.333496,4348.461426,4358.205078,4380.384766,4546.410156,4547.692383,4560.128418,4482.051270,5643.846191,4306.538574,4260.897461,0.000000,0.000000,6.000000,,,,0.000000,0.000000,0.000000,0.000000,0.000000,0.000000,0.000000,0.000000,0.000000,0.000000,0.000000,0.000000,0.000000,0.000000,0.000000,0.000000,,,,,,,,,,,,,,,,,8.000000,0.000000,0.716631,-0.690002,0.007690,0.101379,-0.157246,-0.992797,0.052741,-7.226187,-14.938440,-0.617463,,,,,,,,,,,,,,,,,,,,,,,,,,,,,,,,,,,,,,,,,,,,,,,,,,,,,,,,,,,,,,,,,,,,,,,,,,,,,,,,,,,,,,,,,,,,,,,,,,,,,
1736414861.095568,33.000000,0.000000,4294.487305,4340.256348,4274.358887,4321.410156,4349.487305,4359.102539,4376.666504,4545.641113,4549.102539,4560.128418,4484.487305,5642.948730,4305.256348,4257.307617,0.000000,0.000000,6.000000,,,,0.000000,0.000000,0.000000,0.000000,0.000000,0.000000,0.000000,0.000000,0.000000,0.000000,0.000000,0.000000,0.000000,0.000000,0.000000,0.000000,,,,,,,,,,,,,,,,,,,,,,,,,,,,,,,,,,,,,,,,,,,,,,,,,,,,,,,,,,,,,,,,,,,,,,,,,,,,,,,,,,,,,,,,,,,,,,,,,,,,,,,,,,,,,,,,,,,,,,,,,,,,,,,,,
1736414861.103277,34.000000,0.000000,4293.974121,4336.282227,4270.128418,4320.897461,4348.077148,4357.436035,4381.025879,4548.461426,4547.051270,4559.230957,4483.077148,5643.461426,4305.000000,4256.410156,0.000000,0.000000,6.000000,,,,0.000000,0.000000,0.000000,0.000000,0.000000,0.000000,0.000000,0.000000,0.000000,0.000000,0.000000,0.000000,0.000000,0.000000,0.000000,0.000000,,,,,,,,,,,,,,,,,,,,,,,,,,,,,,,,,,,,,,,,,,,,,,,,,,,,,,,,,,,,,,,,,,,,,,,,,,,,,,,,,,,,,,,,,,,,,,,,,,,,,,,,,,,,,,,,,,,,,,,,,,,,,,,,,
1736414861.111085,35.000000,0.000000,4295.769043,4337.948730,4268.846191,4317.692383,4350.256348,4359.230957,4382.820313,4547.436035,4544.230957,4559.487305,4479.871582,5644.102539,4306.153809,4256.410156,0.000000,0.000000,6.000000,,,,0.000000,0.000000,0.000000,0.000000,0.000000,0.000000,0.000000,0.000000,0.000000,0.000000,0.000000,0.000000,0.000000,0.000000,0.000000,0.000000,1.000000,0.000000,0.000000,0.000000,0.000000,0.000000,0.000000,0.000000,0.000000,0.000000,0.000000,0.000000,0.000000,0.000000,0.000000,0.000000,,,,,,,,,,,,,,,,,,,,,,,,,,,,,,,,,,,,,,,,,,,,0.022342,0.036760,0.027303,0.022882,0.038697,0.020400,0.035233,0.027634,0.033130,0.032907,0.030507,0.028721,0.010062,0.020854,0.032848,0.026286,0.031583,0.017806,0.020998,0.022847,0.018297,0.018656,0.022887,0.023471,0.018699,0.047555,0.047621,0.017709,0.029857,0.029792,0.031496,0.039895,0.053230,0.031534,0.021472,0.011896,0.028495,0.020665,0.017285,0.025431,0.016155,0.021523,0.019369,0.020950,0.019523,0.042573,0.016789,0.003899,0.021850,0.017906,0.015299,0.033371,0.064239,0.031313,0.026528,0.012663,0.043967,0.032241,0.018799,0.029891,0.051242,0.073829,0.037446,0.019190,0.025099,0.036054,0.027056,0.042290,0.016864,0.024165
1736414861.118793,36.000000,0.000000,4293.589844,4338.846191,4267.307617,4316.025879,4352.307617,4360.128418,4378.205078,4544.743652,4546.153809,4560.000000,4480.769043,5642.436035,4310.769043,4256.025879,0.000000,0.000000,6.000000,,,,0.000000,0.000000,0.000000,0.000000,0.000000,0.000000,0.000000,0.000000,0.000000,0.000000,0.000000,0.000000,0.000000,0.000000,0.000000,0.000000,,,,,,,,,,,,,,,,,9.000000,0.000000,0.716631,-0.690002,0.007629,0.101379,-0.154804,-0.986937,0.055671,-7.086902,-14.927930,-0.472383,,,,,,,,,,,,,,,,,,,,,,,,,,,,,,,,,,,,,,,,,,,,,,,,,,,,,,,,,,,,,,,,,,,,,,,,,,,,,,,,,,,,,,,,,,,,,,,,,,,,,
1736414861.126601,37.000000,0.000000,4293.205078,4339.615234,4265.769043,4317.563965,4350.641113,4356.282227,4376.410156,4546.794922,4547.820313,4559.230957,4481.538574,5640.256348,4313.846191,4257.563965,0.000000,0.000000,6.000000,,,,0.000000,0.000000,0.000000,0.000000,0.000000,0.000000,0.000000,0.000000,0.000000,0.000000,0.000000,0.000000,0.000000,0.000000,0.000000,0.000000,,,,,,,,,,,,,,,,,,,,,,,,,,,,,,,,,,,,,,,,,,,,,,,,,,,,,,,,,,,,,,,,,,,,,,,,,,,,,,,,,,,,,,,,,,,,,,,,,,,,,,,,,,,,,,,,,,,,,,,,,,,,,,,,,
1736414861.134309,38.000000,0.000000,4294.358887,4340.256348,4268.077148,4321.666504,4347.948730,4356.666504,4377.820313,4546.922852,4548.077148,4561.153809,4481.538574,5641.538574,4308.974121,4257.436035,0.000000,0.000000,6.000000,,,,0.000000,0.000000,0.000000,0.000000,0.000000,0.000000,0.000000,0.000000,0.000000,0.000000,0.000000,0.000000,0.000000,0.000000,0.000000,0.000000,,,,,,,,,,,,,,,,,,,,,,,,,,,,,,,,,,,,,,,,,,,,,,,,,,,,,,,,,,,,,,,,,,,,,,,,,,,,,,,,,,,,,,,,,,,,,,,,,,,,,,,,,,,,,,,,,,,,,,,,,,,,,,,,,
1736414861.142117,39.000000,0.000000,4293.205078,4337.436035,4270.512695,4321.538574,4347.179688,4359.230957,4380.384766,4545.512695,4548.205078,4561.794922,4481.666504,5644.871582,4306.025879,4256.666504,0.000000,0.000000,6.000000,,,,0.000000,0.000000,0.000000,0.000000,0.000000,0.000000,0.000000,0.000000,0.000000,0.000000,0.000000,0.000000,0.000000,0.000000,0.000000,0.000000,,,,,,,,,,,,,,,,,,,,,,,,,,,,,,,,,,,,,,,,,,,,,,,,,,,,,,,,,,,,,,,,,,,,,,,,,,,,,,,,,,,,,,,,,,,,,,,,,,,,,,,,,,,,,,,,,,,,,,,,,,,,,,,,,
1736414861.149825,40.000000,0.000000,4295.128418,4337.436035,4272.051270,4320.641113,4347.051270,4358.461426,4381.153809,4548.461426,4547.436035,4558.589844,4483.846191,5644.358887,4308.974121,4256.538574,0.000000,0.000000,6.000000,,,,0.000000,0.000000,0.000000,0.000000,0.000000,0.000000,0.000000,0.000000,0.000000,0.000000,0.000000,0.000000,0.000000,0.000000,0.000000,0.000000,,,,,,,,,,,,,,,,,10.000000,0.000000,0.716622,-0.690002,0.007690,0.101440,-0.143084,-0.994262,0.044927,-7.144878,-14.985137,-0.525145,,,,,,,,,,,,,,,,,,,,,,,,,,,,,,,,,,,,,,,,,,,,,,,,,,,,,,,,,,,,,,,,,,,,,,,,,,,,,,,,,,,,,,,,,,,,,,,,,,,,,
1736414861.157633,41.000000,0.000000,4295.256348,4338.717773,4270.256348,4321.153809,4347.692383,4356.282227,4379.230957,4550.512695,4548.974121,4558.846191,4486.794922,5643.461426,4308.077148,4255.512695,0.000000,0.000000,6.000000,,,,0.000000,0.000000,0.000000,0.000000,0.000000,0.000000,0.000000,0.000000,0.000000,0.000000,0.000000,0.000000,0.000000,0.000000,0.000000,0.000000,,,,,,,,,,,,,,,,,,,,,,,,,,,,,,,,,,,,,,,,,,,,,,,,,,,,,,,,,,,,,,,,,,,,,,,,,,,,,,,,,,,,,,,,,,,,,,,,,,,,,,,,,,,,,,,,,,,,,,,,,,,,,,,,,
1736414861.165341,42.000000,0.000000,4294.358887,4338.205078,4270.256348,4320.897461,4348.461426,4358.077148,4380.384766,4546.666504,4549.743652,4560.512695,4482.820313,5644.358887,4304.871582,4256.538574,0.000000,0.000000,6.000000,,,,0.000000,0.000000,0.000000,0.000000,0.000000,0.000000,0.000000,0.000000,0.000000,0.000000,0.000000,0.000000,0.000000,0.000000,0.000000,0.000000,,,,,,,,,,,,,,,,,,,,,,,,,,,,,,,,,,,,,,,,,,,,,,,,,,,,,,,,,,,,,,,,,,,,,,,,,,,,,,,,,,,,,,,,,,,,,,,,,,,,,,,,,,,,,,,,,,,,,,,,,,,,,,,,,
1736414861.173149,43.000000,0.000000,4296.666504,4339.358887,4272.051270,4321.153809,4349.230957,4360.128418,4381.282227,4545.769043,4546.153809,4559.358887,4481.282227,5645.000000,4307.051270,4258.974121,0.000000,0.000000,6.000000,,,,0.000000,0.000000,0.000000,0.000000,0.000000,0.000000,0.000000,0.000000,0.000000,0.000000,0.000000,0.000000,0.000000,0.000000,0.000000,0.000000,,,,,,,,,,,,,,,,,,,,,,,,,,,,,,,,,,,,,,,,,,,,,,,,,,,,,,,,,,,,,,,,,,,,,,,,,,,,,,,,,,,,,,,,,,,,,,,,,,,,,,,,,,,,,,,,,,,,,,,,,,,,,,,,,
1736414861.180857,44.000000,0.000000,4297.307617,4341.153809,4270.897461,4321.538574,4350.000000,4358.717773,4377.051270,4549.358887,4543.589844,4560.384766,4485.897461,5643.589844,4308.846191,4257.948730,0.000000,0.000000,6.000000,,,,0.000000,0.000000,0.000000,0.000000,0.000000,0.000000,0.000000,0.000000,0.000000,0.000000,0.000000,0.000000,0.000000,0.000000,0.000000,0.000000,,,,,,,,,,,,,,,,,11.000000,0.000000,0.716555,-0.690063,0.007629,0.101501,-0.147479,-0.986449,0.041509,-7.030390,-15.003290,-0.522631,,,,,,,,,,,,,,,,,,,,,,,,,,,,,,,,,,,,,,,,,,,,,,,,,,,,,,,,,,,,,,,,,,,,,,,,,,,,,,,,,,,,,,,,,,,,,,,,,,,,,
1736414861.188765,45.000000,0.000000,4295.128418,4342.307617,4269.871582,4321.282227,4348.846191,4360.128418,4376.666504,4550.000000,4546.025879,4560.897461,4483.717773,5642.179688,4306.282227,4256.282227,0.000000,0.000000,6.000000,,,,0.000000,0.000000,0.000000,0.000000,0.000000,0.000000,0.000000,0.000000,0.000000,0.000000,0.000000,0.000000,0.000000,0.000000,0.000000,0.000000,,,,,,,,,,,,,,,,,,,,,,,,,,,,,,,,,,,,,,,,,,,,,,,,,,,,,,,,,,,,,,,,,,,,,,,,,,,,,,,,,,,,,,,,,,,,,,,,,,,,,,,,,,,,,,,,,,,,,,,,,,,,,,,,,
1736414861.196573,46.000000,0.000000,4291.922852,4342.820313,4267.563965,4319.743652,4347.820313,4359.358887,4380.641113,4548.846191,4547.051270,4561.025879,4476.922852,5642.948730,4306.538574,4256.410156,0.000000,0.000000,6.000000,,,,0.000000,0.000000,0.000000,0.000000,0.000000,0.000000,0.000000,0.000000,0.000000,0.000000,0.000000,0.000000,0.000000,0.000000,0.000000,0.000000,,,,,,,,,,,,,,,,,,,,,,,,,,,,,,,,,,,,,,,,,,,,,,,,,,,,,,,,,,,,,,,,,,,,,,,,,,,,,,,,,,,,,,,,,,,,,,,,,,,,,,,,,,,,,,,,,,,,,,,,,,,,,,,,,
1736414861.204480,47.000000,0.000000,4293.333496,4343.846191,4268.333496,4318.717773,4349.871582,4355.256348,4380.000000,4547.179688,4543.717773,4561.282227,4477.948730,5643.974121,4306.922852,4255.641113,0.000000,0.000000,6.000000,,,,0.000000,0.000000,0.000000,0.000000,0.000000,0.000000,0.000000,0.000000,0.000000,0.000000,0.000000,0.000000,0.000000,0.000000,0.000000,0.000000,,,,,,,,,,,,,,,,,,,,,,,,,,,,,,,,,,,,,,,,,,,,,,,,,,,,,,,,,,,,,,,,,,,,,,,,,,,,,,,,,,,,,,,,,,,,,,,,,,,,,,,,,,,,,,,,,,,,,,,,,,,,,,,,,
1736414861.212288,48.000000,0.000000,4296.410156,4341.922852,4272.820313,4317.563965,4350.384766,4357.692383,4377.692383,4547.692383,4544.230957,4561.153809,4483.846191,5644.871582,4306.538574,4254.487305,0.000000,0.000000,6.000000,,,,0.000000,0.000000,0.000000,0.000000,0.000000,0.000000,0.000000,0.000000,0.000000,0.000000,0.000000,0.000000,0.000000,0.000000,0.000000,0.000000,,,,,,,,,,,,,,,,,12.000000,0.000000,0.716623,-0.690002,0.007629,0.101440,-0.151874,-0.984984,0.049322,-7.044018,-14.986295,-0.553701,,,,,,,,,,,,,,,,,,,,,,,,,,,,,,,,,,,,,,,,,,,,,,,,,,,,,,,,,,,,,,,,,,,,,,,,,,,,,,,,,,,,,,,,,,,,,,,,,,,,,
1736414861.220196,49.000000,0.000000,4294.743652,4341.410156,4272.051270,4318.077148,4348.077148,4359.487305,4380.769043,4551.538574,4547.820313,4562.307617,4485.512695,5643.461426,4307.563965,4257.820313,0.000000,0.000000,6.000000,,,,0.000000,0.000000,0.000000,0.000000,0.000000,0.000000,0.000000,0.000000,0.000000,0.000000,0.000000,0.000000,0.000000,0.000000,0.000000,0.000000,,,,,,,,,,,,,,,,,,,,,,,,,,,,,,,,,,,,,,,,,,,,,,,,,,,,,,,,,,,,,,,,,,,,,,,,,,,,,,,,,,,,,,,,,,,,,,,,,,,,,,,,,,,,,,,,,,,,,,,,,,,,,,,,,
1736414861.228004,50.000000,0.000000,4295.512695,4344.230957,4269.743652,4321.153809,4349.230957,4354.358887,4382.563965,4548.077148,4547.820313,4563.333496,4483.205078,5640.256348,4307.179688,4260.897461,0.000000,0.000000,6.000000,,,,0.000000,0.000000,0.000000,0.000000,0.000000,0.000000,0.000000,0.000000,0.000000,0.000000,0.000000,0.000000,0.000000,0.000000,0.000000,0.000000,,,,,,,,,,,,,,,,,,,,,,,,,,,,,,,,,,,,,,,,,,,,,,,,,,,,,,,,,,,,,,,,,,,,,,,,,,,,,,,,,,,,,,,,,,,,,,,,,,,,,,,,,,,,,,,,,,,,,,,,,,,,,,,,,
1736414861.235912,51.000000,0.000000,4296.666504,4340.000000,4269.615234,4321.025879,4350.897461,4353.333496,4378.333496,4542.948730,4546.282227,4561.153809,4481.410156,5640.897461,4308.717773,4257.436035,0.000000,0.000000,6.000000,,,,0.000000,0.000000,0.000000,0.000000,0.000000,0.000000,0.000000,0.000000,0.000000,0.000000,0.000000,0.000000,0.000000,0.000000,0.000000,0.000000,,,,,,,,,,,,,,,,,,,,,,,,,,,,,,,,,,,,,,,,,,,,,,,,,,,,,,,,,,,,0.024971,0.039361,0.026026,0.021370,0.037878,0.023024,0.034917,0.030615,0.033824,0.033293,0.031931,0.027246,0.011642,0.023354,0.032869,0.027138,0.033482,0.022661,0.020534,0.021535,0.021285,0.018957,0.020925,0.020611,0.016848,0.054773,0.044942,0.016977,0.036627,0.033498,0.034270,0.044814,0.062900,0.030580,0.023597,0.012775,0.029922,0.018349,0.016306,0.026507,0.015301,0.019728,0.021821,0.022638,0.022313,0.037888,0.018133,0.003745,0.023955,0.019300,0.021681,0.030750,0.061841,0.029480,0.028664,0.017780,0.042978,0.027201,0.024341,0.033794,0.049530,0.072450,0.043812,0.020596,0.026152,0.035993,0.028472,0.042129,0.015696,0.023792
1736414861.243720,52.000000,0.000000,4296.410156,4335.512695,4269.871582,4319.487305,4350.256348,4358.333496,4375.769043,4547.948730,4545.769043,4558.589844,4481.153809,5643.077148,4311.794922,4255.128418,0.000000,0.000000,6.000000,,,,0.000000,0.000000,0.000000,0.000000,0.000000,0.000000,0.000000,0.000000,0.000000,0.000000,0.000000,0.000000,0.000000,0.000000,0.000000,0.000000,,,,,,,,,,,,,,,,,13.000000,0.000000,0.716554,-0.690063,0.007751,0.101501,-0.149921,-0.986449,0.048346,-7.156283,-14.870998,-0.364997,,,,,,,,,,,,,,,,,,,,,,,,,,,,,,,,,,,,,,,,,,,,,,,,,,,,,,,,,,,,,,,,,,,,,,,,,,,,,,,,,,,,,,,,,,,,,,,,,,,,,
1736414861.251528,53.000000,0.000000,4294.871582,4337.948730,4270.384766,4319.743652,4350.128418,4358.333496,4378.077148,4551.794922,4545.384766,4560.769043,4483.461426,5642.820313,4309.102539,4258.589844,0.000000,0.000000,6.000000,,,,0.000000,0.000000,0.000000,0.000000,0.000000,0.000000,0.000000,0.000000,0.000000,0.000000,0.000000,0.000000,0.000000,0.000000,0.000000,0.000000,,,,,,,,,,,,,,,,,,,,,,,,,,,,,,,,,,,,,,,,,,,,,,,,,,,,,,,,,,,,,,,,,,,,,,,,,,,,,,,,,,,,,,,,,,,,,,,,,,,,,,,,,,,,,,,,,,,,,,,,,,,,,,,,,
1736414861.259336,54.000000,0.000000,4291.666504,4339.358887,4271.153809,4319.615234,4347.948730,4355.512695,4379.358887,4548.461426,4545.384766,4563.717773,4484.743652,5643.077148,4303.589844,4258.846191,0.000000,0.000000,6.000000,,,,0.000000,0.000000,0.000000,0.000000,0.000000,0.000000,0.000000,0.000000,0.000000,0.000000,0.000000,0.000000,0.000000,0.000000,0.000000,0.000000,,,,,,,,,,,,,,,,,,,,,,,,,,,,,,,,,,,,,,,,,,,,,,,,,,,,,,,,,,,,,,,,,,,,,,,,,,,,,,,,,,,,,,,,,,,,,,,,,,,,,,,,,,,,,,,,,,,,,,,,,,,,,,,,,
1736414861.267044,55.000000,0.000000,4293.333496,4339.358887,4273.333496,4319.871582,4346.794922,4357.307617,4379.230957,4545.256348,4543.461426,4561.922852,4482.948730,5643.974121,4304.230957,4256.410156,0.000000,0.000000,6.000000,,,,0.000000,0.000000,0.000000,0.000000,0.000000,0.000000,0.000000,0.000000,0.000000,0.000000,0.000000,0.000000,0.000000,0.000000,0.000000,0.000000,,,,,,,,,,,,,,,,,,,,,,,,,,,,,,,,,,,,,,,,,,,,,,,,,,,,,,,,,,,,,,,,,,,,,,,,,,,,,,,,,,,,,,,,,,,,,,,,,,,,,,,,,,,,,,,,,,,,,,,,,,,,,,,,,
1736414861.274852,56.000000,0.000000,4296.025879,4340.128418,4272.051270,4322.051270,4349.743652,4358.589844,4378.589844,4546.666504,4543.717773,4560.769043,4482.563965,5642.051270,4307.692383,4256.538574,0.000000,0.000000,6.000000,,,,0.000000,0.000000,0.000000,0.000000,0.000000,0.000000,0.000000,0.000000,0.000000,0.000000,0.000000,0.000000,0.000000,0.000000,0.000000,0.000000,,,,,,,,,,,,,,,,,14.000000,0.000000,0.716613,-0.690002,0.007751,0.101501,-0.146991,-0.994262,0.043951,-7.040655,-14.933898,-0.345164,,,,,,,,,,,,,,,,,,,,,,,,,,,,,,,,,,,,,,,,,,,,,,,,,,,,,,,,,,,,,,,,,,,,,,,,,,,,,,,,,,,,,,,,,,,,,,,,,,,,,
1736414861.282560,57.000000,0.000000,4295.384766,4340.641113,4271.025879,4321.538574,4351.153809,4356.410156,4377.051270,4549.743652,4549.358887,4562.436035,4483.333496,5642.436035,4307.820313,4258.205078,0.000000,0.000000,6.000000,,,,0.000000,0.000000,0.000000,0.000000,0.000000,0.000000,0.000000,0.000000,0.000000,0.000000,0.000000,0.000000,0.000000,0.000000,0.000000,0.000000,,,,,,,,,,,,,,,,,,,,,,,,,,,,,,,,,,,,,,,,,,,,,,,,,,,,,,,,,,,,,,,,,,,,,,,,,,,,,,,,,,,,,,,,,,,,,,,,,,,,,,,,,,,,,,,,,,,,,,,,,,,,,,,,,
1736414861.290368,58.000000,0.000000,4294.487305,4341.666504,4273.077148,4318.333496,4347.948730,4356.922852,4379.358887,4549.358887,4549.743652,4560.641113,4481.666504,5644.358887,4306.025879,4258.589844,0.000000,0.000000,6.000000,,,,0.000000,0.000000,0.000000,0.000000,0.000000,0.000000,0.000000,0.000000,0.000000,0.000000,0.000000,0.000000,0.000000,0.000000,0.000000,0.000000,,,,,,,,,,,,,,,,,,,,,,,,,,,,,,,,,,,,,,,,,,,,,,,,,,,,,,,,,,,,,,,,,,,,,,,,,,,,,,,,,,,,,,,,,,,,,,,,,,,,,,,,,,,,,,,,,,,,,,,,,,,,,,,,,
1736414861.298076,59.000000,0.000000,4294.102539,4340.512695,4270.256348,4317.051270,4348.205078,4358.846191,4380.512695,4545.641113,4545.384766,4556.666504,4481.153809,5643.461426,4305.769043,4256.153809,0.000000,0.000000,6.000000,,,,0.000000,0.000000,0.000000,0.000000,0.000000,0.000000,0.000000,0.000000,0.000000,0.000000,0.000000,0.000000,0.000000,0.000000,0.000000,0.000000,,,,,,,,,,,,,,,,,,,,,,,,,,,,,,,,,,,,,,,,,,,,,,,,,,,,,,,,,,,,,,,,,,,,,,,,,,,,,,,,,,,,,,,,,,,,,,,,,,,,,,,,,,,,,,,,,,,,,,,,,,,,,,,,,
1736414861.305884,60.000000,0.000000,4295.000000,4340.897461,4268.589844,4322.051270,4353.205078,4358.846191,4377.948730,4546.025879,4544.615234,4558.205078,4481.025879,5643.589844,4306.538574,4255.256348,0.000000,0.000000,6.000000,,,,0.000000,0.000000,0.000000,0.000000,0.000000,0.000000,0.000000,0.000000,0.000000,0.000000,0.000000,0.000000,0.000000,0.000000,0.000000,0.000000,,,,,,,,,,,,,,,,,15.000000,0.000000,0.716613,-0.690002,0.007751,0.101501,-0.154316,-0.983030,0.046881,-6.919922,-14.973842,-0.393981,,,,,,,,,,,,,,,,,,,,,,,,,,,,,,,,,,,,,,,,,,,,,,,,,,,,,,,,,,,,,,,,,,,,,,,,,,,,,,,,,,,,,,,,,,,,,,,,,,,,,
