title:bread1, start timestamp:1738755396.940517, stop timestamp:1738755397.978995, headset type:EPOCX, headset serial:E50208A5, headset firmware:720, channels:168, sampling rate:eeg_128;mot_32;pm_0.1;pow_8, samples:134       , version:2.2, 
Timestamp,OriginalTimestamp,EEG.Counter,EEG.Interpolated,EEG.AF3,EEG.F7,EEG.F3,EEG.FC5,EEG.T7,EEG.P7,EEG.O1,EEG.O2,EEG.P8,EEG.T8,EEG.FC6,EEG.F4,EEG.F8,EEG.AF4,EEG.RawCq,EEG.Battery,EEG.BatteryPercent,MarkerIndex,MarkerType,MarkerValueInt,EEG.MarkerHardware,CQ.AF3,CQ.F7,CQ.F3,CQ.FC5,CQ.T7,CQ.P7,CQ.O1,CQ.O2,CQ.P8,CQ.T8,CQ.FC6,CQ.F4,CQ.F8,CQ.AF4,CQ.Overall,EQ.SampleRateQuality,EQ.OVERALL,EQ.AF3,EQ.F7,EQ.F3,EQ.FC5,EQ.T7,EQ.P7,EQ.O1,EQ.O2,EQ.P8,EQ.T8,EQ.FC6,EQ.F4,EQ.F8,EQ.AF4,MOT.CounterMems,MOT.InterpolatedMems,MOT.Q0,MOT.Q1,MOT.Q2,MOT.Q3,MOT.AccX,MOT.AccY,MOT.AccZ,MOT.MagX,MOT.MagY,MOT.MagZ,PM.Attention.IsActive,PM.Attention.Scaled,PM.Attention.Raw,PM.Attention.Min,PM.Attention.Max,PM.Engagement.IsActive,PM.Engagement.Scaled,PM.Engagement.Raw,PM.Engagement.Min,PM.Engagement.Max,PM.Excitement.IsActive,PM.Excitement.Scaled,PM.Excitement.Raw,PM.Excitement.Min,PM.Excitement.Max,PM.LongTermExcitement,PM.Stress.IsActive,PM.Stress.Scaled,PM.Stress.Raw,PM.Stress.Min,PM.Stress.Max,PM.Relaxation.IsActive,PM.Relaxation.Scaled,PM.Relaxation.Raw,PM.Relaxation.Min,PM.Relaxation.Max,PM.Interest.IsActive,PM.Interest.Scaled,PM.Interest.Raw,PM.Interest.Min,PM.Interest.Max,POW.AF3.Theta,POW.AF3.Alpha,POW.AF3.BetaL,POW.AF3.BetaH,POW.AF3.Gamma,POW.F7.Theta,POW.F7.Alpha,POW.F7.BetaL,POW.F7.BetaH,POW.F7.Gamma,POW.F3.Theta,POW.F3.Alpha,POW.F3.BetaL,POW.F3.BetaH,POW.F3.Gamma,POW.FC5.Theta,POW.FC5.Alpha,POW.FC5.BetaL,POW.FC5.BetaH,POW.FC5.Gamma,POW.T7.Theta,POW.T7.Alpha,POW.T7.BetaL,POW.T7.BetaH,POW.T7.Gamma,POW.P7.Theta,POW.P7.Alpha,POW.P7.BetaL,POW.P7.BetaH,POW.P7.Gamma,POW.O1.Theta,POW.O1.Alpha,POW.O1.BetaL,POW.O1.BetaH,POW.O1.Gamma,POW.O2.Theta,POW.O2.Alpha,POW.O2.BetaL,POW.O2.BetaH,POW.O2.Gamma,POW.P8.Theta,POW.P8.Alpha,POW.P8.BetaL,POW.P8.BetaH,POW.P8.Gamma,POW.T8.Theta,POW.T8.Alpha,POW.T8.BetaL,POW.T8.BetaH,POW.T8.Gamma,POW.FC6.Theta,POW.FC6.Alpha,POW.FC6.BetaL,POW.FC6.BetaH,POW.FC6.Gamma,POW.F4.Theta,POW.F4.Alpha,POW.F4.BetaL,POW.F4.BetaH,POW.F4.Gamma,POW.F8.Theta,POW.F8.Alpha,POW.F8.BetaL,POW.F8.BetaH,POW.F8.Gamma,POW.AF4.Theta,POW.AF4.Alpha,POW.AF4.BetaL,POW.AF4.BetaH,POW.AF4.Gamma
1738755396.940517,1738755396.941047,112.000000,0.000000,4322.307617,4353.717773,4253.333496,4303.205078,4351.282227,4362.436035,4361.922852,4553.077148,4544.230957,4561.538574,4496.666504,5661.282227,4310.897461,4258.333496,0.000000,3.000000,74.000000,,,,0.000000,0.000000,0.000000,0.000000,0.000000,0.000000,0.000000,0.000000,0.000000,0.000000,0.000000,0.000000,0.000000,0.000000,0.000000,0.000000,,,,,,,,,,,,,,,,,28.000000,0.000000,0.785175,-0.615723,-0.061340,0.024963,0.058113,-0.967403,0.233915,4.526947,-14.992763,22.814268,,,,,,,,,,,,,,,,,,,,,,,,,,,,,,,,,,,,,,,,,,,,,,,,,,,,,,,,,,,,,,,,,,,,,,,,,,,,,,,,,,,,,,,,,,,,,,,,,,,,,
1738755396.948325,1738755396.948755,113.000000,0.000000,4321.025879,4352.948730,4255.128418,4302.051270,4354.743652,4362.051270,4363.333496,4552.563965,4543.205078,4559.871582,4498.461426,5661.794922,4306.410156,4256.922852,0.000000,3.000000,74.000000,,,,0.000000,0.000000,0.000000,0.000000,0.000000,0.000000,0.000000,0.000000,0.000000,0.000000,0.000000,0.000000,0.000000,0.000000,0.000000,0.000000,,,,,,,,,,,,,,,,,,,,,,,,,,,,,,,,,,,,,,,,,,,,,,,,,,,,,,,,,,,,,,,,,,,,,,,,,,,,,,,,,,,,,,,,,,,,,,,,,,,,,,,,,,,,,,,,,,,,,,,,,,,,,,,,,
1738755396.956133,1738755396.956563,114.000000,0.000000,4319.615234,4347.436035,4257.692383,4300.897461,4353.846191,4360.641113,4363.077148,4549.743652,4541.025879,4559.615234,4497.051270,5660.641113,4309.615234,4255.384766,0.000000,3.000000,74.000000,,,,0.000000,0.000000,0.000000,0.000000,0.000000,0.000000,0.000000,0.000000,0.000000,0.000000,0.000000,0.000000,0.000000,0.000000,0.000000,0.000000,,,,,,,,,,,,,,,,,,,,,,,,,,,,,,,,,,,,,,,,,,,,,,,,,,,,,,,,,,,,,,,,,,,,,,,,,,,,,,,,,,,,,,,,,,,,,,,,,,,,,,,,,,,,,,,,,,,,,,,,,,,,,,,,,
1738755396.963941,1738755396.964271,115.000000,0.000000,4322.563965,4346.025879,4257.563965,4301.922852,4350.000000,4358.846191,4365.641113,4549.487305,4542.179688,4561.538574,4495.000000,5662.948730,4307.563965,4255.897461,0.000000,3.000000,74.000000,,,,0.000000,0.000000,0.000000,0.000000,0.000000,0.000000,0.000000,0.000000,0.000000,0.000000,0.000000,0.000000,0.000000,0.000000,0.000000,0.000000,,,,,,,,,,,,,,,,,,,,,,,,,,,,,,,,,,,,,,,,,,,,,,,,,,,,,,,,,,,,,,,,,,,,,,,,,,,,,,,,,,,,,,,,,,,,,,,,,,,,,,,,,,,,,,,,,,,,,,,,,,,,,,,,,
1738755396.971750,1738755396.972079,116.000000,0.000000,4324.615234,4350.641113,4255.000000,4300.641113,4349.230957,4358.846191,4366.922852,4548.846191,4542.307617,4563.205078,4496.282227,5663.461426,4310.256348,4257.051270,0.000000,3.000000,74.000000,,,,0.000000,0.000000,0.000000,0.000000,0.000000,0.000000,0.000000,0.000000,0.000000,0.000000,0.000000,0.000000,0.000000,0.000000,0.000000,0.000000,,,,,,,,,,,,,,,,,29.000000,0.000000,0.785232,-0.615662,-0.061218,0.024963,0.058601,-0.981565,0.245635,4.574253,-15.026820,22.782841,,,,,,,,,,,,,,,,,,,,,,,,,,,,,,,,,,,,,,,,,,,,,,,,,,,,,,,,,,,,,,,,,,,,,,,,,,,,,,,,,,,,,,,,,,,,,,,,,,,,,
1738755396.979558,1738755396.979787,117.000000,0.000000,4323.461426,4351.410156,4256.410156,4301.153809,4352.179688,4359.871582,4364.615234,4551.025879,4538.077148,4562.307617,4495.128418,5664.743652,4313.461426,4253.589844,0.000000,3.000000,74.000000,,,,0.000000,0.000000,0.000000,0.000000,0.000000,0.000000,0.000000,0.000000,0.000000,0.000000,0.000000,0.000000,0.000000,0.000000,0.000000,0.000000,,,,,,,,,,,,,,,,,,,,,,,,,,,,,,,,,,,,,,,,,,,,,,,,,,,,,,,,,,,,,,,,,,,,,,,,,,,,,,,,,,,,,,,,,,,,,,,,,,,,,,,,,,,,,,,,,,,,,,,,,,,,,,,,,
1738755396.987366,1738755396.987595,118.000000,0.000000,4323.333496,4350.384766,4256.922852,4303.077148,4352.563965,4360.128418,4361.922852,4551.922852,4536.794922,4561.410156,4494.743652,5665.256348,4311.025879,4253.974121,0.000000,3.000000,74.000000,,,,0.000000,0.000000,0.000000,0.000000,0.000000,0.000000,0.000000,0.000000,0.000000,0.000000,0.000000,0.000000,0.000000,0.000000,0.000000,0.000000,,,,,,,,,,,,,,,,,,,,,,,,,,,,,,,,,,,,,,,,,,,,,,,,,,,,,,,,,,,,,,,,,,,,,,,,,,,,,,,,,,,,,,,,,,,,,,,,,,,,,,,,,,,,,,,,,,,,,,,,,,,,,,,,,
1738755396.995174,1738755396.995303,119.000000,0.000000,4325.128418,4352.179688,4254.102539,4301.794922,4350.000000,4361.794922,4363.077148,4548.846191,4539.230957,4561.410156,4496.153809,5661.794922,4311.410156,4260.256348,0.000000,3.000000,74.000000,,,,0.000000,0.000000,0.000000,0.000000,0.000000,0.000000,0.000000,0.000000,0.000000,0.000000,0.000000,0.000000,0.000000,0.000000,0.000000,0.000000,,,,,,,,,,,,,,,,,,,,,,,,,,,,,,,,,,,,,,,,,,,,,,,,,,,,,,,,,,,,,,,,,,,,,,,,,,,,,,,,,,,,,,,,,,,,,,,,,,,,,,,,,,,,,,,,,,,,,,,,,,,,,,,,,
1738755397.002982,1738755397.003111,120.000000,0.000000,4323.974121,4350.000000,4254.871582,4302.051270,4351.282227,4363.717773,4366.666504,4549.615234,4540.256348,4559.871582,4494.487305,5662.179688,4310.384766,4257.436035,0.000000,3.000000,74.000000,,,,0.000000,0.000000,0.000000,0.000000,0.000000,0.000000,0.000000,0.000000,0.000000,0.000000,0.000000,0.000000,0.000000,0.000000,0.000000,0.000000,,,,,,,,,,,,,,,,,30.000000,0.000000,0.785232,-0.615662,-0.061218,0.024963,0.058113,-0.968868,0.237334,4.533494,-15.057471,22.921225,,,,,,,,,,,,,,,,,,,,,,,,,,,,,,,,,,,,,,,,,,,,,,,,,,,,,,,,,,,,,,,,,,,,,,,,,,,,,,,,,,,,,,,,,,,,,,,,,,,,,
1738755397.010790,1738755397.010819,121.000000,0.000000,4319.615234,4349.230957,4255.641113,4301.025879,4354.615234,4361.538574,4365.128418,4551.025879,4540.256348,4559.615234,4495.897461,5664.615234,4311.794922,4253.717773,0.000000,3.000000,74.000000,,,,0.000000,0.000000,0.000000,0.000000,0.000000,0.000000,0.000000,0.000000,0.000000,0.000000,0.000000,0.000000,0.000000,0.000000,0.000000,0.000000,,,,,,,,,,,,,,,,,,,,,,,,,,,,,,,,,,,,,,,,,,,,,,,,,,,,,,,,,,,,,,,,,,,,,,,,,,,,,,,,,,,,,,,,,,,,,,,,,,,,,,,,,,,,,,,,,,,,,,,,,,,,,,,,,
1738755397.018598,1738755397.018727,122.000000,0.000000,4321.153809,4351.025879,4256.794922,4301.538574,4354.102539,4360.641113,4362.692383,4549.871582,4538.846191,4559.743652,4499.230957,5665.641113,4311.153809,4255.641113,0.000000,3.000000,74.000000,,,,0.000000,0.000000,0.000000,0.000000,0.000000,0.000000,0.000000,0.000000,0.000000,0.000000,0.000000,0.000000,0.000000,0.000000,0.000000,0.000000,,,,,,,,,,,,,,,,,,,,,,,,,,,,,,,,,,,,,,,,,,,,,,,,,,,,,,,,,,,,,,,,,,,,,,,,,,,,,,,,,,,,,,,,,,,,,,,,,,,,,,,,,,,,,,,,,,,,,,,,,,,,,,,,,
1738755397.026406,1738755397.026536,123.000000,0.000000,4323.974121,4350.769043,4256.922852,4304.615234,4350.769043,4362.051270,4364.230957,4549.743652,4538.846191,4559.871582,4496.922852,5663.205078,4307.563965,4255.641113,0.000000,3.000000,74.000000,,,,0.000000,0.000000,0.000000,0.000000,0.000000,0.000000,0.000000,0.000000,0.000000,0.000000,0.000000,0.000000,0.000000,0.000000,0.000000,0.000000,,,,,,,,,,,,,,,,,,,,,,,,,,,,,,,,,,,,,,,,,,,,,,,,,,,,,,,,,,,,,,,,,,,,,,,,,,,,,,,,,,,,,,,,,,,,,,,,,,,,,,,,,,,,,,,,,,,,,,,,,,,,,,,,,
1738755397.034214,1738755397.034444,124.000000,0.000000,4321.794922,4350.256348,4254.230957,4303.717773,4349.743652,4362.051270,4365.512695,4550.897461,4539.487305,4560.641113,4494.487305,5662.436035,4308.974121,4256.666504,0.000000,3.000000,74.000000,,,,0.000000,0.000000,0.000000,0.000000,0.000000,0.000000,0.000000,0.000000,0.000000,0.000000,0.000000,0.000000,0.000000,0.000000,0.000000,0.000000,,,,,,,,,,,,,,,,,31.000000,0.000000,0.785235,-0.615662,-0.061157,0.025024,0.067391,-0.967892,0.233427,4.646811,-15.151724,22.845768,,,,,,,,,,,,,,,,,,,,,,,,,,,,,,,,,,,,,,,,,,,,,,,,,,,,,,,,,,,,,,,,,,,,,,,,,,,,,,,,,,,,,,,,,,,,,,,,,,,,,
1738755397.042023,1738755397.042252,125.000000,0.000000,4321.794922,4350.897461,4255.128418,4300.897461,4350.384766,4361.025879,4367.563965,4550.769043,4538.333496,4560.897461,4494.358887,5666.922852,4308.846191,4256.025879,0.000000,3.000000,74.000000,,,,0.000000,0.000000,0.000000,0.000000,0.000000,0.000000,0.000000,0.000000,0.000000,0.000000,0.000000,0.000000,0.000000,0.000000,0.000000,0.000000,,,,,,,,,,,,,,,,,,,,,,,,,,,,,,,,,,,,,,,,,,,,,,,,,,,,,,,,,,,,,,,,,,,,,,,,,,,,,,,,,,,,,,,,,,,,,,,,,,,,,,,,,,,,,,,,,,,,,,,,,,,,,,,,,
1738755397.049831,1738755397.050060,126.000000,0.000000,4322.948730,4352.179688,4258.077148,4299.102539,4350.384766,4360.256348,4367.563965,4547.948730,4539.358887,4561.153809,4496.410156,5664.487305,4311.282227,4255.000000,0.000000,3.000000,74.000000,,,,0.000000,0.000000,0.000000,0.000000,0.000000,0.000000,0.000000,0.000000,0.000000,0.000000,0.000000,0.000000,0.000000,0.000000,0.000000,0.000000,,,,,,,,,,,,,,,,,,,,,,,,,,,,,,,,,,,,,,,,,,,,,,,,,,,,,,,,,,,,0.020751,0.015663,0.007671,0.013895,0.018890,0.022662,0.024549,0.020207,0.019391,0.016012,0.027863,0.023850,0.026234,0.019675,0.026786,0.016499,0.055361,0.013195,0.015822,0.023408,0.027966,0.012644,0.009832,0.015569,0.023837,0.023337,0.011365,0.020815,0.027665,0.018980,0.069281,0.095237,0.027569,0.025488,0.034013,0.021989,0.019632,0.017994,0.012075,0.017914,0.021868,0.017107,0.027780,0.014968,0.022278,0.020881,0.019455,0.019494,0.022829,0.024919,0.036285,0.029265,0.021703,0.027306,0.029702,0.014057,0.032436,0.026860,0.023145,0.034695,0.022093,0.006912,0.030518,0.026090,0.041584,0.026349,0.030326,0.032962,0.052071,0.025111
1738755397.057639,1738755397.057768,127.000000,0.000000,4324.230957,4351.410156,4255.512695,4300.641113,4352.820313,4361.153809,4365.769043,4549.615234,4541.282227,4560.897461,4497.563965,5660.641113,4310.000000,4255.128418,74.000000,3.000000,74.000000,,,,0.000000,0.000000,0.000000,0.000000,0.000000,0.000000,0.000000,0.000000,0.000000,0.000000,0.000000,0.000000,0.000000,0.000000,0.000000,0.000000,,,,,,,,,,,,,,,,,,,,,,,,,,,,,,,,,,,,,,,,,,,,,,,,,,,,,,,,,,,,,,,,,,,,,,,,,,,,,,,,,,,,,,,,,,,,,,,,,,,,,,,,,,,,,,,,,,,,,,,,,,,,,,,,,
1738755397.065447,1738755397.065676,0.000000,0.000000,4325.512695,4351.538574,4252.820313,4300.769043,4354.358887,4360.897461,4367.563965,4552.179688,4540.897461,4559.615234,4495.256348,5662.820313,4305.897461,4256.282227,0.000000,3.000000,74.000000,,,,0.000000,0.000000,0.000000,0.000000,0.000000,0.000000,0.000000,0.000000,0.000000,0.000000,0.000000,0.000000,0.000000,0.000000,0.000000,0.000000,,,,,,,,,,,,,,,,,0.000000,0.000000,0.785232,-0.615662,-0.061218,0.024963,0.059578,-0.970822,0.232450,4.532130,-15.286551,23.027859,,,,,,,,,,,,,,,,,,,,,,,,,,,,,,,,,,,,,,,,,,,,,,,,,,,,,,,,,,,,,,,,,,,,,,,,,,,,,,,,,,,,,,,,,,,,,,,,,,,,,
1738755397.073255,1738755397.073484,1.000000,0.000000,4323.974121,4352.307617,4257.307617,4301.794922,4351.538574,4358.589844,4367.179688,4549.871582,4542.820313,4560.641113,4492.948730,5661.282227,4310.641113,4259.487305,0.000000,3.000000,74.000000,,,,0.000000,0.000000,0.000000,0.000000,0.000000,0.000000,0.000000,0.000000,0.000000,0.000000,0.000000,0.000000,0.000000,0.000000,0.000000,0.000000,,,,,,,,,,,,,,,,,,,,,,,,,,,,,,,,,,,,,,,,,,,,,,,,,,,,,,,,,,,,,,,,,,,,,,,,,,,,,,,,,,,,,,,,,,,,,,,,,,,,,,,,,,,,,,,,,,,,,,,,,,,,,,,,,
1738755397.081063,1738755397.081393,2.000000,0.000000,4323.077148,4350.000000,4256.922852,4306.025879,4350.641113,4360.384766,4366.153809,4551.025879,4542.051270,4562.820313,4491.410156,5661.794922,4310.897461,4258.846191,0.000000,3.000000,74.000000,,,,0.000000,0.000000,0.000000,0.000000,0.000000,0.000000,0.000000,0.000000,0.000000,0.000000,0.000000,0.000000,0.000000,0.000000,0.000000,0.000000,,,,,,,,,,,,,,,,,,,,,,,,,,,,,,,,,,,,,,,,,,,,,,,,,,,,,,,,,,,,,,,,,,,,,,,,,,,,,,,,,,,,,,,,,,,,,,,,,,,,,,,,,,,,,,,,,,,,,,,,,,,,,,,,,
1738755397.088871,1738755397.089201,3.000000,0.000000,4322.692383,4349.487305,4250.512695,4304.871582,4351.794922,4362.563965,4364.230957,4553.461426,4538.974121,4562.692383,4495.128418,5664.615234,4310.641113,4257.692383,0.000000,3.000000,74.000000,,,,0.000000,0.000000,0.000000,0.000000,0.000000,0.000000,0.000000,0.000000,0.000000,0.000000,0.000000,0.000000,0.000000,0.000000,0.000000,0.000000,,,,,,,,,,,,,,,,,,,,,,,,,,,,,,,,,,,,,,,,,,,,,,,,,,,,,,,,,,,,,,,,,,,,,,,,,,,,,,,,,,,,,,,,,,,,,,,,,,,,,,,,,,,,,,,,,,,,,,,,,,,,,,,,,
1738755397.096679,1738755397.097109,4.000000,0.000000,4322.563965,4350.512695,4252.179688,4301.922852,4352.179688,4359.358887,4360.641113,4550.769043,4540.128418,4561.153809,4498.333496,5663.077148,4310.641113,4255.384766,0.000000,3.000000,74.000000,,,,0.000000,0.000000,0.000000,0.000000,0.000000,0.000000,0.000000,0.000000,0.000000,0.000000,0.000000,0.000000,0.000000,0.000000,0.000000,0.000000,,,,,,,,,,,,,,,,,1.000000,0.000000,0.785239,-0.615662,-0.061157,0.024902,0.062019,-0.963008,0.241729,4.412251,-15.207896,23.058405,,,,,,,,,,,,,,,,,,,,,,,,,,,,,,,,,,,,,,,,,,,,,,,,,,,,,,,,,,,,,,,,,,,,,,,,,,,,,,,,,,,,,,,,,,,,,,,,,,,,,
1738755397.104487,1738755397.104917,5.000000,0.000000,4323.077148,4350.000000,4252.820313,4301.922852,4353.205078,4358.461426,4361.025879,4549.743652,4541.410156,4561.153809,4494.487305,5663.974121,4307.692383,4251.410156,0.000000,3.000000,74.000000,,,,0.000000,0.000000,0.000000,0.000000,0.000000,0.000000,0.000000,0.000000,0.000000,0.000000,0.000000,0.000000,0.000000,0.000000,0.000000,0.000000,,,,,,,,,,,,,,,,,,,,,,,,,,,,,,,,,,,,,,,,,,,,,,,,,,,,,,,,,,,,,,,,,,,,,,,,,,,,,,,,,,,,,,,,,,,,,,,,,,,,,,,,,,,,,,,,,,,,,,,,,,,,,,,,,
1738755397.112296,1738755397.112825,6.000000,0.000000,4321.922852,4348.717773,4249.487305,4301.922852,4353.333496,4361.410156,4365.897461,4549.743652,4538.077148,4561.666504,4495.384766,5663.461426,4312.307617,4255.897461,0.000000,3.000000,74.000000,,,,0.000000,0.000000,0.000000,0.000000,0.000000,0.000000,0.000000,0.000000,0.000000,0.000000,0.000000,0.000000,0.000000,0.000000,0.000000,0.000000,,,,,,,,,,,,,,,,,,,,,,,,,,,,,,,,,,,,,,,,,,,,,,,,,,,,,,,,,,,,,,,,,,,,,,,,,,,,,,,,,,,,,,,,,,,,,,,,,,,,,,,,,,,,,,,,,,,,,,,,,,,,,,,,,
1738755397.120103,1738755397.120633,7.000000,0.000000,4323.077148,4350.384766,4253.589844,4303.077148,4351.282227,4361.666504,4369.358887,4548.589844,4537.179688,4560.512695,4500.641113,5662.948730,4313.846191,4259.358887,0.000000,3.000000,74.000000,,,,0.000000,0.000000,0.000000,0.000000,0.000000,0.000000,0.000000,0.000000,0.000000,0.000000,0.000000,0.000000,0.000000,0.000000,0.000000,0.000000,,,,,,,,,,,,,,,,,,,,,,,,,,,,,,,,,,,,,,,,,,,,,,,,,,,,,,,,,,,,,,,,,,,,,,,,,,,,,,,,,,,,,,,,,,,,,,,,,,,,,,,,,,,,,,,,,,,,,,,,,,,,,,,,,
1738755397.127912,1738755397.128342,8.000000,0.000000,4325.384766,4351.538574,4256.025879,4302.307617,4351.282227,4362.179688,4365.769043,4549.743652,4541.666504,4558.461426,4498.461426,5664.358887,4312.307617,4258.333496,0.000000,3.000000,74.000000,,,,0.000000,0.000000,0.000000,0.000000,0.000000,0.000000,0.000000,0.000000,0.000000,0.000000,0.000000,0.000000,0.000000,0.000000,0.000000,0.000000,,,,,,,,,,,,,,,,,2.000000,0.000000,0.785239,-0.615662,-0.061157,0.024902,0.065926,-0.983030,0.235869,4.304358,-15.170440,23.169231,,,,,,,,,,,,,,,,,,,,,,,,,,,,,,,,,,,,,,,,,,,,,,,,,,,,,,,,,,,,,,,,,,,,,,,,,,,,,,,,,,,,,,,,,,,,,,,,,,,,,
1738755397.135720,1738755397.136150,9.000000,0.000000,4323.846191,4350.897461,4252.948730,4300.641113,4352.948730,4362.820313,4364.743652,4550.384766,4540.897461,4559.487305,4493.846191,5662.948730,4311.794922,4257.820313,0.000000,3.000000,74.000000,,,,0.000000,0.000000,0.000000,0.000000,0.000000,0.000000,0.000000,0.000000,0.000000,0.000000,0.000000,0.000000,0.000000,0.000000,0.000000,0.000000,,,,,,,,,,,,,,,,,,,,,,,,,,,,,,,,,,,,,,,,,,,,,,,,,,,,,,,,,,,,,,,,,,,,,,,,,,,,,,,,,,,,,,,,,,,,,,,,,,,,,,,,,,,,,,,,,,,,,,,,,,,,,,,,,
1738755397.143528,1738755397.143858,10.000000,0.000000,4323.205078,4352.436035,4253.589844,4303.077148,4353.589844,4361.538574,4367.692383,4547.563965,4536.666504,4561.794922,4496.153809,5662.436035,4308.461426,4255.128418,0.000000,3.000000,74.000000,,,,0.000000,0.000000,0.000000,0.000000,0.000000,0.000000,0.000000,0.000000,0.000000,0.000000,0.000000,0.000000,0.000000,0.000000,0.000000,0.000000,,,,,,,,,,,,,,,,,,,,,,,,,,,,,,,,,,,,,,,,,,,,,,,,,,,,,,,,,,,,,,,,,,,,,,,,,,,,,,,,,,,,,,,,,,,,,,,,,,,,,,,,,,,,,,,,,,,,,,,,,,,,,,,,,
1738755397.151336,1738755397.151666,11.000000,0.000000,4323.205078,4353.974121,4253.333496,4303.717773,4352.051270,4360.384766,4365.897461,4548.333496,4540.128418,4558.717773,4498.974121,5664.102539,4310.000000,4253.077148,0.000000,3.000000,74.000000,,,,0.000000,0.000000,0.000000,0.000000,0.000000,0.000000,0.000000,0.000000,0.000000,0.000000,0.000000,0.000000,0.000000,0.000000,0.000000,0.000000,,,,,,,,,,,,,,,,,,,,,,,,,,,,,,,,,,,,,,,,,,,,,,,,,,,,,,,,,,,,,,,,,,,,,,,,,,,,,,,,,,,,,,,,,,,,,,,,,,,,,,,,,,,,,,,,,,,,,,,,,,,,,,,,,
1738755397.159144,1738755397.159374,12.000000,0.000000,4321.153809,4353.205078,4252.179688,4301.922852,4350.000000,4359.358887,4363.461426,4553.205078,4540.897461,4556.410156,4497.948730,5666.153809,4309.102539,4254.487305,0.000000,3.000000,74.000000,,,,0.000000,0.000000,0.000000,0.000000,0.000000,0.000000,0.000000,0.000000,0.000000,0.000000,0.000000,0.000000,0.000000,0.000000,0.000000,0.000000,,,,,,,,,,,,,,,,,3.000000,0.000000,0.785242,-0.615662,-0.061096,0.024963,0.062019,-0.974728,0.240264,4.373923,-15.236730,23.268974,,,,,,,,,,,,,,,,,,,,,,,,,,,,,,,,,,,,,,,,,,,,,,,,,,,,,,,,,,,,,,,,,,,,,,,,,,,,,,,,,,,,,,,,,,,,,,,,,,,,,
1738755397.166952,1738755397.167182,13.000000,0.000000,4320.000000,4352.179688,4256.282227,4301.922852,4352.948730,4358.846191,4363.077148,4551.922852,4536.282227,4560.641113,4497.820313,5663.077148,4309.230957,4258.846191,0.000000,3.000000,74.000000,,,,0.000000,0.000000,0.000000,0.000000,0.000000,0.000000,0.000000,0.000000,0.000000,0.000000,0.000000,0.000000,0.000000,0.000000,0.000000,0.000000,,,,,,,,,,,,,,,,,,,,,,,,,,,,,,,,,,,,,,,,,,,,,,,,,,,,,,,,,,,,,,,,,,,,,,,,,,,,,,,,,,,,,,,,,,,,,,,,,,,,,,,,,,,,,,,,,,,,,,,,,,,,,,,,,
1738755397.174760,1738755397.174890,14.000000,0.000000,4321.153809,4350.384766,4257.307617,4300.256348,4355.128418,4361.538574,4365.384766,4550.128418,4538.077148,4562.436035,4498.717773,5660.641113,4316.025879,4260.128418,0.000000,3.000000,74.000000,,,,0.000000,0.000000,0.000000,0.000000,0.000000,0.000000,0.000000,0.000000,0.000000,0.000000,0.000000,0.000000,0.000000,0.000000,0.000000,0.000000,,,,,,,,,,,,,,,,,,,,,,,,,,,,,,,,,,,,,,,,,,,,,,,,,,,,,,,,,,,,0.022465,0.020011,0.008602,0.013998,0.021262,0.024133,0.022198,0.017729,0.017309,0.017223,0.024788,0.021957,0.023152,0.020155,0.024272,0.016264,0.052904,0.013294,0.015347,0.023981,0.027730,0.010511,0.009565,0.012673,0.021200,0.024519,0.012842,0.017599,0.028581,0.016813,0.075760,0.080049,0.022370,0.022554,0.031946,0.021034,0.019948,0.019095,0.011783,0.015459,0.020879,0.016983,0.020601,0.013438,0.022898,0.016045,0.018838,0.018065,0.019025,0.024979,0.047030,0.030917,0.020630,0.027950,0.028082,0.012655,0.033675,0.028460,0.021889,0.035820,0.017094,0.007756,0.024212,0.022399,0.040584,0.028532,0.037956,0.030933,0.052075,0.023853
1738755397.182568,1738755397.182698,15.000000,0.000000,4322.948730,4349.358887,4253.333496,4298.205078,4352.436035,4361.538574,4369.230957,4554.358887,4541.922852,4557.563965,4498.077148,5664.230957,4314.102539,4254.743652,0.000000,3.000000,74.000000,,,,0.000000,0.000000,0.000000,0.000000,0.000000,0.000000,0.000000,0.000000,0.000000,0.000000,0.000000,0.000000,0.000000,0.000000,0.000000,0.000000,,,,,,,,,,,,,,,,,,,,,,,,,,,,,,,,,,,,,,,,,,,,,,,,,,,,,,,,,,,,,,,,,,,,,,,,,,,,,,,,,,,,,,,,,,,,,,,,,,,,,,,,,,,,,,,,,,,,,,,,,,,,,,,,,
1738755397.190376,1738755397.190406,16.000000,0.000000,4325.256348,4350.769043,4252.563965,4301.025879,4351.025879,4358.333496,4367.820313,4552.307617,4541.282227,4556.025879,4496.794922,5663.974121,4310.256348,4254.487305,0.000000,3.000000,74.000000,,,,0.000000,0.000000,0.000000,0.000000,0.000000,0.000000,0.000000,0.000000,0.000000,0.000000,0.000000,0.000000,0.000000,0.000000,0.000000,0.000000,,,,,,,,,,,,,,,,,4.000000,0.000000,0.785240,-0.615662,-0.061096,0.025024,0.072763,-0.975705,0.239287,4.386530,-15.329723,23.192078,,,,,,,,,,,,,,,,,,,,,,,,,,,,,,,,,,,,,,,,,,,,,,,,,,,,,,,,,,,,,,,,,,,,,,,,,,,,,,,,,,,,,,,,,,,,,,,,,,,,,
1738755397.198185,1738755397.198214,17.000000,0.000000,4326.410156,4350.384766,4255.000000,4305.512695,4351.282227,4360.000000,4364.230957,4549.743652,4538.974121,4559.615234,4494.358887,5663.333496,4310.641113,4256.538574,0.000000,3.000000,74.000000,,,,0.000000,0.000000,0.000000,0.000000,0.000000,0.000000,0.000000,0.000000,0.000000,0.000000,0.000000,0.000000,0.000000,0.000000,0.000000,0.000000,,,,,,,,,,,,,,,,,,,,,,,,,,,,,,,,,,,,,,,,,,,,,,,,,,,,,,,,,,,,,,,,,,,,,,,,,,,,,,,,,,,,,,,,,,,,,,,,,,,,,,,,,,,,,,,,,,,,,,,,,,,,,,,,,
1738755397.205993,1738755397.205922,18.000000,0.000000,4323.461426,4348.205078,4255.256348,4304.102539,4350.897461,4361.794922,4362.436035,4554.615234,4538.461426,4560.000000,4494.615234,5664.743652,4310.128418,4255.384766,0.000000,3.000000,74.000000,,,,0.000000,0.000000,0.000000,0.000000,0.000000,0.000000,0.000000,0.000000,0.000000,0.000000,0.000000,0.000000,0.000000,0.000000,0.000000,0.000000,,,,,,,,,,,,,,,,,,,,,,,,,,,,,,,,,,,,,,,,,,,,,,,,,,,,,,,,,,,,,,,,,,,,,,,,,,,,,,,,,,,,,,,,,,,,,,,,,,,,,,,,,,,,,,,,,,,,,,,,,,,,,,,,,
1738755397.213801,1738755397.213730,19.000000,0.000000,4321.025879,4348.205078,4253.077148,4299.615234,4351.794922,4360.128418,4363.077148,4553.717773,4542.820313,4558.333496,4498.461426,5663.589844,4311.282227,4257.051270,0.000000,3.000000,74.000000,,,,0.000000,0.000000,0.000000,0.000000,0.000000,0.000000,0.000000,0.000000,0.000000,0.000000,0.000000,0.000000,0.000000,0.000000,0.000000,0.000000,,,,,,,,,,,,,,,,,,,,,,,,,,,,,,,,,,,,,,,,,,,,,,,,,,,,,,,,,,,,,,,,,,,,,,,,,,,,,,,,,,,,,,,,,,,,,,,,,,,,,,,,,,,,,,,,,,,,,,,,,,,,,,,,,
1738755397.221609,1738755397.221438,20.000000,0.000000,4323.717773,4348.717773,4253.461426,4300.641113,4352.820313,4360.641113,4365.256348,4551.410156,4541.538574,4558.205078,4495.384766,5665.128418,4309.358887,4258.846191,0.000000,3.000000,74.000000,,,,0.000000,0.000000,0.000000,0.000000,0.000000,0.000000,0.000000,0.000000,0.000000,0.000000,0.000000,0.000000,0.000000,0.000000,0.000000,0.000000,,,,,,,,,,,,,,,,,5.000000,0.000000,0.785292,-0.615601,-0.061096,0.024902,0.074716,-0.974240,0.233915,4.281211,-15.413418,23.206203,,,,,,,,,,,,,,,,,,,,,,,,,,,,,,,,,,,,,,,,,,,,,,,,,,,,,,,,,,,,,,,,,,,,,,,,,,,,,,,,,,,,,,,,,,,,,,,,,,,,,
1738755397.229417,1738755397.229246,21.000000,0.000000,4325.128418,4349.615234,4254.871582,4302.307617,4351.794922,4360.897461,4363.205078,4553.461426,4536.410156,4560.128418,4492.436035,5667.307617,4310.641113,4259.102539,0.000000,3.000000,74.000000,,,,0.000000,0.000000,0.000000,0.000000,0.000000,0.000000,0.000000,0.000000,0.000000,0.000000,0.000000,0.000000,0.000000,0.000000,0.000000,0.000000,,,,,,,,,,,,,,,,,,,,,,,,,,,,,,,,,,,,,,,,,,,,,,,,,,,,,,,,,,,,,,,,,,,,,,,,,,,,,,,,,,,,,,,,,,,,,,,,,,,,,,,,,,,,,,,,,,,,,,,,,,,,,,,,,
1738755397.237225,1738755397.236954,22.000000,0.000000,4322.179688,4351.282227,4254.487305,4300.641113,4352.563965,4359.358887,4363.077148,4551.410156,4538.974121,4560.000000,4497.820313,5666.794922,4313.717773,4258.077148,0.000000,3.000000,74.000000,,,,0.000000,0.000000,0.000000,0.000000,0.000000,0.000000,0.000000,0.000000,0.000000,0.000000,0.000000,0.000000,0.000000,0.000000,0.000000,0.000000,,,,,,,,,,,,,,,,,,,,,,,,,,,,,,,,,,,,,,,,,,,,,,,,,,,,,,,,,,,,,,,,,,,,,,,,,,,,,,,,,,,,,,,,,,,,,,,,,,,,,,,,,,,,,,,,,,,,,,,,,,,,,,,,,
1738755397.245033,1738755397.244862,23.000000,0.000000,4320.769043,4350.512695,4254.615234,4299.102539,4353.205078,4360.000000,4367.436035,4548.461426,4541.410156,4557.563965,4501.282227,5666.410156,4310.641113,4256.153809,0.000000,3.000000,74.000000,,,,0.000000,0.000000,0.000000,0.000000,0.000000,0.000000,0.000000,0.000000,0.000000,0.000000,0.000000,0.000000,0.000000,0.000000,0.000000,0.000000,,,,,,,,,,,,,,,,,,,,,,,,,,,,,,,,,,,,,,,,,,,,,,,,,,,,,,,,,,,,,,,,,,,,,,,,,,,,,,,,,,,,,,,,,,,,,,,,,,,,,,,,,,,,,,,,,,,,,,,,,,,,,,,,,
1738755397.252841,1738755397.252671,24.000000,0.000000,4323.461426,4348.717773,4254.871582,4298.461426,4351.922852,4360.769043,4361.794922,4549.102539,4538.333496,4558.333496,4500.384766,5665.000000,4310.512695,4255.512695,0.000000,3.000000,74.000000,,,,0.000000,0.000000,0.000000,0.000000,0.000000,0.000000,0.000000,0.000000,0.000000,0.000000,0.000000,0.000000,0.000000,0.000000,0.000000,0.000000,,,,,,,,,,,,,,,,,6.000000,0.000000,0.785292,-0.615601,-0.061096,0.024902,0.070809,-0.967892,0.238799,4.353090,-15.572076,23.218916,,,,,,,,,,,,,,,,,,,,,,,,,,,,,,,,,,,,,,,,,,,,,,,,,,,,,,,,,,,,,,,,,,,,,,,,,,,,,,,,,,,,,,,,,,,,,,,,,,,,,
1738755397.260649,1738755397.260579,25.000000,0.000000,4324.615234,4349.102539,4254.230957,4302.820313,4352.563965,4359.358887,4361.153809,4552.563965,4537.820313,4560.512695,4498.717773,5665.641113,4309.487305,4255.512695,0.000000,3.000000,74.000000,,,,0.000000,0.000000,0.000000,0.000000,0.000000,0.000000,0.000000,0.000000,0.000000,0.000000,0.000000,0.000000,0.000000,0.000000,0.000000,0.000000,,,,,,,,,,,,,,,,,,,,,,,,,,,,,,,,,,,,,,,,,,,,,,,,,,,,,,,,,,,,,,,,,,,,,,,,,,,,,,,,,,,,,,,,,,,,,,,,,,,,,,,,,,,,,,,,,,,,,,,,,,,,,,,,,
1738755397.268458,1738755397.268387,26.000000,0.000000,4323.205078,4349.358887,4253.717773,4306.282227,4354.230957,4360.128418,4366.794922,4551.410156,4543.205078,4559.487305,4496.794922,5665.256348,4309.230957,4256.025879,0.000000,3.000000,74.000000,,,,0.000000,0.000000,0.000000,0.000000,0.000000,0.000000,0.000000,0.000000,0.000000,0.000000,0.000000,0.000000,0.000000,0.000000,0.000000,0.000000,,,,,,,,,,,,,,,,,,,,,,,,,,,,,,,,,,,,,,,,,,,,,,,,,,,,,,,,,,,,,,,,,,,,,,,,,,,,,,,,,,,,,,,,,,,,,,,,,,,,,,,,,,,,,,,,,,,,,,,,,,,,,,,,,
1738755397.276266,1738755397.276295,27.000000,0.000000,4324.615234,4349.230957,4253.589844,4301.794922,4353.461426,4360.641113,4365.897461,4548.974121,4542.051270,4556.666504,4494.743652,5662.948730,4310.128418,4253.333496,0.000000,3.000000,74.000000,,,,0.000000,0.000000,0.000000,0.000000,0.000000,0.000000,0.000000,0.000000,0.000000,0.000000,0.000000,0.000000,0.000000,0.000000,0.000000,0.000000,,,,,,,,,,,,,,,,,,,,,,,,,,,,,,,,,,,,,,,,,,,,,,,,,,,,,,,,,,,,,,,,,,,,,,,,,,,,,,,,,,,,,,,,,,,,,,,,,,,,,,,,,,,,,,,,,,,,,,,,,,,,,,,,,
1738755397.284074,1738755397.284103,28.000000,0.000000,4326.666504,4348.333496,4255.256348,4300.256348,4352.692383,4360.128418,4366.282227,4550.897461,4537.563965,4558.205078,4496.025879,5663.077148,4309.487305,4252.436035,0.000000,3.000000,74.000000,,,,0.000000,0.000000,0.000000,0.000000,0.000000,0.000000,0.000000,0.000000,0.000000,0.000000,0.000000,0.000000,0.000000,0.000000,0.000000,0.000000,,,,,,,,,,,,,,,,,7.000000,0.000000,0.785296,-0.615601,-0.061035,0.024902,0.073251,-0.962520,0.235869,4.351114,-15.614868,23.280357,,,,,,,,,,,,,,,,,,,,,,,,,,,,,,,,,,,,,,,,,,,,,,,,,,,,,,,,,,,,,,,,,,,,,,,,,,,,,,,,,,,,,,,,,,,,,,,,,,,,,
1738755397.291882,1738755397.292011,29.000000,0.000000,4322.436035,4349.358887,4256.282227,4302.563965,4352.820313,4360.512695,4365.512695,4551.794922,4539.358887,4560.641113,4500.256348,5661.794922,4314.230957,4256.410156,0.000000,3.000000,74.000000,,,,0.000000,0.000000,0.000000,0.000000,0.000000,0.000000,0.000000,0.000000,0.000000,0.000000,0.000000,0.000000,0.000000,0.000000,0.000000,0.000000,,,,,,,,,,,,,,,,,,,,,,,,,,,,,,,,,,,,,,,,,,,,,,,,,,,,,,,,,,,,,,,,,,,,,,,,,,,,,,,,,,,,,,,,,,,,,,,,,,,,,,,,,,,,,,,,,,,,,,,,,,,,,,,,,
1738755397.299690,1738755397.299820,30.000000,0.000000,4319.743652,4351.025879,4254.871582,4304.615234,4352.307617,4359.230957,4363.205078,4550.897461,4540.128418,4556.153809,4498.589844,5661.025879,4312.820313,4254.358887,0.000000,3.000000,74.000000,,,,0.000000,0.000000,0.000000,0.000000,0.000000,0.000000,0.000000,0.000000,0.000000,0.000000,0.000000,0.000000,0.000000,0.000000,0.000000,0.000000,1.000000,0.000000,0.000000,0.000000,0.000000,0.000000,0.000000,0.000000,0.000000,0.000000,0.000000,0.000000,0.000000,0.000000,0.000000,0.000000,,,,,,,,,,,,,,,,,,,,,,,,,,,,,,,,,,,,,,,,,,,,0.024022,0.025881,0.010865,0.016277,0.023762,0.023545,0.022229,0.016484,0.015554,0.018947,0.021282,0.020099,0.020606,0.020541,0.021576,0.017343,0.047112,0.014165,0.015807,0.023453,0.026553,0.010160,0.009663,0.012030,0.018889,0.025714,0.014891,0.015261,0.028682,0.015177,0.082608,0.064068,0.019474,0.019312,0.030559,0.019927,0.021321,0.022387,0.011733,0.014108,0.020800,0.018220,0.016078,0.012643,0.023913,0.012674,0.017599,0.016122,0.016577,0.024536,0.058438,0.031656,0.019503,0.027046,0.026562,0.012114,0.033307,0.031929,0.020622,0.034994,0.013379,0.009324,0.019156,0.022041,0.038795,0.030192,0.043909,0.028495,0.049386,0.021874
1738755397.307498,1738755397.307728,31.000000,0.000000,4322.436035,4350.641113,4253.717773,4302.563965,4351.794922,4358.461426,4363.974121,4548.974121,4539.102539,4554.487305,4494.230957,5661.922852,4311.410156,4251.538574,0.000000,3.000000,74.000000,,,,0.000000,0.000000,0.000000,0.000000,0.000000,0.000000,0.000000,0.000000,0.000000,0.000000,0.000000,0.000000,0.000000,0.000000,0.000000,0.000000,,,,,,,,,,,,,,,,,,,,,,,,,,,,,,,,,,,,,,,,,,,,,,,,,,,,,,,,,,,,,,,,,,,,,,,,,,,,,,,,,,,,,,,,,,,,,,,,,,,,,,,,,,,,,,,,,,,,,,,,,,,,,,,,,
1738755397.315306,1738755397.315536,32.000000,0.000000,4322.820313,4352.179688,4254.743652,4298.846191,4353.077148,4361.282227,4365.000000,4548.077148,4538.461426,4558.846191,4495.769043,5662.563965,4313.205078,4254.358887,0.000000,3.000000,74.000000,,,,0.000000,0.000000,0.000000,0.000000,0.000000,0.000000,0.000000,0.000000,0.000000,0.000000,0.000000,0.000000,0.000000,0.000000,0.000000,0.000000,,,,,,,,,,,,,,,,,8.000000,0.000000,0.785299,-0.615601,-0.060974,0.024963,0.057136,-0.973752,0.233915,4.249336,-15.636715,23.285656,,,,,,,,,,,,,,,,,,,,,,,,,,,,,,,,,,,,,,,,,,,,,,,,,,,,,,,,,,,,,,,,,,,,,,,,,,,,,,,,,,,,,,,,,,,,,,,,,,,,,
1738755397.323114,1738755397.323244,33.000000,0.000000,4322.307617,4352.179688,4254.615234,4301.410156,4353.333496,4362.179688,4364.487305,4549.487305,4537.692383,4558.589844,4498.589844,5665.384766,4309.230957,4256.922852,0.000000,3.000000,74.000000,,,,0.000000,0.000000,0.000000,0.000000,0.000000,0.000000,0.000000,0.000000,0.000000,0.000000,0.000000,0.000000,0.000000,0.000000,0.000000,0.000000,,,,,,,,,,,,,,,,,,,,,,,,,,,,,,,,,,,,,,,,,,,,,,,,,,,,,,,,,,,,,,,,,,,,,,,,,,,,,,,,,,,,,,,,,,,,,,,,,,,,,,,,,,,,,,,,,,,,,,,,,,,,,,,,,
1738755397.330922,1738755397.331052,34.000000,0.000000,4322.563965,4349.230957,4253.974121,4303.333496,4352.179688,4358.974121,4363.846191,4550.769043,4540.512695,4558.077148,4496.410156,5665.256348,4312.179688,4257.692383,0.000000,3.000000,74.000000,,,,0.000000,0.000000,0.000000,0.000000,0.000000,0.000000,0.000000,0.000000,0.000000,0.000000,0.000000,0.000000,0.000000,0.000000,0.000000,0.000000,,,,,,,,,,,,,,,,,,,,,,,,,,,,,,,,,,,,,,,,,,,,,,,,,,,,,,,,,,,,,,,,,,,,,,,,,,,,,,,,,,,,,,,,,,,,,,,,,,,,,,,,,,,,,,,,,,,,,,,,,,,,,,,,,
1738755397.338730,1738755397.338760,35.000000,0.000000,4321.922852,4348.461426,4254.615234,4303.333496,4353.077148,4358.846191,4365.384766,4550.897461,4543.077148,4561.153809,4492.820313,5663.717773,4313.205078,4255.384766,0.000000,3.000000,74.000000,,,,0.000000,0.000000,0.000000,0.000000,0.000000,0.000000,0.000000,0.000000,0.000000,0.000000,0.000000,0.000000,0.000000,0.000000,0.000000,0.000000,,,,,,,,,,,,,,,,,,,,,,,,,,,,,,,,,,,,,,,,,,,,,,,,,,,,,,,,,,,,,,,,,,,,,,,,,,,,,,,,,,,,,,,,,,,,,,,,,,,,,,,,,,,,,,,,,,,,,,,,,,,,,,,,,
1738755397.346538,1738755397.346568,36.000000,0.000000,4322.436035,4350.000000,4255.384766,4303.333496,4353.717773,4359.871582,4365.384766,4550.128418,4540.641113,4560.512695,4493.717773,5662.948730,4309.230957,4254.615234,0.000000,3.000000,74.000000,,,,0.000000,0.000000,0.000000,0.000000,0.000000,0.000000,0.000000,0.000000,0.000000,0.000000,0.000000,0.000000,0.000000,0.000000,0.000000,0.000000,,,,,,,,,,,,,,,,,9.000000,0.000000,0.785302,-0.615601,-0.060913,0.025024,0.076670,-0.976193,0.234404,4.274403,-15.556376,23.157089,,,,,,,,,,,,,,,,,,,,,,,,,,,,,,,,,,,,,,,,,,,,,,,,,,,,,,,,,,,,,,,,,,,,,,,,,,,,,,,,,,,,,,,,,,,,,,,,,,,,,
1738755397.354347,1738755397.354276,37.000000,0.000000,4323.846191,4350.641113,4255.128418,4302.692383,4353.333496,4357.436035,4366.538574,4550.000000,4538.589844,4559.102539,4497.179688,5661.666504,4310.000000,4256.922852,0.000000,3.000000,74.000000,,,,0.000000,0.000000,0.000000,0.000000,0.000000,0.000000,0.000000,0.000000,0.000000,0.000000,0.000000,0.000000,0.000000,0.000000,0.000000,0.000000,,,,,,,,,,,,,,,,,,,,,,,,,,,,,,,,,,,,,,,,,,,,,,,,,,,,,,,,,,,,,,,,,,,,,,,,,,,,,,,,,,,,,,,,,,,,,,,,,,,,,,,,,,,,,,,,,,,,,,,,,,,,,,,,,
1738755397.362155,1738755397.362084,38.000000,0.000000,4322.820313,4348.974121,4255.641113,4303.974121,4353.333496,4357.692383,4368.589844,4550.641113,4539.871582,4560.000000,4498.846191,5661.922852,4309.230957,4255.641113,0.000000,3.000000,74.000000,,,,0.000000,0.000000,0.000000,0.000000,0.000000,0.000000,0.000000,0.000000,0.000000,0.000000,0.000000,0.000000,0.000000,0.000000,0.000000,0.000000,,,,,,,,,,,,,,,,,,,,,,,,,,,,,,,,,,,,,,,,,,,,,,,,,,,,,,,,,,,,,,,,,,,,,,,,,,,,,,,,,,,,,,,,,,,,,,,,,,,,,,,,,,,,,,,,,,,,,,,,,,,,,,,,,
1738755397.369963,1738755397.369793,39.000000,0.000000,4322.051270,4349.871582,4254.871582,4304.615234,4352.563965,4360.512695,4366.410156,4550.384766,4540.000000,4559.871582,4496.410156,5659.487305,4310.512695,4257.307617,0.000000,3.000000,74.000000,,,,0.000000,0.000000,0.000000,0.000000,0.000000,0.000000,0.000000,0.000000,0.000000,0.000000,0.000000,0.000000,0.000000,0.000000,0.000000,0.000000,,,,,,,,,,,,,,,,,,,,,,,,,,,,,,,,,,,,,,,,,,,,,,,,,,,,,,,,,,,,,,,,,,,,,,,,,,,,,,,,,,,,,,,,,,,,,,,,,,,,,,,,,,,,,,,,,,,,,,,,,,,,,,,,,
1738755397.377771,1738755397.377600,40.000000,0.000000,4323.846191,4351.538574,4253.589844,4302.436035,4352.948730,4358.974121,4365.897461,4550.512695,4539.358887,4558.333496,4493.974121,5659.871582,4310.641113,4258.717773,0.000000,3.000000,74.000000,,,,0.000000,0.000000,0.000000,0.000000,0.000000,0.000000,0.000000,0.000000,0.000000,0.000000,0.000000,0.000000,0.000000,0.000000,0.000000,0.000000,,,,,,,,,,,,,,,,,10.000000,0.000000,0.785302,-0.615601,-0.060913,0.025024,0.059089,-0.978147,0.239775,4.463629,-15.484073,23.041380,,,,,,,,,,,,,,,,,,,,,,,,,,,,,,,,,,,,,,,,,,,,,,,,,,,,,,,,,,,,,,,,,,,,,,,,,,,,,,,,,,,,,,,,,,,,,,,,,,,,,
1738755397.385579,1738755397.385309,41.000000,0.000000,4323.077148,4349.487305,4254.743652,4300.256348,4355.641113,4357.692383,4367.692383,4549.615234,4541.282227,4557.820313,4496.794922,5664.615234,4307.436035,4254.743652,0.000000,3.000000,74.000000,,,,0.000000,0.000000,0.000000,0.000000,0.000000,0.000000,0.000000,0.000000,0.000000,0.000000,0.000000,0.000000,0.000000,0.000000,0.000000,0.000000,,,,,,,,,,,,,,,,,,,,,,,,,,,,,,,,,,,,,,,,,,,,,,,,,,,,,,,,,,,,,,,,,,,,,,,,,,,,,,,,,,,,,,,,,,,,,,,,,,,,,,,,,,,,,,,,,,,,,,,,,,,,,,,,,
1738755397.393387,1738755397.393117,42.000000,0.000000,4321.666504,4347.436035,4255.128418,4300.256348,4355.000000,4362.179688,4364.743652,4549.487305,4542.436035,4559.743652,4498.717773,5663.461426,4307.692383,4254.358887,0.000000,3.000000,74.000000,,,,0.000000,0.000000,0.000000,0.000000,0.000000,0.000000,0.000000,0.000000,0.000000,0.000000,0.000000,0.000000,0.000000,0.000000,0.000000,0.000000,,,,,,,,,,,,,,,,,,,,,,,,,,,,,,,,,,,,,,,,,,,,,,,,,,,,,,,,,,,,,,,,,,,,,,,,,,,,,,,,,,,,,,,,,,,,,,,,,,,,,,,,,,,,,,,,,,,,,,,,,,,,,,,,,
1738755397.401195,1738755397.400825,43.000000,0.000000,4323.205078,4348.077148,4254.102539,4301.794922,4352.563965,4365.000000,4362.307617,4552.692383,4538.333496,4561.153809,4496.666504,5660.512695,4308.333496,4255.256348,0.000000,3.000000,74.000000,,,,0.000000,0.000000,0.000000,0.000000,0.000000,0.000000,0.000000,0.000000,0.000000,0.000000,0.000000,0.000000,0.000000,0.000000,0.000000,0.000000,,,,,,,,,,,,,,,,,,,,,,,,,,,,,,,,,,,,,,,,,,,,,,,,,,,,,,,,,,,,,,,,,,,,,,,,,,,,,,,,,,,,,,,,,,,,,,,,,,,,,,,,,,,,,,,,,,,,,,,,,,,,,,,,,
1738755397.409003,1738755397.408633,44.000000,0.000000,4321.153809,4348.846191,4255.512695,4299.871582,4353.589844,4360.512695,4361.282227,4549.871582,4538.589844,4560.000000,4495.641113,5661.666504,4311.282227,4255.769043,0.000000,3.000000,74.000000,,,,0.000000,0.000000,0.000000,0.000000,0.000000,0.000000,0.000000,0.000000,0.000000,0.000000,0.000000,0.000000,0.000000,0.000000,0.000000,0.000000,,,,,,,,,,,,,,,,,11.000000,0.000000,0.785350,-0.615540,-0.060913,0.025024,0.067879,-0.975705,0.232450,4.500599,-15.485665,22.920576,,,,,,,,,,,,,,,,,,,,,,,,,,,,,,,,,,,,,,,,,,,,,,,,,,,,,,,,,,,,,,,,,,,,,,,,,,,,,,,,,,,,,,,,,,,,,,,,,,,,,
1738755397.416811,1738755397.416341,45.000000,0.000000,4318.846191,4346.410156,4257.820313,4301.410156,4354.615234,4357.051270,4362.179688,4546.410156,4540.897461,4558.461426,4496.538574,5664.487305,4313.461426,4256.538574,0.000000,3.000000,74.000000,,,,0.000000,0.000000,0.000000,0.000000,0.000000,0.000000,0.000000,0.000000,0.000000,0.000000,0.000000,0.000000,0.000000,0.000000,0.000000,0.000000,,,,,,,,,,,,,,,,,,,,,,,,,,,,,,,,,,,,,,,,,,,,,,,,,,,,,,,,,,,,,,,,,,,,,,,,,,,,,,,,,,,,,,,,,,,,,,,,,,,,,,,,,,,,,,,,,,,,,,,,,,,,,,,,,
1738755397.424620,1738755397.424149,46.000000,0.000000,4321.922852,4347.179688,4257.051270,4305.384766,4353.205078,4358.589844,4365.128418,4550.128418,4538.461426,4560.256348,4498.461426,5665.000000,4311.666504,4253.974121,0.000000,3.000000,74.000000,,,,0.000000,0.000000,0.000000,0.000000,0.000000,0.000000,0.000000,0.000000,0.000000,0.000000,0.000000,0.000000,0.000000,0.000000,0.000000,0.000000,,,,,,,,,,,,,,,,,,,,,,,,,,,,,,,,,,,,,,,,,,,,,,,,,,,,,,,,,,,,0.024787,0.031879,0.015430,0.020380,0.026000,0.021359,0.023004,0.015925,0.014581,0.020923,0.018485,0.019150,0.018926,0.020840,0.019560,0.019017,0.039835,0.015526,0.017786,0.021992,0.024227,0.010459,0.010099,0.013500,0.017583,0.027603,0.017418,0.013254,0.027211,0.014076,0.088956,0.049561,0.019066,0.016859,0.030288,0.018871,0.023694,0.026292,0.011935,0.013960,0.021348,0.020768,0.014541,0.012296,0.025387,0.010900,0.016123,0.014227,0.015472,0.023737,0.066987,0.031555,0.018453,0.025086,0.026030,0.011697,0.031298,0.035652,0.019392,0.032215,0.011446,0.011256,0.016131,0.024294,0.037264,0.031227,0.047645,0.027222,0.045439,0.019607
1738755397.432428,1738755397.431857,47.000000,0.000000,4322.307617,4352.820313,4255.384766,4301.282227,4353.589844,4359.743652,4364.487305,4549.358887,4539.487305,4563.077148,4497.948730,5660.897461,4313.461426,4252.179688,0.000000,3.000000,74.000000,,,,0.000000,0.000000,0.000000,0.000000,0.000000,0.000000,0.000000,0.000000,0.000000,0.000000,0.000000,0.000000,0.000000,0.000000,0.000000,0.000000,,,,,,,,,,,,,,,,,,,,,,,,,,,,,,,,,,,,,,,,,,,,,,,,,,,,,,,,,,,,,,,,,,,,,,,,,,,,,,,,,,,,,,,,,,,,,,,,,,,,,,,,,,,,,,,,,,,,,,,,,,,,,,,,,
1738755397.440236,1738755397.439765,48.000000,0.000000,4320.769043,4351.794922,4255.128418,4300.512695,4352.948730,4358.717773,4362.307617,4547.820313,4541.922852,4562.179688,4493.589844,5662.051270,4311.794922,4253.589844,0.000000,3.000000,74.000000,,,,0.000000,0.000000,0.000000,0.000000,0.000000,0.000000,0.000000,0.000000,0.000000,0.000000,0.000000,0.000000,0.000000,0.000000,0.000000,0.000000,,,,,,,,,,,,,,,,,12.000000,0.000000,0.785401,-0.615479,-0.060852,0.025085,0.077158,-0.978635,0.237334,4.450539,-15.403766,22.845184,,,,,,,,,,,,,,,,,,,,,,,,,,,,,,,,,,,,,,,,,,,,,,,,,,,,,,,,,,,,,,,,,,,,,,,,,,,,,,,,,,,,,,,,,,,,,,,,,,,,,
1738755397.448044,1738755397.447573,49.000000,0.000000,4323.717773,4348.589844,4254.102539,4303.461426,4351.153809,4360.000000,4362.563965,4548.846191,4541.794922,4561.025879,4494.487305,5664.358887,4309.743652,4259.102539,0.000000,3.000000,74.000000,,,,0.000000,0.000000,0.000000,0.000000,0.000000,0.000000,0.000000,0.000000,0.000000,0.000000,0.000000,0.000000,0.000000,0.000000,0.000000,0.000000,,,,,,,,,,,,,,,,,,,,,,,,,,,,,,,,,,,,,,,,,,,,,,,,,,,,,,,,,,,,,,,,,,,,,,,,,,,,,,,,,,,,,,,,,,,,,,,,,,,,,,,,,,,,,,,,,,,,,,,,,,,,,,,,,
1738755397.455852,1738755397.455481,50.000000,0.000000,4324.615234,4349.358887,4252.948730,4301.538574,4352.051270,4361.666504,4364.358887,4547.692383,4541.153809,4559.743652,4497.051270,5662.179688,4310.897461,4261.794922,0.000000,3.000000,74.000000,,,,0.000000,0.000000,0.000000,0.000000,0.000000,0.000000,0.000000,0.000000,0.000000,0.000000,0.000000,0.000000,0.000000,0.000000,0.000000,0.000000,,,,,,,,,,,,,,,,,,,,,,,,,,,,,,,,,,,,,,,,,,,,,,,,,,,,,,,,,,,,,,,,,,,,,,,,,,,,,,,,,,,,,,,,,,,,,,,,,,,,,,,,,,,,,,,,,,,,,,,,,,,,,,,,,
1738755397.463660,1738755397.463289,51.000000,0.000000,4321.538574,4350.128418,4253.974121,4301.410156,4352.563965,4361.025879,4364.615234,4548.974121,4539.615234,4558.461426,4495.256348,5665.128418,4309.230957,4257.307617,0.000000,3.000000,74.000000,,,,0.000000,0.000000,0.000000,0.000000,0.000000,0.000000,0.000000,0.000000,0.000000,0.000000,0.000000,0.000000,0.000000,0.000000,0.000000,0.000000,,,,,,,,,,,,,,,,,,,,,,,,,,,,,,,,,,,,,,,,,,,,,,,,,,,,,,,,,,,,,,,,,,,,,,,,,,,,,,,,,,,,,,,,,,,,,,,,,,,,,,,,,,,,,,,,,,,,,,,,,,,,,,,,,
1738755397.471468,1738755397.471197,52.000000,0.000000,4319.615234,4350.769043,4253.974121,4303.077148,4351.025879,4358.717773,4364.358887,4549.615234,4538.589844,4560.897461,4495.256348,5665.641113,4311.666504,4256.666504,0.000000,3.000000,74.000000,,,,0.000000,0.000000,0.000000,0.000000,0.000000,0.000000,0.000000,0.000000,0.000000,0.000000,0.000000,0.000000,0.000000,0.000000,0.000000,0.000000,,,,,,,,,,,,,,,,,13.000000,0.000000,0.785401,-0.615479,-0.060852,0.025085,0.063484,-0.974240,0.232939,4.372152,-15.480056,22.810667,,,,,,,,,,,,,,,,,,,,,,,,,,,,,,,,,,,,,,,,,,,,,,,,,,,,,,,,,,,,,,,,,,,,,,,,,,,,,,,,,,,,,,,,,,,,,,,,,,,,,
1738755397.479276,1738755397.479006,53.000000,0.000000,4320.769043,4350.000000,4253.589844,4303.205078,4352.436035,4357.948730,4364.871582,4548.974121,4541.025879,4562.820313,4495.128418,5662.436035,4310.641113,4258.717773,0.000000,3.000000,74.000000,,,,0.000000,0.000000,0.000000,0.000000,0.000000,0.000000,0.000000,0.000000,0.000000,0.000000,0.000000,0.000000,0.000000,0.000000,0.000000,0.000000,,,,,,,,,,,,,,,,,,,,,,,,,,,,,,,,,,,,,,,,,,,,,,,,,,,,,,,,,,,,,,,,,,,,,,,,,,,,,,,,,,,,,,,,,,,,,,,,,,,,,,,,,,,,,,,,,,,,,,,,,,,,,,,,,
1738755397.487084,1738755397.486914,54.000000,0.000000,4321.153809,4350.000000,4254.871582,4300.769043,4354.487305,4358.077148,4362.179688,4550.256348,4541.666504,4561.153809,4495.000000,5661.025879,4307.948730,4256.794922,0.000000,3.000000,74.000000,,,,0.000000,0.000000,0.000000,0.000000,0.000000,0.000000,0.000000,0.000000,0.000000,0.000000,0.000000,0.000000,0.000000,0.000000,0.000000,0.000000,,,,,,,,,,,,,,,,,,,,,,,,,,,,,,,,,,,,,,,,,,,,,,,,,,,,,,,,,,,,,,,,,,,,,,,,,,,,,,,,,,,,,,,,,,,,,,,,,,,,,,,,,,,,,,,,,,,,,,,,,,,,,,,,,
1738755397.494892,1738755397.494722,55.000000,0.000000,4320.641113,4351.666504,4256.025879,4301.153809,4355.128418,4358.205078,4362.307617,4551.282227,4539.230957,4559.871582,4497.820313,5662.948730,4312.307617,4254.358887,0.000000,3.000000,74.000000,,,,0.000000,0.000000,0.000000,0.000000,0.000000,0.000000,0.000000,0.000000,0.000000,0.000000,0.000000,0.000000,0.000000,0.000000,0.000000,0.000000,,,,,,,,,,,,,,,,,,,,,,,,,,,,,,,,,,,,,,,,,,,,,,,,,,,,,,,,,,,,,,,,,,,,,,,,,,,,,,,,,,,,,,,,,,,,,,,,,,,,,,,,,,,,,,,,,,,,,,,,,,,,,,,,,
1738755397.502700,1738755397.502630,56.000000,0.000000,4321.794922,4350.000000,4254.230957,4303.333496,4355.000000,4360.641113,4367.563965,4551.025879,4539.230957,4559.743652,4498.205078,5666.794922,4312.179688,4256.666504,0.000000,3.000000,74.000000,,,,0.000000,0.000000,0.000000,0.000000,0.000000,0.000000,0.000000,0.000000,0.000000,0.000000,0.000000,0.000000,0.000000,0.000000,0.000000,0.000000,,,,,,,,,,,,,,,,,14.000000,0.000000,0.785353,-0.615540,-0.060852,0.025085,0.059089,-0.974240,0.245147,4.351604,-15.282050,22.896267,,,,,,,,,,,,,,,,,,,,,,,,,,,,,,,,,,,,,,,,,,,,,,,,,,,,,,,,,,,,,,,,,,,,,,,,,,,,,,,,,,,,,,,,,,,,,,,,,,,,,
1738755397.510509,1738755397.510438,57.000000,0.000000,4320.769043,4348.846191,4251.922852,4303.589844,4353.077148,4361.922852,4366.794922,4548.846191,4539.102539,4559.871582,4495.512695,5662.307617,4314.102539,4261.025879,0.000000,3.000000,74.000000,,,,0.000000,0.000000,0.000000,0.000000,0.000000,0.000000,0.000000,0.000000,0.000000,0.000000,0.000000,0.000000,0.000000,0.000000,0.000000,0.000000,,,,,,,,,,,,,,,,,,,,,,,,,,,,,,,,,,,,,,,,,,,,,,,,,,,,,,,,,,,,,,,,,,,,,,,,,,,,,,,,,,,,,,,,,,,,,,,,,,,,,,,,,,,,,,,,,,,,,,,,,,,,,,,,,
1738755397.518317,1738755397.518146,58.000000,0.000000,4320.769043,4351.666504,4255.384766,4304.230957,4351.410156,4360.256348,4364.487305,4549.230957,4537.051270,4560.641113,4493.974121,5660.641113,4314.358887,4259.743652,0.000000,3.000000,74.000000,,,,0.000000,0.000000,0.000000,0.000000,0.000000,0.000000,0.000000,0.000000,0.000000,0.000000,0.000000,0.000000,0.000000,0.000000,0.000000,0.000000,,,,,,,,,,,,,,,,,,,,,,,,,,,,,,,,,,,,,,,,,,,,,,,,,,,,,,,,,,,,,,,,,,,,,,,,,,,,,,,,,,,,,,,,,,,,,,,,,,,,,,,,,,,,,,,,,,,,,,,,,,,,,,,,,
1738755397.526125,1738755397.525954,59.000000,0.000000,4322.436035,4353.205078,4255.384766,4304.871582,4351.922852,4361.794922,4367.820313,4548.974121,4535.512695,4561.153809,4495.000000,5666.794922,4311.666504,4258.974121,0.000000,3.000000,74.000000,,,,0.000000,0.000000,0.000000,0.000000,0.000000,0.000000,0.000000,0.000000,0.000000,0.000000,0.000000,0.000000,0.000000,0.000000,0.000000,0.000000,,,,,,,,,,,,,,,,,,,,,,,,,,,,,,,,,,,,,,,,,,,,,,,,,,,,,,,,,,,,,,,,,,,,,,,,,,,,,,,,,,,,,,,,,,,,,,,,,,,,,,,,,,,,,,,,,,,,,,,,,,,,,,,,,
1738755397.533933,1738755397.533662,60.000000,0.000000,4321.282227,4350.897461,4251.025879,4304.871582,4353.077148,4365.256348,4369.102539,4548.333496,4536.282227,4561.410156,4497.563965,5667.692383,4312.820313,4260.641113,0.000000,3.000000,74.000000,,,,0.000000,0.000000,0.000000,0.000000,0.000000,0.000000,0.000000,0.000000,0.000000,0.000000,0.000000,0.000000,0.000000,0.000000,0.000000,0.000000,,,,,,,,,,,,,,,,,15.000000,0.000000,0.785405,-0.615479,-0.060791,0.025085,0.080088,-0.984495,0.240264,4.316443,-15.270512,23.039974,,,,,,,,,,,,,,,,,,,,,,,,,,,,,,,,,,,,,,,,,,,,,,,,,,,,,,,,,,,,,,,,,,,,,,,,,,,,,,,,,,,,,,,,,,,,,,,,,,,,,
1738755397.541741,1738755397.541470,61.000000,0.000000,4319.871582,4349.487305,4254.358887,4305.000000,4352.179688,4363.205078,4367.179688,4550.897461,4536.666504,4561.025879,4497.436035,5665.000000,4308.846191,4255.769043,0.000000,3.000000,74.000000,,,,0.000000,0.000000,0.000000,0.000000,0.000000,0.000000,0.000000,0.000000,0.000000,0.000000,0.000000,0.000000,0.000000,0.000000,0.000000,0.000000,,,,,,,,,,,,,,,,,,,,,,,,,,,,,,,,,,,,,,,,,,,,,,,,,,,,,,,,,,,,,,,,,,,,,,,,,,,,,,,,,,,,,,,,,,,,,,,,,,,,,,,,,,,,,,,,,,,,,,,,,,,,,,,,,
1738755397.549549,1738755397.549178,62.000000,0.000000,4320.256348,4350.128418,4256.794922,4303.717773,4349.743652,4358.589844,4365.256348,4551.794922,4538.205078,4560.256348,4497.820313,5662.820313,4310.769043,4255.384766,0.000000,3.000000,74.000000,,,,0.000000,0.000000,0.000000,0.000000,0.000000,0.000000,0.000000,0.000000,0.000000,0.000000,0.000000,0.000000,0.000000,0.000000,0.000000,0.000000,,,,,,,,,,,,,,,,,,,,,,,,,,,,,,,,,,,,,,,,,,,,,,,,,,,,,,,,,,,,0.024146,0.036407,0.023028,0.025139,0.027671,0.018669,0.023359,0.015644,0.014653,0.022757,0.017331,0.019395,0.018131,0.020982,0.018816,0.020470,0.033081,0.017253,0.021136,0.020203,0.021116,0.010613,0.010647,0.016245,0.017491,0.030109,0.020307,0.011576,0.024102,0.013418,0.093181,0.037559,0.021861,0.016207,0.031052,0.018371,0.026528,0.028973,0.012411,0.014805,0.022173,0.023998,0.015475,0.012055,0.027336,0.010569,0.014764,0.012785,0.015131,0.022884,0.069838,0.030996,0.018201,0.022918,0.027192,0.011388,0.028560,0.038225,0.018205,0.028265,0.010952,0.013639,0.015005,0.027907,0.036416,0.032075,0.049345,0.027905,0.042493,0.017589
1738755397.557357,1738755397.556986,63.000000,0.000000,4323.077148,4348.589844,4252.436035,4302.692383,4352.051270,4360.512695,4367.051270,4550.769043,4539.487305,4558.461426,4499.487305,5662.563965,4314.743652,4258.333496,0.000000,3.000000,74.000000,,,,0.000000,0.000000,0.000000,0.000000,0.000000,0.000000,0.000000,0.000000,0.000000,0.000000,0.000000,0.000000,0.000000,0.000000,0.000000,0.000000,,,,,,,,,,,,,,,,,,,,,,,,,,,,,,,,,,,,,,,,,,,,,,,,,,,,,,,,,,,,,,,,,,,,,,,,,,,,,,,,,,,,,,,,,,,,,,,,,,,,,,,,,,,,,,,,,,,,,,,,,,,,,,,,,
1738755397.565165,1738755397.564694,64.000000,0.000000,4325.000000,4348.974121,4249.871582,4304.358887,4355.384766,4361.025879,4369.871582,4549.102539,4537.948730,4557.436035,4497.948730,5664.615234,4313.205078,4256.666504,0.000000,3.000000,74.000000,,,,0.000000,0.000000,0.000000,0.000000,0.000000,0.000000,0.000000,0.000000,0.000000,0.000000,0.000000,0.000000,0.000000,0.000000,0.000000,0.000000,,,,,,,,,,,,,,,,,16.000000,0.000000,0.785357,-0.615540,-0.060791,0.025085,0.061043,-0.977170,0.235380,4.318132,-15.210127,23.002644,,,,,,,,,,,,,,,,,,,,,,,,,,,,,,,,,,,,,,,,,,,,,,,,,,,,,,,,,,,,,,,,,,,,,,,,,,,,,,,,,,,,,,,,,,,,,,,,,,,,,
1738755397.572973,1738755397.572603,65.000000,0.000000,4322.179688,4352.307617,4253.589844,4304.871582,4352.179688,4357.948730,4368.717773,4548.717773,4537.692383,4560.000000,4495.384766,5664.358887,4311.282227,4257.820313,0.000000,3.000000,74.000000,,,,0.000000,0.000000,0.000000,0.000000,0.000000,0.000000,0.000000,0.000000,0.000000,0.000000,0.000000,0.000000,0.000000,0.000000,0.000000,0.000000,,,,,,,,,,,,,,,,,,,,,,,,,,,,,,,,,,,,,,,,,,,,,,,,,,,,,,,,,,,,,,,,,,,,,,,,,,,,,,,,,,,,,,,,,,,,,,,,,,,,,,,,,,,,,,,,,,,,,,,,,,,,,,,,,
1738755397.580782,1738755397.580411,66.000000,0.000000,4319.871582,4351.153809,4255.256348,4303.846191,4350.641113,4359.871582,4368.333496,4550.256348,4537.436035,4560.256348,4496.666504,5664.615234,4307.051270,4256.922852,0.000000,3.000000,74.000000,,,,0.000000,0.000000,0.000000,0.000000,0.000000,0.000000,0.000000,0.000000,0.000000,0.000000,0.000000,0.000000,0.000000,0.000000,0.000000,0.000000,,,,,,,,,,,,,,,,,,,,,,,,,,,,,,,,,,,,,,,,,,,,,,,,,,,,,,,,,,,,,,,,,,,,,,,,,,,,,,,,,,,,,,,,,,,,,,,,,,,,,,,,,,,,,,,,,,,,,,,,,,,,,,,,,
1738755397.588590,1738755397.588319,67.000000,0.000000,4320.769043,4348.846191,4251.410156,4302.820313,4354.615234,4361.153809,4366.794922,4549.615234,4538.589844,4557.179688,4501.153809,5664.487305,4310.769043,4253.717773,0.000000,3.000000,74.000000,,,,0.000000,0.000000,0.000000,0.000000,0.000000,0.000000,0.000000,0.000000,0.000000,0.000000,0.000000,0.000000,0.000000,0.000000,0.000000,0.000000,,,,,,,,,,,,,,,,,,,,,,,,,,,,,,,,,,,,,,,,,,,,,,,,,,,,,,,,,,,,,,,,,,,,,,,,,,,,,,,,,,,,,,,,,,,,,,,,,,,,,,,,,,,,,,,,,,,,,,,,,,,,,,,,,
1738755397.596398,1738755397.596127,68.000000,0.000000,4323.205078,4350.641113,4252.307617,4303.461426,4354.102539,4358.077148,4364.358887,4548.205078,4538.461426,4558.077148,4499.615234,5663.461426,4312.563965,4255.128418,0.000000,3.000000,74.000000,,,,0.000000,0.000000,0.000000,0.000000,0.000000,0.000000,0.000000,0.000000,0.000000,0.000000,0.000000,0.000000,0.000000,0.000000,0.000000,0.000000,,,,,,,,,,,,,,,,,17.000000,0.000000,0.785357,-0.615540,-0.060791,0.025085,0.064949,-0.972775,0.231962,4.386319,-15.222447,22.952379,,,,,,,,,,,,,,,,,,,,,,,,,,,,,,,,,,,,,,,,,,,,,,,,,,,,,,,,,,,,,,,,,,,,,,,,,,,,,,,,,,,,,,,,,,,,,,,,,,,,,
1738755397.604206,1738755397.604035,69.000000,0.000000,4324.871582,4351.153809,4255.384766,4304.358887,4351.666504,4356.538574,4365.384766,4551.410156,4535.384766,4560.769043,4493.333496,5663.333496,4308.077148,4257.179688,0.000000,3.000000,74.000000,,,,0.000000,0.000000,0.000000,0.000000,0.000000,0.000000,0.000000,0.000000,0.000000,0.000000,0.000000,0.000000,0.000000,0.000000,0.000000,0.000000,,,,,,,,,,,,,,,,,,,,,,,,,,,,,,,,,,,,,,,,,,,,,,,,,,,,,,,,,,,,,,,,,,,,,,,,,,,,,,,,,,,,,,,,,,,,,,,,,,,,,,,,,,,,,,,,,,,,,,,,,,,,,,,,,
1738755397.612014,1738755397.611843,70.000000,0.000000,4324.871582,4348.974121,4252.436035,4302.051270,4352.307617,4358.974121,4365.641113,4552.948730,4537.820313,4560.000000,4496.282227,5660.641113,4311.922852,4258.589844,0.000000,3.000000,74.000000,,,,0.000000,0.000000,0.000000,0.000000,0.000000,0.000000,0.000000,0.000000,0.000000,0.000000,0.000000,0.000000,0.000000,0.000000,0.000000,0.000000,,,,,,,,,,,,,,,,,,,,,,,,,,,,,,,,,,,,,,,,,,,,,,,,,,,,,,,,,,,,,,,,,,,,,,,,,,,,,,,,,,,,,,,,,,,,,,,,,,,,,,,,,,,,,,,,,,,,,,,,,,,,,,,,,
1738755397.619822,1738755397.619752,71.000000,0.000000,4323.974121,4350.256348,4251.410156,4303.461426,4353.205078,4361.794922,4367.051270,4552.307617,4538.846191,4558.077148,4499.743652,5661.410156,4315.256348,4256.025879,0.000000,3.000000,74.000000,,,,0.000000,0.000000,0.000000,0.000000,0.000000,0.000000,0.000000,0.000000,0.000000,0.000000,0.000000,0.000000,0.000000,0.000000,0.000000,0.000000,,,,,,,,,,,,,,,,,,,,,,,,,,,,,,,,,,,,,,,,,,,,,,,,,,,,,,,,,,,,,,,,,,,,,,,,,,,,,,,,,,,,,,,,,,,,,,,,,,,,,,,,,,,,,,,,,,,,,,,,,,,,,,,,,
1738755397.627630,1738755397.627560,72.000000,0.000000,4320.641113,4351.666504,4255.512695,4305.384766,4354.230957,4360.897461,4369.487305,4551.922852,4537.948730,4557.692383,4496.025879,5663.717773,4312.051270,4255.641113,0.000000,3.000000,74.000000,,,,0.000000,0.000000,0.000000,0.000000,0.000000,0.000000,0.000000,0.000000,0.000000,0.000000,0.000000,0.000000,0.000000,0.000000,0.000000,0.000000,,,,,,,,,,,,,,,,,18.000000,0.000000,0.785415,-0.615479,-0.060669,0.025085,0.063973,-0.973752,0.234892,4.514354,-15.083536,22.790474,,,,,,,,,,,,,,,,,,,,,,,,,,,,,,,,,,,,,,,,,,,,,,,,,,,,,,,,,,,,,,,,,,,,,,,,,,,,,,,,,,,,,,,,,,,,,,,,,,,,,
1738755397.635438,1738755397.635468,73.000000,0.000000,4317.820313,4349.615234,4255.256348,4301.410156,4354.102539,4360.384766,4368.205078,4550.512695,4540.512695,4556.922852,4495.256348,5663.461426,4309.230957,4257.436035,0.000000,3.000000,74.000000,,,,0.000000,0.000000,0.000000,0.000000,0.000000,0.000000,0.000000,0.000000,0.000000,0.000000,0.000000,0.000000,0.000000,0.000000,0.000000,0.000000,,,,,,,,,,,,,,,,,,,,,,,,,,,,,,,,,,,,,,,,,,,,,,,,,,,,,,,,,,,,,,,,,,,,,,,,,,,,,,,,,,,,,,,,,,,,,,,,,,,,,,,,,,,,,,,,,,,,,,,,,,,,,,,,,
1738755397.643246,1738755397.643276,74.000000,0.000000,4320.000000,4348.717773,4253.589844,4299.358887,4351.922852,4361.666504,4363.333496,4549.615234,4540.256348,4557.692383,4498.589844,5664.871582,4308.717773,4255.000000,0.000000,3.000000,74.000000,,,,0.000000,0.000000,0.000000,0.000000,0.000000,0.000000,0.000000,0.000000,0.000000,0.000000,0.000000,0.000000,0.000000,0.000000,0.000000,0.000000,,,,,,,,,,,,,,,,,,,,,,,,,,,,,,,,,,,,,,,,,,,,,,,,,,,,,,,,,,,,,,,,,,,,,,,,,,,,,,,,,,,,,,,,,,,,,,,,,,,,,,,,,,,,,,,,,,,,,,,,,,,,,,,,,
1738755397.651055,1738755397.651184,75.000000,0.000000,4323.077148,4350.128418,4255.000000,4302.179688,4351.153809,4360.897461,4360.769043,4549.230957,4538.077148,4560.000000,4499.487305,5662.820313,4312.563965,4254.743652,0.000000,3.000000,74.000000,,,,0.000000,0.000000,0.000000,0.000000,0.000000,0.000000,0.000000,0.000000,0.000000,0.000000,0.000000,0.000000,0.000000,0.000000,0.000000,0.000000,,,,,,,,,,,,,,,,,,,,,,,,,,,,,,,,,,,,,,,,,,,,,,,,,,,,,,,,,,,,,,,,,,,,,,,,,,,,,,,,,,,,,,,,,,,,,,,,,,,,,,,,,,,,,,,,,,,,,,,,,,,,,,,,,
1738755397.658862,1738755397.658992,76.000000,0.000000,4324.871582,4349.615234,4255.384766,4305.256348,4351.922852,4359.743652,4364.358887,4549.102539,4537.820313,4560.000000,4495.769043,5661.410156,4312.692383,4255.897461,0.000000,3.000000,74.000000,,,,0.000000,0.000000,0.000000,0.000000,0.000000,0.000000,0.000000,0.000000,0.000000,0.000000,0.000000,0.000000,0.000000,0.000000,0.000000,0.000000,,,,,,,,,,,,,,,,,19.000000,0.000000,0.785412,-0.615479,-0.060730,0.025024,0.062019,-0.972775,0.234892,4.396252,-15.058516,22.628094,,,,,,,,,,,,,,,,,,,,,,,,,,,,,,,,,,,,,,,,,,,,,,,,,,,,,,,,,,,,,,,,,,,,,,,,,,,,,,,,,,,,,,,,,,,,,,,,,,,,,
1738755397.666671,1738755397.666900,77.000000,0.000000,4323.333496,4348.333496,4256.282227,4303.333496,4353.077148,4362.436035,4364.871582,4549.102539,4537.820313,4558.717773,4496.666504,5663.846191,4309.230957,4255.769043,0.000000,3.000000,74.000000,,,,0.000000,0.000000,0.000000,0.000000,0.000000,0.000000,0.000000,0.000000,0.000000,0.000000,0.000000,0.000000,0.000000,0.000000,0.000000,0.000000,,,,,,,,,,,,,,,,,,,,,,,,,,,,,,,,,,,,,,,,,,,,,,,,,,,,,,,,,,,,,,,,,,,,,,,,,,,,,,,,,,,,,,,,,,,,,,,,,,,,,,,,,,,,,,,,,,,,,,,,,,,,,,,,,
1738755397.674479,1738755397.674709,78.000000,0.000000,4319.230957,4349.487305,4256.153809,4301.153809,4353.461426,4364.615234,4363.461426,4548.205078,4538.333496,4557.051270,4500.128418,5663.461426,4310.000000,4254.871582,0.000000,3.000000,74.000000,,,,0.000000,0.000000,0.000000,0.000000,0.000000,0.000000,0.000000,0.000000,0.000000,0.000000,0.000000,0.000000,0.000000,0.000000,0.000000,0.000000,,,,,,,,,,,,,,,,,,,,,,,,,,,,,,,,,,,,,,,,,,,,,,,,,,,,,,,,,,,,0.021884,0.037951,0.033209,0.028997,0.028498,0.016660,0.023086,0.015787,0.015721,0.024020,0.018056,0.020624,0.018057,0.020841,0.019282,0.021087,0.028267,0.019490,0.024903,0.018922,0.017773,0.010548,0.011015,0.019115,0.018304,0.032267,0.023169,0.010873,0.020095,0.013187,0.093755,0.028418,0.027825,0.017619,0.032316,0.018927,0.028880,0.029117,0.013088,0.016271,0.023107,0.027010,0.017795,0.011806,0.029602,0.011169,0.013914,0.011850,0.014791,0.022333,0.066656,0.030508,0.019279,0.021347,0.030176,0.011651,0.026582,0.039072,0.017055,0.024325,0.011377,0.016680,0.015051,0.031675,0.035860,0.033635,0.049475,0.030032,0.042319,0.016379
1738755397.682287,1738755397.682617,79.000000,0.000000,4319.358887,4350.000000,4252.307617,4305.128418,4352.436035,4361.922852,4366.666504,4549.487305,4538.589844,4557.051270,4497.051270,5660.769043,4311.153809,4255.000000,0.000000,3.000000,74.000000,,,,0.000000,0.000000,0.000000,0.000000,0.000000,0.000000,0.000000,0.000000,0.000000,0.000000,0.000000,0.000000,0.000000,0.000000,0.000000,0.000000,,,,,,,,,,,,,,,,,,,,,,,,,,,,,,,,,,,,,,,,,,,,,,,,,,,,,,,,,,,,,,,,,,,,,,,,,,,,,,,,,,,,,,,,,,,,,,,,,,,,,,,,,,,,,,,,,,,,,,,,,,,,,,,,,
1738755397.690095,1738755397.690425,80.000000,0.000000,4322.948730,4350.000000,4250.897461,4305.769043,4351.794922,4358.333496,4365.897461,4551.922852,4537.948730,4559.871582,4495.512695,5661.794922,4314.358887,4258.077148,0.000000,3.000000,74.000000,,,,0.000000,0.000000,0.000000,0.000000,0.000000,0.000000,0.000000,0.000000,0.000000,0.000000,0.000000,0.000000,0.000000,0.000000,0.000000,0.000000,,,,,,,,,,,,,,,,,20.000000,0.000000,0.785462,-0.615417,-0.060730,0.024963,0.063484,-0.974240,0.240264,4.373293,-14.869331,22.648617,,,,,,,,,,,,,,,,,,,,,,,,,,,,,,,,,,,,,,,,,,,,,,,,,,,,,,,,,,,,,,,,,,,,,,,,,,,,,,,,,,,,,,,,,,,,,,,,,,,,,
1738755397.697903,1738755397.698333,81.000000,0.000000,4324.230957,4350.000000,4254.743652,4305.256348,4352.563965,4358.974121,4365.384766,4553.333496,4537.563965,4560.256348,4499.487305,5663.077148,4313.589844,4258.846191,0.000000,3.000000,74.000000,,,,0.000000,0.000000,0.000000,0.000000,0.000000,0.000000,0.000000,0.000000,0.000000,0.000000,0.000000,0.000000,0.000000,0.000000,0.000000,0.000000,,,,,,,,,,,,,,,,,,,,,,,,,,,,,,,,,,,,,,,,,,,,,,,,,,,,,,,,,,,,,,,,,,,,,,,,,,,,,,,,,,,,,,,,,,,,,,,,,,,,,,,,,,,,,,,,,,,,,,,,,,,,,,,,,
1738755397.705711,1738755397.706141,82.000000,0.000000,4321.922852,4349.743652,4255.769043,4305.769043,4351.025879,4359.871582,4366.922852,4552.692383,4537.563965,4559.358887,4500.000000,5661.410156,4310.769043,4259.487305,0.000000,3.000000,74.000000,,,,0.000000,0.000000,0.000000,0.000000,0.000000,0.000000,0.000000,0.000000,0.000000,0.000000,0.000000,0.000000,0.000000,0.000000,0.000000,0.000000,,,,,,,,,,,,,,,,,,,,,,,,,,,,,,,,,,,,,,,,,,,,,,,,,,,,,,,,,,,,,,,,,,,,,,,,,,,,,,,,,,,,,,,,,,,,,,,,,,,,,,,,,,,,,,,,,,,,,,,,,,,,,,,,,
1738755397.713519,1738755397.713850,83.000000,0.000000,4322.179688,4350.256348,4253.846191,4303.205078,4349.358887,4358.717773,4365.512695,4549.102539,4535.769043,4561.666504,4495.384766,5662.307617,4315.000000,4259.102539,0.000000,3.000000,74.000000,,,,0.000000,0.000000,0.000000,0.000000,0.000000,0.000000,0.000000,0.000000,0.000000,0.000000,0.000000,0.000000,0.000000,0.000000,0.000000,0.000000,,,,,,,,,,,,,,,,,,,,,,,,,,,,,,,,,,,,,,,,,,,,,,,,,,,,,,,,,,,,,,,,,,,,,,,,,,,,,,,,,,,,,,,,,,,,,,,,,,,,,,,,,,,,,,,,,,,,,,,,,,,,,,,,,
1738755397.721327,1738755397.721758,84.000000,0.000000,4326.025879,4350.512695,4253.846191,4302.948730,4353.333496,4360.769043,4368.846191,4550.384766,4535.384766,4561.282227,4495.128418,5666.282227,4311.922852,4253.589844,0.000000,3.000000,74.000000,,,,0.000000,0.000000,0.000000,0.000000,0.000000,0.000000,0.000000,0.000000,0.000000,0.000000,0.000000,0.000000,0.000000,0.000000,0.000000,0.000000,,,,,,,,,,,,,,,,,21.000000,0.000000,0.785462,-0.615417,-0.060730,0.024963,0.061531,-0.979123,0.248565,4.385964,-14.832397,22.550423,,,,,,,,,,,,,,,,,,,,,,,,,,,,,,,,,,,,,,,,,,,,,,,,,,,,,,,,,,,,,,,,,,,,,,,,,,,,,,,,,,,,,,,,,,,,,,,,,,,,,
1738755397.729135,1738755397.729566,85.000000,0.000000,4325.256348,4351.922852,4252.436035,4304.358887,4356.922852,4363.974121,4367.948730,4550.769043,4538.333496,4558.846191,4498.589844,5663.461426,4308.205078,4255.128418,0.000000,3.000000,74.000000,,,,0.000000,0.000000,0.000000,0.000000,0.000000,0.000000,0.000000,0.000000,0.000000,0.000000,0.000000,0.000000,0.000000,0.000000,0.000000,0.000000,,,,,,,,,,,,,,,,,,,,,,,,,,,,,,,,,,,,,,,,,,,,,,,,,,,,,,,,,,,,,,,,,,,,,,,,,,,,,,,,,,,,,,,,,,,,,,,,,,,,,,,,,,,,,,,,,,,,,,,,,,,,,,,,,
1738755397.736944,1738755397.737374,86.000000,0.000000,4322.692383,4353.077148,4251.794922,4304.230957,4353.205078,4361.794922,4362.051270,4546.922852,4538.846191,4557.820313,4497.820313,5661.538574,4309.871582,4261.666504,0.000000,3.000000,74.000000,,,,0.000000,0.000000,0.000000,0.000000,0.000000,0.000000,0.000000,0.000000,0.000000,0.000000,0.000000,0.000000,0.000000,0.000000,0.000000,0.000000,,,,,,,,,,,,,,,,,,,,,,,,,,,,,,,,,,,,,,,,,,,,,,,,,,,,,,,,,,,,,,,,,,,,,,,,,,,,,,,,,,,,,,,,,,,,,,,,,,,,,,,,,,,,,,,,,,,,,,,,,,,,,,,,,
1738755397.744752,1738755397.745082,87.000000,0.000000,4323.974121,4351.153809,4255.000000,4303.333496,4349.230957,4359.230957,4365.384766,4548.846191,4537.948730,4556.666504,4494.615234,5665.384766,4310.256348,4259.743652,0.000000,3.000000,74.000000,,,,0.000000,0.000000,0.000000,0.000000,0.000000,0.000000,0.000000,0.000000,0.000000,0.000000,0.000000,0.000000,0.000000,0.000000,0.000000,0.000000,,,,,,,,,,,,,,,,,,,,,,,,,,,,,,,,,,,,,,,,,,,,,,,,,,,,,,,,,,,,,,,,,,,,,,,,,,,,,,,,,,,,,,,,,,,,,,,,,,,,,,,,,,,,,,,,,,,,,,,,,,,,,,,,,
1738755397.752560,1738755397.752890,88.000000,0.000000,4323.589844,4348.846191,4255.897461,4302.307617,4350.897461,4361.153809,4367.692383,4551.794922,4540.897461,4556.794922,4497.051270,5662.948730,4312.307617,4256.538574,0.000000,3.000000,74.000000,,,,0.000000,0.000000,0.000000,0.000000,0.000000,0.000000,0.000000,0.000000,0.000000,0.000000,0.000000,0.000000,0.000000,0.000000,0.000000,0.000000,,,,,,,,,,,,,,,,,22.000000,0.000000,0.785455,-0.615417,-0.060791,0.025024,0.070809,-0.981565,0.231962,4.347367,-14.732491,22.645380,,,,,,,,,,,,,,,,,,,,,,,,,,,,,,,,,,,,,,,,,,,,,,,,,,,,,,,,,,,,,,,,,,,,,,,,,,,,,,,,,,,,,,,,,,,,,,,,,,,,,
1738755397.760368,1738755397.760598,89.000000,0.000000,4321.025879,4349.230957,4253.717773,4301.922852,4352.563965,4363.205078,4362.948730,4551.025879,4542.179688,4556.922852,4499.358887,5659.743652,4310.256348,4254.743652,0.000000,3.000000,74.000000,,,,0.000000,0.000000,0.000000,0.000000,0.000000,0.000000,0.000000,0.000000,0.000000,0.000000,0.000000,0.000000,0.000000,0.000000,0.000000,0.000000,,,,,,,,,,,,,,,,,,,,,,,,,,,,,,,,,,,,,,,,,,,,,,,,,,,,,,,,,,,,,,,,,,,,,,,,,,,,,,,,,,,,,,,,,,,,,,,,,,,,,,,,,,,,,,,,,,,,,,,,,,,,,,,,,
1738755397.768176,1738755397.768406,90.000000,0.000000,4321.410156,4349.230957,4253.205078,4302.820313,4351.153809,4361.153809,4362.179688,4550.641113,4539.871582,4557.692383,4497.051270,5662.179688,4308.077148,4253.717773,0.000000,3.000000,74.000000,,,,0.000000,0.000000,0.000000,0.000000,0.000000,0.000000,0.000000,0.000000,0.000000,0.000000,0.000000,0.000000,0.000000,0.000000,0.000000,0.000000,,,,,,,,,,,,,,,,,,,,,,,,,,,,,,,,,,,,,,,,,,,,,,,,,,,,,,,,,,,,,,,,,,,,,,,,,,,,,,,,,,,,,,,,,,,,,,,,,,,,,,,,,,,,,,,,,,,,,,,,,,,,,,,,,
1738755397.775984,1738755397.776114,91.000000,0.000000,4323.461426,4349.102539,4253.717773,4305.512695,4351.794922,4357.436035,4364.615234,4552.563965,4539.743652,4560.512695,4497.436035,5665.128418,4311.410156,4255.384766,0.000000,3.000000,74.000000,,,,0.000000,0.000000,0.000000,0.000000,0.000000,0.000000,0.000000,0.000000,0.000000,0.000000,0.000000,0.000000,0.000000,0.000000,0.000000,0.000000,,,,,,,,,,,,,,,,,,,,,,,,,,,,,,,,,,,,,,,,,,,,,,,,,,,,,,,,,,,,,,,,,,,,,,,,,,,,,,,,,,,,,,,,,,,,,,,,,,,,,,,,,,,,,,,,,,,,,,,,,,,,,,,,,
1738755397.783792,1738755397.783922,92.000000,0.000000,4322.948730,4352.179688,4251.666504,4303.205078,4352.948730,4358.717773,4364.102539,4552.692383,4538.461426,4559.102539,4499.358887,5664.743652,4311.538574,4254.743652,0.000000,3.000000,74.000000,,,,0.000000,0.000000,0.000000,0.000000,0.000000,0.000000,0.000000,0.000000,0.000000,0.000000,0.000000,0.000000,0.000000,0.000000,0.000000,0.000000,,,,,,,,,,,,,,,,,23.000000,0.000000,0.785407,-0.615479,-0.060791,0.025024,0.060554,-0.966915,0.224148,4.312631,-14.942575,22.647509,,,,,,,,,,,,,,,,,,,,,,,,,,,,,,,,,,,,,,,,,,,,,,,,,,,,,,,,,,,,,,,,,,,,,,,,,,,,,,,,,,,,,,,,,,,,,,,,,,,,,
1738755397.791600,1738755397.791630,93.000000,0.000000,4320.897461,4353.846191,4251.153809,4300.384766,4351.410156,4361.538574,4365.384766,4550.769043,4536.666504,4557.948730,4497.948730,5662.436035,4311.153809,4254.487305,0.000000,3.000000,74.000000,,,,0.000000,0.000000,0.000000,0.000000,0.000000,0.000000,0.000000,0.000000,0.000000,0.000000,0.000000,0.000000,0.000000,0.000000,0.000000,0.000000,,,,,,,,,,,,,,,,,,,,,,,,,,,,,,,,,,,,,,,,,,,,,,,,,,,,,,,,,,,,,,,,,,,,,,,,,,,,,,,,,,,,,,,,,,,,,,,,,,,,,,,,,,,,,,,,,,,,,,,,,,,,,,,,,
1738755397.799408,1738755397.799438,94.000000,0.000000,4321.538574,4350.384766,4254.871582,4304.615234,4351.153809,4360.000000,4369.487305,4550.897461,4537.307617,4561.666504,4495.897461,5663.717773,4308.333496,4256.410156,0.000000,3.000000,74.000000,,,,0.000000,0.000000,0.000000,0.000000,0.000000,0.000000,0.000000,0.000000,0.000000,0.000000,0.000000,0.000000,0.000000,0.000000,0.000000,0.000000,1.000000,0.000000,0.000000,0.000000,0.000000,0.000000,0.000000,0.000000,0.000000,0.000000,0.000000,0.000000,0.000000,0.000000,0.000000,0.000000,,,,,,,,,,,,,,,,,,,,,,,,,,,,,,,,,,,,,,,,,,,,0.018332,0.035821,0.043898,0.030927,0.028301,0.016244,0.022368,0.016830,0.017352,0.024353,0.020091,0.022146,0.018203,0.020332,0.020467,0.020803,0.025658,0.022294,0.027672,0.018831,0.014613,0.010523,0.011129,0.021148,0.019377,0.033033,0.025526,0.011995,0.016348,0.013504,0.090539,0.022568,0.035652,0.020562,0.033404,0.020736,0.029778,0.026674,0.013757,0.017931,0.023984,0.028547,0.020044,0.011849,0.031814,0.012091,0.013792,0.011302,0.014085,0.022245,0.059259,0.030054,0.021656,0.020781,0.034371,0.012772,0.026438,0.038362,0.016021,0.021496,0.012327,0.020630,0.015957,0.034842,0.034774,0.036344,0.048116,0.032582,0.045372,0.016351
1738755397.807217,1738755397.807146,95.000000,0.000000,4324.358887,4348.589844,4256.025879,4307.307617,4353.589844,4357.436035,4366.025879,4550.641113,4539.871582,4562.051270,4496.794922,5661.282227,4306.410156,4257.436035,0.000000,3.000000,74.000000,,,,0.000000,0.000000,0.000000,0.000000,0.000000,0.000000,0.000000,0.000000,0.000000,0.000000,0.000000,0.000000,0.000000,0.000000,0.000000,0.000000,,,,,,,,,,,,,,,,,,,,,,,,,,,,,,,,,,,,,,,,,,,,,,,,,,,,,,,,,,,,,,,,,,,,,,,,,,,,,,,,,,,,,,,,,,,,,,,,,,,,,,,,,,,,,,,,,,,,,,,,,,,,,,,,,
1738755397.815025,1738755397.815054,96.000000,0.000000,4324.102539,4350.256348,4254.487305,4305.384766,4353.205078,4357.563965,4361.025879,4549.871582,4539.743652,4558.205078,4496.922852,5657.436035,4308.333496,4255.512695,0.000000,3.000000,74.000000,,,,0.000000,0.000000,0.000000,0.000000,0.000000,0.000000,0.000000,0.000000,0.000000,0.000000,0.000000,0.000000,0.000000,0.000000,0.000000,0.000000,,,,,,,,,,,,,,,,,24.000000,0.000000,0.785359,-0.615540,-0.060791,0.025024,0.062508,-0.980100,0.244659,4.381368,-14.981651,22.466091,,,,,,,,,,,,,,,,,,,,,,,,,,,,,,,,,,,,,,,,,,,,,,,,,,,,,,,,,,,,,,,,,,,,,,,,,,,,,,,,,,,,,,,,,,,,,,,,,,,,,
1738755397.822833,1738755397.822863,97.000000,0.000000,4321.153809,4351.410156,4255.897461,4307.051270,4350.512695,4358.589844,4363.974121,4550.128418,4537.179688,4560.769043,4495.641113,5661.410156,4306.153809,4253.589844,0.000000,3.000000,74.000000,,,,0.000000,0.000000,0.000000,0.000000,0.000000,0.000000,0.000000,0.000000,0.000000,0.000000,0.000000,0.000000,0.000000,0.000000,0.000000,0.000000,,,,,,,,,,,,,,,,,,,,,,,,,,,,,,,,,,,,,,,,,,,,,,,,,,,,,,,,,,,,,,,,,,,,,,,,,,,,,,,,,,,,,,,,,,,,,,,,,,,,,,,,,,,,,,,,,,,,,,,,,,,,,,,,,
1738755397.830641,1738755397.830771,98.000000,0.000000,4321.666504,4349.230957,4256.025879,4306.538574,4351.538574,4358.205078,4363.589844,4549.358887,4537.436035,4565.512695,4498.077148,5661.666504,4307.436035,4257.692383,0.000000,3.000000,74.000000,,,,0.000000,0.000000,0.000000,0.000000,0.000000,0.000000,0.000000,0.000000,0.000000,0.000000,0.000000,0.000000,0.000000,0.000000,0.000000,0.000000,,,,,,,,,,,,,,,,,,,,,,,,,,,,,,,,,,,,,,,,,,,,,,,,,,,,,,,,,,,,,,,,,,,,,,,,,,,,,,,,,,,,,,,,,,,,,,,,,,,,,,,,,,,,,,,,,,,,,,,,,,,,,,,,,
1738755397.838449,1738755397.838579,99.000000,0.000000,4325.256348,4345.769043,4253.077148,4301.794922,4353.974121,4359.871582,4360.897461,4549.102539,4537.307617,4562.948730,4498.846191,5660.256348,4308.333496,4258.461426,0.000000,3.000000,74.000000,,,,0.000000,0.000000,0.000000,0.000000,0.000000,0.000000,0.000000,0.000000,0.000000,0.000000,0.000000,0.000000,0.000000,0.000000,0.000000,0.000000,,,,,,,,,,,,,,,,,,,,,,,,,,,,,,,,,,,,,,,,,,,,,,,,,,,,,,,,,,,,,,,,,,,,,,,,,,,,,,,,,,,,,,,,,,,,,,,,,,,,,,,,,,,,,,,,,,,,,,,,,,,,,,,,,
1738755397.846257,1738755397.846487,100.000000,0.000000,4323.205078,4348.077148,4253.333496,4302.307617,4351.794922,4361.410156,4362.307617,4550.512695,4537.179688,4560.897461,4497.307617,5663.461426,4308.333496,4253.846191,0.000000,3.000000,74.000000,,,,0.000000,0.000000,0.000000,0.000000,0.000000,0.000000,0.000000,0.000000,0.000000,0.000000,0.000000,0.000000,0.000000,0.000000,0.000000,0.000000,,,,,,,,,,,,,,,,,25.000000,0.000000,0.785404,-0.615479,-0.060852,0.024963,0.063484,-0.973263,0.233427,4.459898,-15.083487,22.569483,,,,,,,,,,,,,,,,,,,,,,,,,,,,,,,,,,,,,,,,,,,,,,,,,,,,,,,,,,,,,,,,,,,,,,,,,,,,,,,,,,,,,,,,,,,,,,,,,,,,,
1738755397.854065,1738755397.854295,101.000000,0.000000,4318.333496,4352.051270,4255.641113,4303.717773,4348.461426,4359.102539,4365.256348,4551.666504,4538.333496,4561.666504,4496.410156,5662.179688,4310.384766,4254.871582,0.000000,3.000000,74.000000,,,,0.000000,0.000000,0.000000,0.000000,0.000000,0.000000,0.000000,0.000000,0.000000,0.000000,0.000000,0.000000,0.000000,0.000000,0.000000,0.000000,,,,,,,,,,,,,,,,,,,,,,,,,,,,,,,,,,,,,,,,,,,,,,,,,,,,,,,,,,,,,,,,,,,,,,,,,,,,,,,,,,,,,,,,,,,,,,,,,,,,,,,,,,,,,,,,,,,,,,,,,,,,,,,,,
1738755397.861873,1738755397.862203,102.000000,0.000000,4320.384766,4349.102539,4254.743652,4303.717773,4350.512695,4357.948730,4366.922852,4552.307617,4538.589844,4558.846191,4494.871582,5660.897461,4307.436035,4257.436035,0.000000,3.000000,74.000000,,,,0.000000,0.000000,0.000000,0.000000,0.000000,0.000000,0.000000,0.000000,0.000000,0.000000,0.000000,0.000000,0.000000,0.000000,0.000000,0.000000,,,,,,,,,,,,,,,,,,,,,,,,,,,,,,,,,,,,,,,,,,,,,,,,,,,,,,,,,,,,,,,,,,,,,,,,,,,,,,,,,,,,,,,,,,,,,,,,,,,,,,,,,,,,,,,,,,,,,,,,,,,,,,,,,
1738755397.869681,1738755397.870012,103.000000,0.000000,4322.948730,4350.897461,4254.230957,4303.461426,4354.358887,4358.717773,4363.333496,4550.000000,4540.641113,4558.205078,4494.743652,5662.307617,4310.384766,4255.000000,0.000000,3.000000,74.000000,,,,0.000000,0.000000,0.000000,0.000000,0.000000,0.000000,0.000000,0.000000,0.000000,0.000000,0.000000,0.000000,0.000000,0.000000,0.000000,0.000000,,,,,,,,,,,,,,,,,,,,,,,,,,,,,,,,,,,,,,,,,,,,,,,,,,,,,,,,,,,,,,,,,,,,,,,,,,,,,,,,,,,,,,,,,,,,,,,,,,,,,,,,,,,,,,,,,,,,,,,,,,,,,,,,,
1738755397.877489,1738755397.877920,104.000000,0.000000,4320.897461,4354.230957,4254.743652,4304.230957,4353.589844,4357.948730,4363.846191,4548.717773,4540.384766,4561.282227,4497.051270,5662.307617,4313.205078,4253.205078,0.000000,3.000000,74.000000,,,,0.000000,0.000000,0.000000,0.000000,0.000000,0.000000,0.000000,0.000000,0.000000,0.000000,0.000000,0.000000,0.000000,0.000000,0.000000,0.000000,,,,,,,,,,,,,,,,,26.000000,0.000000,0.785409,-0.615479,-0.060791,0.024963,0.061043,-0.980100,0.238799,4.513908,-15.025138,22.645866,,,,,,,,,,,,,,,,,,,,,,,,,,,,,,,,,,,,,,,,,,,,,,,,,,,,,,,,,,,,,,,,,,,,,,,,,,,,,,,,,,,,,,,,,,,,,,,,,,,,,
1738755397.885297,1738755397.885728,105.000000,0.000000,4321.282227,4350.641113,4254.487305,4306.153809,4351.025879,4356.410156,4367.051270,4551.025879,4537.307617,4559.230957,4498.717773,5661.666504,4311.666504,4257.692383,0.000000,3.000000,74.000000,,,,0.000000,0.000000,0.000000,0.000000,0.000000,0.000000,0.000000,0.000000,0.000000,0.000000,0.000000,0.000000,0.000000,0.000000,0.000000,0.000000,,,,,,,,,,,,,,,,,,,,,,,,,,,,,,,,,,,,,,,,,,,,,,,,,,,,,,,,,,,,,,,,,,,,,,,,,,,,,,,,,,,,,,,,,,,,,,,,,,,,,,,,,,,,,,,,,,,,,,,,,,,,,,,,,
1738755397.893106,1738755397.893636,106.000000,0.000000,4323.205078,4350.384766,4255.256348,4304.871582,4352.820313,4358.077148,4365.000000,4551.025879,4539.102539,4556.666504,4496.538574,5661.025879,4311.282227,4259.230957,0.000000,3.000000,74.000000,,,,0.000000,0.000000,0.000000,0.000000,0.000000,0.000000,0.000000,0.000000,0.000000,0.000000,0.000000,0.000000,0.000000,0.000000,0.000000,0.000000,,,,,,,,,,,,,,,,,,,,,,,,,,,,,,,,,,,,,,,,,,,,,,,,,,,,,,,,,,,,,,,,,,,,,,,,,,,,,,,,,,,,,,,,,,,,,,,,,,,,,,,,,,,,,,,,,,,,,,,,,,,,,,,,,
1738755397.900914,1738755397.901444,107.000000,0.000000,4322.436035,4351.410156,4256.153809,4304.230957,4353.846191,4360.384766,4365.128418,4549.871582,4541.794922,4559.743652,4494.615234,5663.461426,4309.871582,4252.820313,0.000000,3.000000,74.000000,,,,0.000000,0.000000,0.000000,0.000000,0.000000,0.000000,0.000000,0.000000,0.000000,0.000000,0.000000,0.000000,0.000000,0.000000,0.000000,0.000000,,,,,,,,,,,,,,,,,,,,,,,,,,,,,,,,,,,,,,,,,,,,,,,,,,,,,,,,,,,,,,,,,,,,,,,,,,,,,,,,,,,,,,,,,,,,,,,,,,,,,,,,,,,,,,,,,,,,,,,,,,,,,,,,,
1738755397.908722,1738755397.909152,108.000000,0.000000,4319.615234,4349.615234,4256.025879,4302.948730,4349.615234,4359.743652,4366.153809,4550.256348,4539.615234,4560.384766,4496.410156,5663.077148,4312.948730,4251.153809,0.000000,3.000000,74.000000,,,,0.000000,0.000000,0.000000,0.000000,0.000000,0.000000,0.000000,0.000000,0.000000,0.000000,0.000000,0.000000,0.000000,0.000000,0.000000,0.000000,,,,,,,,,,,,,,,,,27.000000,0.000000,0.785457,-0.615417,-0.060791,0.024963,0.071298,-0.975217,0.226590,4.412517,-15.172624,22.681280,,,,,,,,,,,,,,,,,,,,,,,,,,,,,,,,,,,,,,,,,,,,,,,,,,,,,,,,,,,,,,,,,,,,,,,,,,,,,,,,,,,,,,,,,,,,,,,,,,,,,
1738755397.916530,1738755397.916960,109.000000,0.000000,4321.282227,4350.512695,4257.179688,4302.307617,4349.487305,4357.563965,4363.077148,4553.589844,4538.077148,4559.102539,4496.025879,5664.871582,4312.820313,4253.205078,0.000000,3.000000,74.000000,,,,0.000000,0.000000,0.000000,0.000000,0.000000,0.000000,0.000000,0.000000,0.000000,0.000000,0.000000,0.000000,0.000000,0.000000,0.000000,0.000000,,,,,,,,,,,,,,,,,,,,,,,,,,,,,,,,,,,,,,,,,,,,,,,,,,,,,,,,,,,,,,,,,,,,,,,,,,,,,,,,,,,,,,,,,,,,,,,,,,,,,,,,,,,,,,,,,,,,,,,,,,,,,,,,,
1738755397.924338,1738755397.924668,110.000000,0.000000,4323.205078,4351.153809,4256.666504,4302.820313,4353.461426,4357.692383,4362.692383,4553.589844,4539.230957,4558.717773,4495.769043,5668.717773,4307.307617,4254.487305,0.000000,3.000000,74.000000,,,,0.000000,0.000000,0.000000,0.000000,0.000000,0.000000,0.000000,0.000000,0.000000,0.000000,0.000000,0.000000,0.000000,0.000000,0.000000,0.000000,,,,,,,,,,,,,,,,,,,,,,,,,,,,,,,,,,,,,,,,,,,,,,,,,,,,,,,,,,,,0.014451,0.030814,0.052128,0.031151,0.027084,0.017629,0.021428,0.018857,0.018863,0.023598,0.022194,0.023231,0.017831,0.019494,0.021853,0.020370,0.024665,0.025322,0.028292,0.020123,0.011883,0.010864,0.011027,0.021667,0.020055,0.032000,0.027497,0.015213,0.013958,0.014539,0.085099,0.020770,0.043279,0.024347,0.033844,0.023108,0.028808,0.023199,0.014076,0.019372,0.024747,0.027844,0.021415,0.012586,0.033431,0.012827,0.014531,0.010887,0.013319,0.022507,0.050246,0.029155,0.024541,0.021211,0.038813,0.014694,0.028181,0.036701,0.015278,0.020397,0.013896,0.025354,0.017608,0.036993,0.032604,0.040081,0.045413,0.034351,0.050581,0.017426
1738755397.932146,1738755397.932476,111.000000,0.000000,4321.538574,4350.512695,4253.589844,4301.282227,4352.692383,4359.615234,4366.922852,4548.333496,4540.512695,4556.666504,4497.948730,5662.436035,4309.102539,4257.820313,0.000000,3.000000,74.000000,,,,0.000000,0.000000,0.000000,0.000000,0.000000,0.000000,0.000000,0.000000,0.000000,0.000000,0.000000,0.000000,0.000000,0.000000,0.000000,0.000000,,,,,,,,,,,,,,,,,,,,,,,,,,,,,,,,,,,,,,,,,,,,,,,,,,,,,,,,,,,,,,,,,,,,,,,,,,,,,,,,,,,,,,,,,,,,,,,,,,,,,,,,,,,,,,,,,,,,,,,,,,,,,,,,,
1738755397.939954,1738755397.940184,112.000000,0.000000,4320.897461,4350.256348,4255.897461,4303.846191,4350.512695,4360.000000,4367.051270,4549.487305,4538.717773,4556.794922,4497.563965,5659.743652,4306.666504,4256.153809,0.000000,3.000000,74.000000,,,,0.000000,0.000000,0.000000,0.000000,0.000000,0.000000,0.000000,0.000000,0.000000,0.000000,0.000000,0.000000,0.000000,0.000000,0.000000,0.000000,,,,,,,,,,,,,,,,,28.000000,0.000000,0.785500,-0.615356,-0.060852,0.024963,0.073739,-0.974240,0.234892,4.537932,-15.172029,22.596485,,,,,,,,,,,,,,,,,,,,,,,,,,,,,,,,,,,,,,,,,,,,,,,,,,,,,,,,,,,,,,,,,,,,,,,,,,,,,,,,,,,,,,,,,,,,,,,,,,,,,
1738755397.947762,1738755397.947992,113.000000,0.000000,4319.615234,4350.769043,4258.077148,4305.769043,4351.153809,4360.128418,4364.871582,4550.897461,4537.948730,4560.897461,4496.666504,5663.846191,4306.153809,4253.205078,0.000000,3.000000,74.000000,,,,0.000000,0.000000,0.000000,0.000000,0.000000,0.000000,0.000000,0.000000,0.000000,0.000000,0.000000,0.000000,0.000000,0.000000,0.000000,0.000000,,,,,,,,,,,,,,,,,,,,,,,,,,,,,,,,,,,,,,,,,,,,,,,,,,,,,,,,,,,,,,,,,,,,,,,,,,,,,,,,,,,,,,,,,,,,,,,,,,,,,,,,,,,,,,,,,,,,,,,,,,,,,,,,,
1738755397.955570,1738755397.955700,114.000000,0.000000,4318.077148,4350.769043,4255.256348,4303.589844,4352.179688,4361.153809,4365.512695,4547.563965,4539.102539,4561.410156,4496.282227,5663.974121,4312.179688,4256.794922,0.000000,3.000000,74.000000,,,,0.000000,0.000000,0.000000,0.000000,0.000000,0.000000,0.000000,0.000000,0.000000,0.000000,0.000000,0.000000,0.000000,0.000000,0.000000,0.000000,,,,,,,,,,,,,,,,,,,,,,,,,,,,,,,,,,,,,,,,,,,,,,,,,,,,,,,,,,,,,,,,,,,,,,,,,,,,,,,,,,,,,,,,,,,,,,,,,,,,,,,,,,,,,,,,,,,,,,,,,,,,,,,,,
1738755397.963379,1738755397.963508,115.000000,0.000000,4320.897461,4351.153809,4253.077148,4301.153809,4352.179688,4359.230957,4365.641113,4547.820313,4538.461426,4560.256348,4496.153809,5662.820313,4308.205078,4258.461426,0.000000,3.000000,74.000000,,,,0.000000,0.000000,0.000000,0.000000,0.000000,0.000000,0.000000,0.000000,0.000000,0.000000,0.000000,0.000000,0.000000,0.000000,0.000000,0.000000,,,,,,,,,,,,,,,,,,,,,,,,,,,,,,,,,,,,,,,,,,,,,,,,,,,,,,,,,,,,,,,,,,,,,,,,,,,,,,,,,,,,,,,,,,,,,,,,,,,,,,,,,,,,,,,,,,,,,,,,,,,,,,,,,
1738755397.971187,1738755397.971216,116.000000,0.000000,4321.922852,4351.153809,4252.563965,4299.102539,4350.512695,4358.717773,4365.000000,4548.205078,4537.948730,4562.820313,4497.692383,5660.128418,4309.102539,4257.820313,0.000000,3.000000,74.000000,,,,0.000000,0.000000,0.000000,0.000000,0.000000,0.000000,0.000000,0.000000,0.000000,0.000000,0.000000,0.000000,0.000000,0.000000,0.000000,0.000000,,,,,,,,,,,,,,,,,,,,,,,,,,,,,,,,,,,,,,,,,,,,,,,,,,,,,,,,,,,,,,,,,,,,,,,,,,,,,,,,,,,,,,,,,,,,,,,,,,,,,,,,,,,,,,,,,,,,,,,,,,,,,,,,,
1738755397.978995,1738755397.979024,117.000000,0.000000,4320.897461,4349.487305,4254.358887,4301.410156,4349.615234,4360.256348,4366.153809,4548.974121,4539.102539,4563.717773,4497.820313,5659.358887,4311.666504,4255.769043,0.000000,3.000000,74.000000,,,,0.000000,0.000000,0.000000,0.000000,0.000000,0.000000,0.000000,0.000000,0.000000,0.000000,0.000000,0.000000,0.000000,0.000000,0.000000,0.000000,,,,,,,,,,,,,,,,,,,,,,,,,,,,,,,,,,,,,,,,,,,,,,,,,,,,,,,,,,,,,,,,,,,,,,,,,,,,,,,,,,,,,,,,,,,,,,,,,,,,,,,,,,,,,,,,,,,,,,,,,,,,,,,,,
