title:bread1, start timestamp:1738746912.954474, stop timestamp:1738746914.008750, headset type:EPOCX, headset serial:E50208A5, headset firmware:720, channels:168, sampling rate:eeg_128;mot_32;pm_0.1;pow_8, samples:136       , version:2.2, 
Timestamp,EEG.Counter,EEG.Interpolated,EEG.AF3,EEG.F7,EEG.F3,EEG.FC5,EEG.T7,EEG.P7,EEG.O1,EEG.O2,EEG.P8,EEG.T8,EEG.FC6,EEG.F4,EEG.F8,EEG.AF4,EEG.RawCq,EEG.Battery,EEG.BatteryPercent,MarkerIndex,MarkerType,MarkerValueInt,EEG.MarkerHardware,CQ.AF3,CQ.F7,CQ.F3,CQ.FC5,CQ.T7,CQ.P7,CQ.O1,CQ.O2,CQ.P8,CQ.T8,CQ.FC6,CQ.F4,CQ.F8,CQ.AF4,CQ.Overall,EQ.SampleRateQuality,EQ.OVERALL,EQ.AF3,EQ.F7,EQ.F3,EQ.FC5,EQ.T7,EQ.P7,EQ.O1,EQ.O2,EQ.P8,EQ.T8,EQ.FC6,EQ.F4,EQ.F8,EQ.AF4,MOT.CounterMems,MOT.InterpolatedMems,MOT.Q0,MOT.Q1,MOT.Q2,MOT.Q3,MOT.AccX,MOT.AccY,MOT.AccZ,MOT.MagX,MOT.MagY,MOT.MagZ,PM.Attention.IsActive,PM.Attention.Scaled,PM.Attention.Raw,PM.Attention.Min,PM.Attention.Max,PM.Engagement.IsActive,PM.Engagement.Scaled,PM.Engagement.Raw,PM.Engagement.Min,PM.Engagement.Max,PM.Excitement.IsActive,PM.Excitement.Scaled,PM.Excitement.Raw,PM.Excitement.Min,PM.Excitement.Max,PM.LongTermExcitement,PM.Stress.IsActive,PM.Stress.Scaled,PM.Stress.Raw,PM.Stress.Min,PM.Stress.Max,PM.Relaxation.IsActive,PM.Relaxation.Scaled,PM.Relaxation.Raw,PM.Relaxation.Min,PM.Relaxation.Max,PM.Interest.IsActive,PM.Interest.Scaled,PM.Interest.Raw,PM.Interest.Min,PM.Interest.Max,POW.AF3.Theta,POW.AF3.Alpha,POW.AF3.BetaL,POW.AF3.BetaH,POW.AF3.Gamma,POW.F7.Theta,POW.F7.Alpha,POW.F7.BetaL,POW.F7.BetaH,POW.F7.Gamma,POW.F3.Theta,POW.F3.Alpha,POW.F3.BetaL,POW.F3.BetaH,POW.F3.Gamma,POW.FC5.Theta,POW.FC5.Alpha,POW.FC5.BetaL,POW.FC5.BetaH,POW.FC5.Gamma,POW.T7.Theta,POW.T7.Alpha,POW.T7.BetaL,POW.T7.BetaH,POW.T7.Gamma,POW.P7.Theta,POW.P7.Alpha,POW.P7.BetaL,POW.P7.BetaH,POW.P7.Gamma,POW.O1.Theta,POW.O1.Alpha,POW.O1.BetaL,POW.O1.BetaH,POW.O1.Gamma,POW.O2.Theta,POW.O2.Alpha,POW.O2.BetaL,POW.O2.BetaH,POW.O2.Gamma,POW.P8.Theta,POW.P8.Alpha,POW.P8.BetaL,POW.P8.BetaH,POW.P8.Gamma,POW.T8.Theta,POW.T8.Alpha,POW.T8.BetaL,POW.T8.BetaH,POW.T8.Gamma,POW.FC6.Theta,POW.FC6.Alpha,POW.FC6.BetaL,POW.FC6.BetaH,POW.FC6.Gamma,POW.F4.Theta,POW.F4.Alpha,POW.F4.BetaL,POW.F4.BetaH,POW.F4.Gamma,POW.F8.Theta,POW.F8.Alpha,POW.F8.BetaL,POW.F8.BetaH,POW.F8.Gamma,POW.AF4.Theta,POW.AF4.Alpha,POW.AF4.BetaL,POW.AF4.BetaH,POW.AF4.Gamma
1738746912.954474,101.000000,0.000000,4231.153809,4272.307617,4215.000000,4247.179688,4283.974121,4293.461426,4291.282227,4216.666504,4136.410156,4010.641113,4194.615234,3053.974365,4378.333496,4423.205078,0.000000,1.000000,30.000000,,,,0.000000,0.000000,0.000000,0.000000,0.000000,0.000000,0.000000,0.000000,0.000000,0.000000,0.000000,0.000000,0.000000,0.000000,0.000000,0.000000,,,,,,,,,,,,,,,,,,,,,,,,,,,,,,,,,,,,,,,,,,,,,,,,,,,,,,,,,,,,,,,,,,,,,,,,,,,,,,,,,,,,,,,,,,,,,,,,,,,,,,,,,,,,,,,,,,,,,,,,,,,,,,,,,
1738746912.962382,102.000000,0.000000,4231.025879,4270.128418,4216.410156,4245.128418,4285.512695,4294.743652,4290.641113,4215.000000,4137.307617,4010.512939,4196.922852,3053.333252,4381.410156,4424.487305,0.000000,1.000000,30.000000,,,,0.000000,0.000000,0.000000,0.000000,0.000000,0.000000,0.000000,0.000000,0.000000,0.000000,0.000000,0.000000,0.000000,0.000000,0.000000,0.000000,,,,,,,,,,,,,,,,,,,,,,,,,,,,,,,,,,,,,,,,,,,,,,,,,,,,,,,,,,,,,,,,,,,,,,,,,,,,,,,,,,,,,,,,,,,,,,,,,,,,,,,,,,,,,,,,,,,,,,,,,,,,,,,,,
1738746912.970190,103.000000,0.000000,4230.897461,4270.256348,4216.410156,4246.794922,4284.487305,4296.538574,4291.025879,4215.769043,4139.102539,4010.256348,4194.358887,3055.128174,4376.794922,4420.769043,0.000000,1.000000,30.000000,,,,0.000000,0.000000,0.000000,0.000000,0.000000,0.000000,0.000000,0.000000,0.000000,0.000000,0.000000,0.000000,0.000000,0.000000,0.000000,0.000000,,,,,,,,,,,,,,,,,,,,,,,,,,,,,,,,,,,,,,,,,,,,,,,,,,,,,,,,,,,,,,,,,,,,,,,,,,,,,,,,,,,,,,,,,,,,,,,,,,,,,,,,,,,,,,,,,,,,,,,,,,,,,,,,,
1738746912.978098,104.000000,0.000000,4228.333496,4272.820313,4217.692383,4248.974121,4285.897461,4295.000000,4290.256348,4217.307617,4137.948730,4010.128174,4197.051270,3056.025635,4377.563965,4426.410156,0.000000,1.000000,30.000000,,,,0.000000,0.000000,0.000000,0.000000,0.000000,0.000000,0.000000,0.000000,0.000000,0.000000,0.000000,0.000000,0.000000,0.000000,0.000000,0.000000,,,,,,,,,,,,,,,,,26.000000,0.000000,0.799887,-0.596680,0.059265,-0.025330,-0.067879,-0.961055,0.283238,1.237604,-14.197607,21.232225,,,,,,,,,,,,,,,,,,,,,,,,,,,,,,,,,,,,,,,,,,,,,,,,,,,,,,,,,,,,,,,,,,,,,,,,,,,,,,,,,,,,,,,,,,,,,,,,,,,,,
1738746912.985906,105.000000,0.000000,4226.794922,4270.512695,4219.871582,4248.333496,4288.077148,4294.615234,4291.153809,4218.461426,4135.897461,4010.128174,4199.487305,3051.666748,4379.871582,4423.205078,0.000000,1.000000,30.000000,,,,0.000000,0.000000,0.000000,0.000000,0.000000,0.000000,0.000000,0.000000,0.000000,0.000000,0.000000,0.000000,0.000000,0.000000,0.000000,0.000000,,,,,,,,,,,,,,,,,,,,,,,,,,,,,,,,,,,,,,,,,,,,,,,,,,,,,,,,,,,,,,,,,,,,,,,,,,,,,,,,,,,,,,,,,,,,,,,,,,,,,,,,,,,,,,,,,,,,,,,,,,,,,,,,,
1738746912.993814,106.000000,0.000000,4231.666504,4268.077148,4218.461426,4247.948730,4286.538574,4295.769043,4288.205078,4216.025879,4135.641113,4012.051270,4197.692383,3051.410156,4381.410156,4423.846191,0.000000,1.000000,30.000000,,,,0.000000,0.000000,0.000000,0.000000,0.000000,0.000000,0.000000,0.000000,0.000000,0.000000,0.000000,0.000000,0.000000,0.000000,0.000000,0.000000,,,,,,,,,,,,,,,,,,,,,,,,,,,,,,,,,,,,,,,,,,,,,,,,,,,,,,,,,,,,0.022377,0.016887,0.046716,0.020704,0.015343,0.019513,0.021566,0.012797,0.012929,0.023713,0.023756,0.016685,0.042109,0.018787,0.020464,0.024847,0.024372,0.028880,0.019133,0.024187,0.019346,0.077117,0.027842,0.029802,0.025097,0.031167,0.054564,0.037329,0.031759,0.029167,0.035557,0.036440,0.034016,0.025724,0.025612,0.041397,0.034106,0.019119,0.019603,0.025558,0.025793,0.018077,0.021746,0.017956,0.029776,0.025271,0.036571,0.021070,0.011823,0.019908,0.018165,0.016358,0.024397,0.024193,0.022264,0.029704,0.018487,0.007764,0.015103,0.015929,0.017192,0.023300,0.048805,0.020083,0.035401,0.031667,0.012837,0.025818,0.017897,0.019788
1738746913.001622,107.000000,0.000000,4233.333496,4272.179688,4217.692383,4247.820313,4285.128418,4296.794922,4287.436035,4215.769043,4137.307617,4012.820557,4194.102539,3052.948730,4377.692383,4425.256348,0.000000,1.000000,30.000000,,,,0.000000,0.000000,0.000000,0.000000,0.000000,0.000000,0.000000,0.000000,0.000000,0.000000,0.000000,0.000000,0.000000,0.000000,0.000000,0.000000,,,,,,,,,,,,,,,,,,,,,,,,,,,,,,,,,,,,,,,,,,,,,,,,,,,,,,,,,,,,,,,,,,,,,,,,,,,,,,,,,,,,,,,,,,,,,,,,,,,,,,,,,,,,,,,,,,,,,,,,,,,,,,,,,
1738746913.009330,108.000000,0.000000,4229.615234,4274.743652,4218.589844,4247.563965,4285.256348,4296.282227,4291.025879,4221.153809,4137.436035,4011.025635,4194.102539,3051.923096,4375.769043,4420.384766,0.000000,1.000000,30.000000,,,,0.000000,0.000000,0.000000,0.000000,0.000000,0.000000,0.000000,0.000000,0.000000,0.000000,0.000000,0.000000,0.000000,0.000000,0.000000,0.000000,,,,,,,,,,,,,,,,,27.000000,0.000000,0.799926,-0.596619,0.059387,-0.025269,-0.069833,-0.962520,0.287144,1.297177,-14.244513,21.292336,,,,,,,,,,,,,,,,,,,,,,,,,,,,,,,,,,,,,,,,,,,,,,,,,,,,,,,,,,,,,,,,,,,,,,,,,,,,,,,,,,,,,,,,,,,,,,,,,,,,,
1738746913.017138,109.000000,0.000000,4231.666504,4270.384766,4218.077148,4248.205078,4285.897461,4293.974121,4287.948730,4219.615234,4136.282227,4011.538574,4197.563965,3053.076904,4382.179688,4424.871582,0.000000,1.000000,30.000000,,,,0.000000,0.000000,0.000000,0.000000,0.000000,0.000000,0.000000,0.000000,0.000000,0.000000,0.000000,0.000000,0.000000,0.000000,0.000000,0.000000,,,,,,,,,,,,,,,,,,,,,,,,,,,,,,,,,,,,,,,,,,,,,,,,,,,,,,,,,,,,,,,,,,,,,,,,,,,,,,,,,,,,,,,,,,,,,,,,,,,,,,,,,,,,,,,,,,,,,,,,,,,,,,,,,
1738746913.024846,110.000000,0.000000,4235.128418,4268.717773,4217.820313,4247.692383,4286.025879,4295.128418,4287.563965,4215.512695,4137.179688,4011.281982,4195.641113,3052.948730,4378.077148,4421.282227,0.000000,1.000000,30.000000,,,,0.000000,0.000000,0.000000,0.000000,0.000000,0.000000,0.000000,0.000000,0.000000,0.000000,0.000000,0.000000,0.000000,0.000000,0.000000,0.000000,,,,,,,,,,,,,,,,,,,,,,,,,,,,,,,,,,,,,,,,,,,,,,,,,,,,,,,,,,,,,,,,,,,,,,,,,,,,,,,,,,,,,,,,,,,,,,,,,,,,,,,,,,,,,,,,,,,,,,,,,,,,,,,,,
1738746913.032754,111.000000,0.000000,4233.333496,4270.769043,4217.692383,4246.410156,4284.615234,4296.666504,4290.769043,4217.436035,4138.974121,4009.230713,4194.615234,3053.461426,4375.128418,4418.461426,0.000000,1.000000,30.000000,,,,0.000000,0.000000,0.000000,0.000000,0.000000,0.000000,0.000000,0.000000,0.000000,0.000000,0.000000,0.000000,0.000000,0.000000,0.000000,0.000000,,,,,,,,,,,,,,,,,,,,,,,,,,,,,,,,,,,,,,,,,,,,,,,,,,,,,,,,,,,,,,,,,,,,,,,,,,,,,,,,,,,,,,,,,,,,,,,,,,,,,,,,,,,,,,,,,,,,,,,,,,,,,,,,,
1738746913.040562,112.000000,0.000000,4229.487305,4270.000000,4217.436035,4246.794922,4286.025879,4295.512695,4290.256348,4219.487305,4139.230957,4010.769287,4196.153809,3056.281982,4379.871582,4423.717773,0.000000,1.000000,30.000000,,,,0.000000,0.000000,0.000000,0.000000,0.000000,0.000000,0.000000,0.000000,0.000000,0.000000,0.000000,0.000000,0.000000,0.000000,0.000000,0.000000,,,,,,,,,,,,,,,,,28.000000,0.000000,0.799926,-0.596619,0.059387,-0.025269,-0.060066,-0.974728,0.287144,1.217459,-14.286728,21.296436,,,,,,,,,,,,,,,,,,,,,,,,,,,,,,,,,,,,,,,,,,,,,,,,,,,,,,,,,,,,,,,,,,,,,,,,,,,,,,,,,,,,,,,,,,,,,,,,,,,,,
1738746913.048470,113.000000,0.000000,4229.230957,4269.615234,4219.358887,4249.358887,4287.436035,4294.615234,4290.384766,4216.794922,4138.717773,4013.333252,4194.871582,3055.769287,4379.102539,4421.025879,0.000000,1.000000,30.000000,,,,0.000000,0.000000,0.000000,0.000000,0.000000,0.000000,0.000000,0.000000,0.000000,0.000000,0.000000,0.000000,0.000000,0.000000,0.000000,0.000000,,,,,,,,,,,,,,,,,,,,,,,,,,,,,,,,,,,,,,,,,,,,,,,,,,,,,,,,,,,,,,,,,,,,,,,,,,,,,,,,,,,,,,,,,,,,,,,,,,,,,,,,,,,,,,,,,,,,,,,,,,,,,,,,,
1738746913.056278,114.000000,0.000000,4232.307617,4271.922852,4218.333496,4249.743652,4285.769043,4292.307617,4289.487305,4216.025879,4138.333496,4012.435791,4198.974121,3053.846191,4379.358887,4423.589844,0.000000,1.000000,30.000000,,,,0.000000,0.000000,0.000000,0.000000,0.000000,0.000000,0.000000,0.000000,0.000000,0.000000,0.000000,0.000000,0.000000,0.000000,0.000000,0.000000,,,,,,,,,,,,,,,,,,,,,,,,,,,,,,,,,,,,,,,,,,,,,,,,,,,,,,,,,,,,,,,,,,,,,,,,,,,,,,,,,,,,,,,,,,,,,,,,,,,,,,,,,,,,,,,,,,,,,,,,,,,,,,,,,
1738746913.064086,115.000000,0.000000,4233.461426,4273.717773,4215.769043,4247.948730,4285.897461,4292.436035,4291.153809,4218.717773,4138.846191,4010.897461,4200.641113,3050.641113,4378.077148,4422.692383,0.000000,1.000000,30.000000,,,,0.000000,0.000000,0.000000,0.000000,0.000000,0.000000,0.000000,0.000000,0.000000,0.000000,0.000000,0.000000,0.000000,0.000000,0.000000,0.000000,,,,,,,,,,,,,,,,,,,,,,,,,,,,,,,,,,,,,,,,,,,,,,,,,,,,,,,,,,,,,,,,,,,,,,,,,,,,,,,,,,,,,,,,,,,,,,,,,,,,,,,,,,,,,,,,,,,,,,,,,,,,,,,,,
1738746913.071794,116.000000,0.000000,4231.794922,4275.256348,4218.077148,4248.461426,4285.641113,4293.974121,4291.794922,4219.871582,4139.487305,4011.666748,4197.563965,3052.307617,4378.589844,4423.333496,0.000000,1.000000,30.000000,,,,0.000000,0.000000,0.000000,0.000000,0.000000,0.000000,0.000000,0.000000,0.000000,0.000000,0.000000,0.000000,0.000000,0.000000,0.000000,0.000000,,,,,,,,,,,,,,,,,29.000000,0.000000,0.799965,-0.596558,0.059448,-0.025330,-0.079111,-0.964473,0.293005,1.229046,-14.274722,21.216793,,,,,,,,,,,,,,,,,,,,,,,,,,,,,,,,,,,,,,,,,,,,,,,,,,,,,,,,,,,,,,,,,,,,,,,,,,,,,,,,,,,,,,,,,,,,,,,,,,,,,
1738746913.079701,117.000000,0.000000,4230.897461,4274.615234,4218.589844,4249.358887,4280.769043,4293.461426,4290.641113,4220.256348,4137.563965,4012.051270,4196.025879,3058.333252,4379.871582,4428.974121,0.000000,1.000000,30.000000,,,,0.000000,0.000000,0.000000,0.000000,0.000000,0.000000,0.000000,0.000000,0.000000,0.000000,0.000000,0.000000,0.000000,0.000000,0.000000,0.000000,,,,,,,,,,,,,,,,,,,,,,,,,,,,,,,,,,,,,,,,,,,,,,,,,,,,,,,,,,,,,,,,,,,,,,,,,,,,,,,,,,,,,,,,,,,,,,,,,,,,,,,,,,,,,,,,,,,,,,,,,,,,,,,,,
1738746913.087509,118.000000,0.000000,4232.692383,4270.512695,4216.410156,4248.974121,4280.384766,4294.487305,4289.871582,4219.230957,4136.794922,4011.153809,4194.871582,3057.307617,4377.436035,4422.307617,0.000000,1.000000,30.000000,,,,0.000000,0.000000,0.000000,0.000000,0.000000,0.000000,0.000000,0.000000,0.000000,0.000000,0.000000,0.000000,0.000000,0.000000,0.000000,0.000000,,,,,,,,,,,,,,,,,,,,,,,,,,,,,,,,,,,,,,,,,,,,,,,,,,,,,,,,,,,,,,,,,,,,,,,,,,,,,,,,,,,,,,,,,,,,,,,,,,,,,,,,,,,,,,,,,,,,,,,,,,,,,,,,,
1738746913.095417,119.000000,0.000000,4234.743652,4272.051270,4216.025879,4247.820313,4285.769043,4295.512695,4287.692383,4216.025879,4139.358887,4011.153809,4198.974121,3054.230713,4381.153809,4421.922852,0.000000,1.000000,30.000000,,,,0.000000,0.000000,0.000000,0.000000,0.000000,0.000000,0.000000,0.000000,0.000000,0.000000,0.000000,0.000000,0.000000,0.000000,0.000000,0.000000,,,,,,,,,,,,,,,,,,,,,,,,,,,,,,,,,,,,,,,,,,,,,,,,,,,,,,,,,,,,,,,,,,,,,,,,,,,,,,,,,,,,,,,,,,,,,,,,,,,,,,,,,,,,,,,,,,,,,,,,,,,,,,,,,
1738746913.103225,120.000000,0.000000,4233.205078,4273.589844,4216.922852,4246.025879,4287.179688,4294.871582,4289.230957,4216.282227,4140.384766,4011.410156,4199.358887,3052.179443,4379.230957,4422.948730,0.000000,1.000000,30.000000,,,,0.000000,0.000000,0.000000,0.000000,0.000000,0.000000,0.000000,0.000000,0.000000,0.000000,0.000000,0.000000,0.000000,0.000000,0.000000,0.000000,,,,,,,,,,,,,,,,,30.000000,0.000000,0.800010,-0.596497,0.059448,-0.025330,-0.063484,-0.961055,0.287633,1.189475,-14.163917,21.378447,,,,,,,,,,,,,,,,,,,,,,,,,,,,,,,,,,,,,,,,,,,,,,,,,,,,,,,,,,,,,,,,,,,,,,,,,,,,,,,,,,,,,,,,,,,,,,,,,,,,,
1738746913.111133,121.000000,0.000000,4231.794922,4271.666504,4219.102539,4246.282227,4285.256348,4294.230957,4291.153809,4219.487305,4138.717773,4011.410156,4195.128418,3053.333252,4375.897461,4421.025879,0.000000,1.000000,30.000000,,,,0.000000,0.000000,0.000000,0.000000,0.000000,0.000000,0.000000,0.000000,0.000000,0.000000,0.000000,0.000000,0.000000,0.000000,0.000000,0.000000,,,,,,,,,,,,,,,,,,,,,,,,,,,,,,,,,,,,,,,,,,,,,,,,,,,,,,,,,,,,,,,,,,,,,,,,,,,,,,,,,,,,,,,,,,,,,,,,,,,,,,,,,,,,,,,,,,,,,,,,,,,,,,,,,
1738746913.118941,122.000000,0.000000,4232.692383,4274.230957,4218.461426,4248.333496,4285.000000,4296.538574,4289.358887,4219.743652,4139.358887,4010.897461,4196.794922,3055.000000,4379.230957,4425.384766,0.000000,1.000000,30.000000,,,,0.000000,0.000000,0.000000,0.000000,0.000000,0.000000,0.000000,0.000000,0.000000,0.000000,0.000000,0.000000,0.000000,0.000000,0.000000,0.000000,,,,,,,,,,,,,,,,,,,,,,,,,,,,,,,,,,,,,,,,,,,,,,,,,,,,,,,,,,,,0.029354,0.020499,0.040157,0.019077,0.017419,0.017416,0.028701,0.009255,0.014900,0.027406,0.021520,0.016841,0.036567,0.016562,0.018156,0.023799,0.023686,0.028120,0.015296,0.018533,0.020939,0.080824,0.028656,0.028580,0.027368,0.033782,0.049424,0.037702,0.032861,0.030481,0.035105,0.035193,0.030576,0.026871,0.026226,0.041176,0.028165,0.015028,0.020185,0.024931,0.020674,0.017580,0.019143,0.014395,0.031187,0.022313,0.031775,0.020696,0.012408,0.018281,0.014967,0.009917,0.025024,0.024199,0.021102,0.031797,0.019247,0.010058,0.016430,0.014549,0.022346,0.026170,0.055738,0.018623,0.033587,0.029088,0.011692,0.028999,0.015812,0.018976
1738746913.126849,123.000000,0.000000,4231.025879,4273.333496,4215.897461,4249.230957,4286.538574,4297.948730,4290.512695,4217.948730,4141.794922,4011.794922,4198.974121,3053.205078,4376.922852,4422.692383,0.000000,1.000000,30.000000,,,,0.000000,0.000000,0.000000,0.000000,0.000000,0.000000,0.000000,0.000000,0.000000,0.000000,0.000000,0.000000,0.000000,0.000000,0.000000,0.000000,,,,,,,,,,,,,,,,,,,,,,,,,,,,,,,,,,,,,,,,,,,,,,,,,,,,,,,,,,,,,,,,,,,,,,,,,,,,,,,,,,,,,,,,,,,,,,,,,,,,,,,,,,,,,,,,,,,,,,,,,,,,,,,,,
1738746913.134657,124.000000,0.000000,4231.410156,4270.000000,4217.051270,4249.230957,4286.922852,4294.230957,4290.769043,4217.563965,4139.615234,4012.948730,4197.436035,3054.487061,4377.179688,4424.615234,0.000000,1.000000,30.000000,,,,0.000000,0.000000,0.000000,0.000000,0.000000,0.000000,0.000000,0.000000,0.000000,0.000000,0.000000,0.000000,0.000000,0.000000,0.000000,0.000000,,,,,,,,,,,,,,,,,31.000000,0.000000,0.800046,-0.596436,0.059631,-0.025208,-0.061531,-0.959101,0.278354,1.253861,-14.214191,21.340601,,,,,,,,,,,,,,,,,,,,,,,,,,,,,,,,,,,,,,,,,,,,,,,,,,,,,,,,,,,,,,,,,,,,,,,,,,,,,,,,,,,,,,,,,,,,,,,,,,,,,
1738746913.142565,125.000000,0.000000,4233.589844,4271.282227,4218.974121,4251.794922,4284.871582,4295.128418,4289.743652,4218.846191,4139.358887,4012.307617,4193.717773,3056.281982,4378.717773,4425.256348,0.000000,1.000000,30.000000,,,,0.000000,0.000000,0.000000,0.000000,0.000000,0.000000,0.000000,0.000000,0.000000,0.000000,0.000000,0.000000,0.000000,0.000000,0.000000,0.000000,,,,,,,,,,,,,,,,,,,,,,,,,,,,,,,,,,,,,,,,,,,,,,,,,,,,,,,,,,,,,,,,,,,,,,,,,,,,,,,,,,,,,,,,,,,,,,,,,,,,,,,,,,,,,,,,,,,,,,,,,,,,,,,,,
1738746913.150373,126.000000,0.000000,4231.282227,4272.563965,4217.307617,4252.820313,4283.717773,4296.922852,4289.230957,4218.589844,4139.871582,4012.564209,4194.358887,3056.538574,4379.743652,4420.897461,0.000000,1.000000,30.000000,,,,0.000000,0.000000,0.000000,0.000000,0.000000,0.000000,0.000000,0.000000,0.000000,0.000000,0.000000,0.000000,0.000000,0.000000,0.000000,0.000000,,,,,,,,,,,,,,,,,,,,,,,,,,,,,,,,,,,,,,,,,,,,,,,,,,,,,,,,,,,,,,,,,,,,,,,,,,,,,,,,,,,,,,,,,,,,,,,,,,,,,,,,,,,,,,,,,,,,,,,,,,,,,,,,,
1738746913.158081,127.000000,0.000000,4231.282227,4270.769043,4217.563965,4249.358887,4285.128418,4292.692383,4288.717773,4214.871582,4137.820313,4015.128174,4198.333496,3055.128174,4382.307617,4425.897461,30.000000,1.000000,30.000000,,,,0.000000,0.000000,0.000000,0.000000,0.000000,0.000000,0.000000,0.000000,0.000000,0.000000,0.000000,0.000000,0.000000,0.000000,0.000000,0.000000,,,,,,,,,,,,,,,,,,,,,,,,,,,,,,,,,,,,,,,,,,,,,,,,,,,,,,,,,,,,,,,,,,,,,,,,,,,,,,,,,,,,,,,,,,,,,,,,,,,,,,,,,,,,,,,,,,,,,,,,,,,,,,,,,
1738746913.165889,0.000000,0.000000,4234.487305,4271.538574,4219.615234,4247.563965,4286.025879,4293.077148,4290.897461,4216.410156,4140.384766,4015.000000,4195.384766,3051.153809,4378.205078,4424.871582,0.000000,1.000000,30.000000,,,,0.000000,0.000000,0.000000,0.000000,0.000000,0.000000,0.000000,0.000000,0.000000,0.000000,0.000000,0.000000,0.000000,0.000000,0.000000,0.000000,,,,,,,,,,,,,,,,,0.000000,0.000000,0.800005,-0.596497,0.059570,-0.025208,-0.065926,-0.961543,0.271029,1.328475,-14.326106,21.289875,,,,,,,,,,,,,,,,,,,,,,,,,,,,,,,,,,,,,,,,,,,,,,,,,,,,,,,,,,,,,,,,,,,,,,,,,,,,,,,,,,,,,,,,,,,,,,,,,,,,,
1738746913.173797,1.000000,0.000000,4233.974121,4276.922852,4217.436035,4249.871582,4285.769043,4297.307617,4288.974121,4220.641113,4142.179688,4011.923096,4195.256348,3053.205078,4381.794922,4427.051270,0.000000,1.000000,30.000000,,,,0.000000,0.000000,0.000000,0.000000,0.000000,0.000000,0.000000,0.000000,0.000000,0.000000,0.000000,0.000000,0.000000,0.000000,0.000000,0.000000,,,,,,,,,,,,,,,,,,,,,,,,,,,,,,,,,,,,,,,,,,,,,,,,,,,,,,,,,,,,,,,,,,,,,,,,,,,,,,,,,,,,,,,,,,,,,,,,,,,,,,,,,,,,,,,,,,,,,,,,,,,,,,,,,
1738746913.181605,2.000000,0.000000,4230.769043,4276.410156,4216.794922,4249.871582,4285.512695,4297.051270,4289.358887,4218.846191,4139.615234,4013.076904,4198.974121,3057.051270,4384.615234,4429.743652,0.000000,1.000000,30.000000,,,,0.000000,0.000000,0.000000,0.000000,0.000000,0.000000,0.000000,0.000000,0.000000,0.000000,0.000000,0.000000,0.000000,0.000000,0.000000,0.000000,,,,,,,,,,,,,,,,,,,,,,,,,,,,,,,,,,,,,,,,,,,,,,,,,,,,,,,,,,,,,,,,,,,,,,,,,,,,,,,,,,,,,,,,,,,,,,,,,,,,,,,,,,,,,,,,,,,,,,,,,,,,,,,,,
1738746913.189313,3.000000,0.000000,4231.282227,4271.922852,4219.871582,4248.846191,4284.615234,4295.000000,4294.487305,4217.563965,4138.974121,4015.256348,4196.666504,3055.641113,4377.692383,4424.743652,0.000000,1.000000,30.000000,,,,0.000000,0.000000,0.000000,0.000000,0.000000,0.000000,0.000000,0.000000,0.000000,0.000000,0.000000,0.000000,0.000000,0.000000,0.000000,0.000000,,,,,,,,,,,,,,,,,,,,,,,,,,,,,,,,,,,,,,,,,,,,,,,,,,,,,,,,,,,,,,,,,,,,,,,,,,,,,,,,,,,,,,,,,,,,,,,,,,,,,,,,,,,,,,,,,,,,,,,,,,,,,,,,,
1738746913.197121,4.000000,0.000000,4233.077148,4272.563965,4217.948730,4249.871582,4285.641113,4293.461426,4291.666504,4220.384766,4139.743652,4013.333252,4194.871582,3054.487061,4380.256348,4428.846191,0.000000,1.000000,30.000000,,,,0.000000,0.000000,0.000000,0.000000,0.000000,0.000000,0.000000,0.000000,0.000000,0.000000,0.000000,0.000000,0.000000,0.000000,0.000000,0.000000,,,,,,,,,,,,,,,,,1.000000,0.000000,0.799907,-0.596619,0.059692,-0.025146,-0.073251,-0.960078,0.272006,1.245627,-14.493495,21.210888,,,,,,,,,,,,,,,,,,,,,,,,,,,,,,,,,,,,,,,,,,,,,,,,,,,,,,,,,,,,,,,,,,,,,,,,,,,,,,,,,,,,,,,,,,,,,,,,,,,,,
1738746913.204829,5.000000,0.000000,4231.538574,4273.974121,4215.897461,4248.461426,4287.179688,4293.974121,4289.871582,4221.410156,4139.487305,4010.000000,4196.410156,3053.974365,4380.128418,4428.461426,0.000000,1.000000,30.000000,,,,0.000000,0.000000,0.000000,0.000000,0.000000,0.000000,0.000000,0.000000,0.000000,0.000000,0.000000,0.000000,0.000000,0.000000,0.000000,0.000000,,,,,,,,,,,,,,,,,,,,,,,,,,,,,,,,,,,,,,,,,,,,,,,,,,,,,,,,,,,,,,,,,,,,,,,,,,,,,,,,,,,,,,,,,,,,,,,,,,,,,,,,,,,,,,,,,,,,,,,,,,,,,,,,,
1738746913.212637,6.000000,0.000000,4231.282227,4272.820313,4218.461426,4247.948730,4284.615234,4294.487305,4292.563965,4220.769043,4138.846191,4010.769287,4197.948730,3054.743652,4378.717773,4427.820313,0.000000,1.000000,30.000000,,,,0.000000,0.000000,0.000000,0.000000,0.000000,0.000000,0.000000,0.000000,0.000000,0.000000,0.000000,0.000000,0.000000,0.000000,0.000000,0.000000,,,,,,,,,,,,,,,,,,,,,,,,,,,,,,,,,,,,,,,,,,,,,,,,,,,,,,,,,,,,,,,,,,,,,,,,,,,,,,,,,,,,,,,,,,,,,,,,,,,,,,,,,,,,,,,,,,,,,,,,,,,,,,,,,
1738746913.220345,7.000000,0.000000,4230.512695,4275.000000,4218.589844,4249.615234,4283.461426,4293.333496,4292.948730,4220.384766,4138.461426,4012.307617,4198.205078,3056.025635,4383.717773,4426.666504,0.000000,1.000000,30.000000,,,,0.000000,0.000000,0.000000,0.000000,0.000000,0.000000,0.000000,0.000000,0.000000,0.000000,0.000000,0.000000,0.000000,0.000000,0.000000,0.000000,,,,,,,,,,,,,,,,,,,,,,,,,,,,,,,,,,,,,,,,,,,,,,,,,,,,,,,,,,,,,,,,,,,,,,,,,,,,,,,,,,,,,,,,,,,,,,,,,,,,,,,,,,,,,,,,,,,,,,,,,,,,,,,,,
1738746913.228153,8.000000,0.000000,4230.641113,4277.051270,4215.641113,4249.230957,4285.256348,4294.230957,4293.461426,4218.589844,4138.974121,4010.384521,4197.051270,3056.410156,4381.538574,4420.512695,0.000000,1.000000,30.000000,,,,0.000000,0.000000,0.000000,0.000000,0.000000,0.000000,0.000000,0.000000,0.000000,0.000000,0.000000,0.000000,0.000000,0.000000,0.000000,0.000000,,,,,,,,,,,,,,,,,2.000000,0.000000,0.799910,-0.596619,0.059692,-0.025024,-0.067391,-0.949823,0.283726,1.204398,-14.444145,21.289799,,,,,,,,,,,,,,,,,,,,,,,,,,,,,,,,,,,,,,,,,,,,,,,,,,,,,,,,,,,,,,,,,,,,,,,,,,,,,,,,,,,,,,,,,,,,,,,,,,,,,
1738746913.235861,9.000000,0.000000,4235.000000,4273.974121,4218.205078,4248.205078,4285.512695,4294.871582,4293.461426,4217.563965,4140.769043,4009.743652,4196.025879,3057.307617,4381.794922,4428.333496,0.000000,1.000000,30.000000,,,,0.000000,0.000000,0.000000,0.000000,0.000000,0.000000,0.000000,0.000000,0.000000,0.000000,0.000000,0.000000,0.000000,0.000000,0.000000,0.000000,,,,,,,,,,,,,,,,,,,,,,,,,,,,,,,,,,,,,,,,,,,,,,,,,,,,,,,,,,,,,,,,,,,,,,,,,,,,,,,,,,,,,,,,,,,,,,,,,,,,,,,,,,,,,,,,,,,,,,,,,,,,,,,,,
1738746913.243669,10.000000,0.000000,4235.512695,4272.051270,4223.717773,4248.717773,4287.051270,4296.410156,4293.589844,4220.769043,4140.000000,4012.435791,4195.256348,3054.871826,4382.692383,4428.333496,0.000000,1.000000,30.000000,,,,0.000000,0.000000,0.000000,0.000000,0.000000,0.000000,0.000000,0.000000,0.000000,0.000000,0.000000,0.000000,0.000000,0.000000,0.000000,0.000000,,,,,,,,,,,,,,,,,,,,,,,,,,,,,,,,,,,,,,,,,,,,,,,,,,,,,,,,,,,,0.036043,0.024050,0.033907,0.017023,0.020455,0.015224,0.037922,0.007972,0.016949,0.030813,0.020156,0.016942,0.030112,0.015441,0.016373,0.025286,0.022773,0.028850,0.012336,0.015768,0.022474,0.077782,0.029029,0.027320,0.030440,0.037793,0.043685,0.034368,0.033244,0.030126,0.035250,0.033396,0.026363,0.026871,0.026683,0.040662,0.025179,0.012711,0.020470,0.022969,0.018372,0.016048,0.016183,0.012533,0.031614,0.019352,0.026820,0.021277,0.014883,0.017887,0.013432,0.006157,0.024758,0.025126,0.020620,0.032163,0.019172,0.013427,0.017307,0.014559,0.028997,0.028430,0.058831,0.017911,0.031524,0.027899,0.012052,0.031857,0.013672,0.018670
1738746913.251377,11.000000,0.000000,4231.666504,4272.692383,4222.436035,4250.000000,4286.922852,4297.179688,4292.051270,4220.000000,4138.205078,4014.102539,4198.333496,3053.974365,4382.563965,4423.974121,0.000000,1.000000,30.000000,,,,0.000000,0.000000,0.000000,0.000000,0.000000,0.000000,0.000000,0.000000,0.000000,0.000000,0.000000,0.000000,0.000000,0.000000,0.000000,0.000000,,,,,,,,,,,,,,,,,,,,,,,,,,,,,,,,,,,,,,,,,,,,,,,,,,,,,,,,,,,,,,,,,,,,,,,,,,,,,,,,,,,,,,,,,,,,,,,,,,,,,,,,,,,,,,,,,,,,,,,,,,,,,,,,,
1738746913.259285,12.000000,0.000000,4232.307617,4271.410156,4219.615234,4250.384766,4285.512695,4295.512695,4290.641113,4215.641113,4137.820313,4011.666748,4198.589844,3055.000000,4382.948730,4428.717773,0.000000,1.000000,30.000000,,,,0.000000,0.000000,0.000000,0.000000,0.000000,0.000000,0.000000,0.000000,0.000000,0.000000,0.000000,0.000000,0.000000,0.000000,0.000000,0.000000,,,,,,,,,,,,,,,,,3.000000,0.000000,0.799910,-0.596619,0.059692,-0.025024,-0.072274,-0.971310,0.276889,1.333958,-14.266397,21.244152,,,,,,,,,,,,,,,,,,,,,,,,,,,,,,,,,,,,,,,,,,,,,,,,,,,,,,,,,,,,,,,,,,,,,,,,,,,,,,,,,,,,,,,,,,,,,,,,,,,,,
1738746913.267093,13.000000,0.000000,4234.102539,4269.358887,4219.230957,4249.102539,4287.820313,4296.794922,4293.717773,4218.333496,4139.358887,4010.128174,4195.769043,3053.205078,4379.871582,4425.256348,0.000000,1.000000,30.000000,,,,0.000000,0.000000,0.000000,0.000000,0.000000,0.000000,0.000000,0.000000,0.000000,0.000000,0.000000,0.000000,0.000000,0.000000,0.000000,0.000000,,,,,,,,,,,,,,,,,,,,,,,,,,,,,,,,,,,,,,,,,,,,,,,,,,,,,,,,,,,,,,,,,,,,,,,,,,,,,,,,,,,,,,,,,,,,,,,,,,,,,,,,,,,,,,,,,,,,,,,,,,,,,,,,,
1738746913.274901,14.000000,0.000000,4231.538574,4272.692383,4218.205078,4247.436035,4289.230957,4298.589844,4296.025879,4221.282227,4139.871582,4010.769287,4199.230957,3054.487061,4383.974121,4426.538574,0.000000,1.000000,30.000000,,,,0.000000,0.000000,0.000000,0.000000,0.000000,0.000000,0.000000,0.000000,0.000000,0.000000,0.000000,0.000000,0.000000,0.000000,0.000000,0.000000,,,,,,,,,,,,,,,,,,,,,,,,,,,,,,,,,,,,,,,,,,,,,,,,,,,,,,,,,,,,,,,,,,,,,,,,,,,,,,,,,,,,,,,,,,,,,,,,,,,,,,,,,,,,,,,,,,,,,,,,,,,,,,,,,
1738746913.282609,15.000000,0.000000,4231.794922,4273.717773,4219.358887,4248.974121,4285.641113,4298.589844,4295.641113,4220.512695,4138.077148,4011.281982,4198.974121,3054.230713,4384.230957,4425.512695,0.000000,1.000000,30.000000,,,,0.000000,0.000000,0.000000,0.000000,0.000000,0.000000,0.000000,0.000000,0.000000,0.000000,0.000000,0.000000,0.000000,0.000000,0.000000,0.000000,,,,,,,,,,,,,,,,,,,,,,,,,,,,,,,,,,,,,,,,,,,,,,,,,,,,,,,,,,,,,,,,,,,,,,,,,,,,,,,,,,,,,,,,,,,,,,,,,,,,,,,,,,,,,,,,,,,,,,,,,,,,,,,,,
1738746913.290517,16.000000,0.000000,4236.666504,4271.153809,4220.641113,4249.871582,4284.230957,4296.922852,4293.333496,4219.102539,4137.820313,4012.820557,4195.769043,3051.794922,4380.384766,4422.436035,0.000000,1.000000,30.000000,,,,0.000000,0.000000,0.000000,0.000000,0.000000,0.000000,0.000000,0.000000,0.000000,0.000000,0.000000,0.000000,0.000000,0.000000,0.000000,0.000000,,,,,,,,,,,,,,,,,4.000000,0.000000,0.799910,-0.596619,0.059692,-0.025024,-0.072763,-0.968380,0.278354,1.333896,-14.123092,21.136404,,,,,,,,,,,,,,,,,,,,,,,,,,,,,,,,,,,,,,,,,,,,,,,,,,,,,,,,,,,,,,,,,,,,,,,,,,,,,,,,,,,,,,,,,,,,,,,,,,,,,
1738746913.298325,17.000000,0.000000,4236.538574,4271.666504,4218.589844,4247.436035,4287.563965,4295.512695,4290.256348,4218.333496,4139.487305,4013.974365,4198.846191,3054.102539,4383.461426,4429.358887,0.000000,1.000000,30.000000,,,,0.000000,0.000000,0.000000,0.000000,0.000000,0.000000,0.000000,0.000000,0.000000,0.000000,0.000000,0.000000,0.000000,0.000000,0.000000,0.000000,,,,,,,,,,,,,,,,,,,,,,,,,,,,,,,,,,,,,,,,,,,,,,,,,,,,,,,,,,,,,,,,,,,,,,,,,,,,,,,,,,,,,,,,,,,,,,,,,,,,,,,,,,,,,,,,,,,,,,,,,,,,,,,,,
1738746913.306233,18.000000,0.000000,4231.794922,4273.205078,4218.461426,4247.820313,4287.307617,4295.769043,4291.282227,4219.102539,4140.256348,4013.974365,4197.692383,3055.512939,4380.897461,4426.153809,0.000000,1.000000,30.000000,,,,0.000000,0.000000,0.000000,0.000000,0.000000,0.000000,0.000000,0.000000,0.000000,0.000000,0.000000,0.000000,0.000000,0.000000,0.000000,0.000000,,,,,,,,,,,,,,,,,,,,,,,,,,,,,,,,,,,,,,,,,,,,,,,,,,,,,,,,,,,,,,,,,,,,,,,,,,,,,,,,,,,,,,,,,,,,,,,,,,,,,,,,,,,,,,,,,,,,,,,,,,,,,,,,,
1738746913.314040,19.000000,0.000000,4231.794922,4271.922852,4220.256348,4250.641113,4285.256348,4294.871582,4291.282227,4218.974121,4139.871582,4014.102539,4197.692383,3054.743652,4379.487305,4427.436035,0.000000,1.000000,30.000000,,,,0.000000,0.000000,0.000000,0.000000,0.000000,0.000000,0.000000,0.000000,0.000000,0.000000,0.000000,0.000000,0.000000,0.000000,0.000000,0.000000,,,,,,,,,,,,,,,,,,,,,,,,,,,,,,,,,,,,,,,,,,,,,,,,,,,,,,,,,,,,,,,,,,,,,,,,,,,,,,,,,,,,,,,,,,,,,,,,,,,,,,,,,,,,,,,,,,,,,,,,,,,,,,,,,
1738746913.321948,20.000000,0.000000,4233.717773,4271.282227,4219.102539,4248.974121,4286.538574,4294.487305,4291.794922,4220.000000,4141.666504,4014.615479,4201.410156,3053.846191,4380.384766,4429.615234,0.000000,1.000000,30.000000,,,,0.000000,0.000000,0.000000,0.000000,0.000000,0.000000,0.000000,0.000000,0.000000,0.000000,0.000000,0.000000,0.000000,0.000000,0.000000,0.000000,,,,,,,,,,,,,,,,,5.000000,0.000000,0.799867,-0.596680,0.059692,-0.024963,-0.068368,-0.961055,0.278843,1.333839,-14.127449,21.206097,,,,,,,,,,,,,,,,,,,,,,,,,,,,,,,,,,,,,,,,,,,,,,,,,,,,,,,,,,,,,,,,,,,,,,,,,,,,,,,,,,,,,,,,,,,,,,,,,,,,,
1738746913.329756,21.000000,0.000000,4233.589844,4274.743652,4217.948730,4247.692383,4287.563965,4296.538574,4291.410156,4220.897461,4142.179688,4012.564209,4200.384766,3054.230713,4378.333496,4423.077148,0.000000,1.000000,30.000000,,,,0.000000,0.000000,0.000000,0.000000,0.000000,0.000000,0.000000,0.000000,0.000000,0.000000,0.000000,0.000000,0.000000,0.000000,0.000000,0.000000,,,,,,,,,,,,,,,,,,,,,,,,,,,,,,,,,,,,,,,,,,,,,,,,,,,,,,,,,,,,,,,,,,,,,,,,,,,,,,,,,,,,,,,,,,,,,,,,,,,,,,,,,,,,,,,,,,,,,,,,,,,,,,,,,
1738746913.337664,22.000000,0.000000,4233.461426,4276.538574,4218.846191,4250.384766,4284.743652,4296.410156,4289.487305,4218.974121,4140.769043,4010.897461,4198.974121,3056.410156,4382.563965,4427.051270,0.000000,1.000000,30.000000,,,,0.000000,0.000000,0.000000,0.000000,0.000000,0.000000,0.000000,0.000000,0.000000,0.000000,0.000000,0.000000,0.000000,0.000000,0.000000,0.000000,,,,,,,,,,,,,,,,,,,,,,,,,,,,,,,,,,,,,,,,,,,,,,,,,,,,,,,,,,,,,,,,,,,,,,,,,,,,,,,,,,,,,,,,,,,,,,,,,,,,,,,,,,,,,,,,,,,,,,,,,,,,,,,,,
1738746913.345472,23.000000,0.000000,4234.358887,4273.333496,4220.128418,4250.769043,4283.333496,4294.102539,4292.436035,4219.230957,4141.282227,4012.692383,4196.282227,3055.000000,4381.025879,4427.179688,0.000000,1.000000,30.000000,,,,0.000000,0.000000,0.000000,0.000000,0.000000,0.000000,0.000000,0.000000,0.000000,0.000000,0.000000,0.000000,0.000000,0.000000,0.000000,0.000000,,,,,,,,,,,,,,,,,,,,,,,,,,,,,,,,,,,,,,,,,,,,,,,,,,,,,,,,,,,,,,,,,,,,,,,,,,,,,,,,,,,,,,,,,,,,,,,,,,,,,,,,,,,,,,,,,,,,,,,,,,,,,,,,,
1738746913.353180,24.000000,0.000000,4235.641113,4272.051270,4220.000000,4248.846191,4285.641113,4294.230957,4292.307617,4220.384766,4140.128418,4012.948730,4196.282227,3054.615479,4378.589844,4427.692383,0.000000,1.000000,30.000000,,,,0.000000,0.000000,0.000000,0.000000,0.000000,0.000000,0.000000,0.000000,0.000000,0.000000,0.000000,0.000000,0.000000,0.000000,0.000000,0.000000,,,,,,,,,,,,,,,,,6.000000,0.000000,0.799860,-0.596680,0.059814,-0.024902,-0.057136,-0.963985,0.280796,1.367122,-14.298038,21.168819,,,,,,,,,,,,,,,,,,,,,,,,,,,,,,,,,,,,,,,,,,,,,,,,,,,,,,,,,,,,,,,,,,,,,,,,,,,,,,,,,,,,,,,,,,,,,,,,,,,,,
1738746913.360988,25.000000,0.000000,4234.487305,4273.205078,4221.666504,4249.743652,4286.666504,4295.897461,4289.871582,4218.461426,4137.692383,4009.358887,4200.897461,3055.256348,4382.820313,4429.230957,0.000000,1.000000,30.000000,,,,0.000000,0.000000,0.000000,0.000000,0.000000,0.000000,0.000000,0.000000,0.000000,0.000000,0.000000,0.000000,0.000000,0.000000,0.000000,0.000000,,,,,,,,,,,,,,,,,,,,,,,,,,,,,,,,,,,,,,,,,,,,,,,,,,,,,,,,,,,,,,,,,,,,,,,,,,,,,,,,,,,,,,,,,,,,,,,,,,,,,,,,,,,,,,,,,,,,,,,,,,,,,,,,,
1738746913.368696,26.000000,0.000000,4233.717773,4274.358887,4223.461426,4249.358887,4286.922852,4295.384766,4291.794922,4217.307617,4138.461426,4007.948730,4200.897461,3054.102539,4385.000000,4423.846191,0.000000,1.000000,30.000000,,,,0.000000,0.000000,0.000000,0.000000,0.000000,0.000000,0.000000,0.000000,0.000000,0.000000,0.000000,0.000000,0.000000,0.000000,0.000000,0.000000,1.000000,0.000000,0.000000,0.000000,0.000000,0.000000,0.000000,0.000000,0.000000,0.000000,0.000000,0.000000,0.000000,0.000000,0.000000,0.000000,,,,,,,,,,,,,,,,,,,,,,,,,,,,,,,,,,,,,,,,,,,,0.040339,0.026445,0.030814,0.014844,0.024112,0.013298,0.046759,0.008630,0.019342,0.033701,0.019863,0.017396,0.024958,0.015455,0.015256,0.029846,0.022185,0.031116,0.010333,0.015624,0.022718,0.069010,0.029290,0.026815,0.033504,0.042532,0.038773,0.028492,0.032462,0.028444,0.034850,0.031635,0.023095,0.025694,0.027128,0.040605,0.024323,0.011976,0.020202,0.020497,0.017202,0.013802,0.013520,0.012349,0.030892,0.016306,0.022682,0.022703,0.018090,0.018363,0.013589,0.005754,0.023846,0.026232,0.020908,0.031631,0.018247,0.017157,0.017586,0.016042,0.035485,0.029114,0.056581,0.017719,0.029892,0.027235,0.014203,0.034106,0.012364,0.018121
1738746913.376504,27.000000,0.000000,4233.846191,4274.743652,4220.512695,4247.307617,4285.000000,4295.128418,4290.769043,4218.333496,4140.128418,4012.179443,4199.743652,3055.897461,4384.743652,4427.436035,0.000000,1.000000,30.000000,,,,0.000000,0.000000,0.000000,0.000000,0.000000,0.000000,0.000000,0.000000,0.000000,0.000000,0.000000,0.000000,0.000000,0.000000,0.000000,0.000000,,,,,,,,,,,,,,,,,,,,,,,,,,,,,,,,,,,,,,,,,,,,,,,,,,,,,,,,,,,,,,,,,,,,,,,,,,,,,,,,,,,,,,,,,,,,,,,,,,,,,,,,,,,,,,,,,,,,,,,,,,,,,,,,,
1738746913.384212,28.000000,0.000000,4232.692383,4273.205078,4218.717773,4250.128418,4286.538574,4298.717773,4291.153809,4220.384766,4139.871582,4014.230713,4198.205078,3056.538574,4379.615234,4424.743652,0.000000,1.000000,30.000000,,,,0.000000,0.000000,0.000000,0.000000,0.000000,0.000000,0.000000,0.000000,0.000000,0.000000,0.000000,0.000000,0.000000,0.000000,0.000000,0.000000,,,,,,,,,,,,,,,,,7.000000,0.000000,0.799860,-0.596680,0.059814,-0.024902,-0.069833,-0.960078,0.289586,1.397077,-14.268233,21.051939,,,,,,,,,,,,,,,,,,,,,,,,,,,,,,,,,,,,,,,,,,,,,,,,,,,,,,,,,,,,,,,,,,,,,,,,,,,,,,,,,,,,,,,,,,,,,,,,,,,,,
1738746913.392020,29.000000,0.000000,4233.717773,4274.358887,4220.512695,4251.922852,4289.102539,4299.230957,4292.948730,4221.282227,4139.871582,4011.923096,4198.333496,3054.615479,4379.615234,4422.179688,0.000000,1.000000,30.000000,,,,0.000000,0.000000,0.000000,0.000000,0.000000,0.000000,0.000000,0.000000,0.000000,0.000000,0.000000,0.000000,0.000000,0.000000,0.000000,0.000000,,,,,,,,,,,,,,,,,,,,,,,,,,,,,,,,,,,,,,,,,,,,,,,,,,,,,,,,,,,,,,,,,,,,,,,,,,,,,,,,,,,,,,,,,,,,,,,,,,,,,,,,,,,,,,,,,,,,,,,,,,,,,,,,,
1738746913.399728,30.000000,0.000000,4234.230957,4277.692383,4218.461426,4249.487305,4283.333496,4297.051270,4292.692383,4220.769043,4142.307617,4010.512939,4198.333496,3054.102539,4383.205078,4427.563965,0.000000,1.000000,30.000000,,,,0.000000,0.000000,0.000000,0.000000,0.000000,0.000000,0.000000,0.000000,0.000000,0.000000,0.000000,0.000000,0.000000,0.000000,0.000000,0.000000,,,,,,,,,,,,,,,,,,,,,,,,,,,,,,,,,,,,,,,,,,,,,,,,,,,,,,,,,,,,,,,,,,,,,,,,,,,,,,,,,,,,,,,,,,,,,,,,,,,,,,,,,,,,,,,,,,,,,,,,,,,,,,,,,
1738746913.407536,31.000000,0.000000,4233.205078,4274.871582,4217.436035,4249.230957,4280.256348,4298.589844,4293.077148,4222.179688,4142.948730,4010.256348,4196.025879,3054.615479,4380.000000,4424.230957,0.000000,1.000000,30.000000,,,,0.000000,0.000000,0.000000,0.000000,0.000000,0.000000,0.000000,0.000000,0.000000,0.000000,0.000000,0.000000,0.000000,0.000000,0.000000,0.000000,,,,,,,,,,,,,,,,,,,,,,,,,,,,,,,,,,,,,,,,,,,,,,,,,,,,,,,,,,,,,,,,,,,,,,,,,,,,,,,,,,,,,,,,,,,,,,,,,,,,,,,,,,,,,,,,,,,,,,,,,,,,,,,,,
1738746913.415244,32.000000,0.000000,4235.384766,4271.666504,4219.230957,4249.102539,4287.436035,4298.717773,4291.153809,4221.794922,4139.230957,4011.794922,4199.487305,3056.410156,4381.025879,4425.897461,0.000000,1.000000,30.000000,,,,0.000000,0.000000,0.000000,0.000000,0.000000,0.000000,0.000000,0.000000,0.000000,0.000000,0.000000,0.000000,0.000000,0.000000,0.000000,0.000000,,,,,,,,,,,,,,,,,8.000000,0.000000,0.799862,-0.596680,0.059814,-0.024841,-0.075693,-0.966427,0.284214,1.357369,-14.358077,21.046745,,,,,,,,,,,,,,,,,,,,,,,,,,,,,,,,,,,,,,,,,,,,,,,,,,,,,,,,,,,,,,,,,,,,,,,,,,,,,,,,,,,,,,,,,,,,,,,,,,,,,
1738746913.423052,33.000000,0.000000,4235.384766,4273.333496,4219.102539,4247.563965,4291.282227,4297.436035,4291.410156,4219.358887,4136.794922,4011.794922,4200.256348,3056.025635,4380.512695,4425.897461,0.000000,1.000000,30.000000,,,,0.000000,0.000000,0.000000,0.000000,0.000000,0.000000,0.000000,0.000000,0.000000,0.000000,0.000000,0.000000,0.000000,0.000000,0.000000,0.000000,,,,,,,,,,,,,,,,,,,,,,,,,,,,,,,,,,,,,,,,,,,,,,,,,,,,,,,,,,,,,,,,,,,,,,,,,,,,,,,,,,,,,,,,,,,,,,,,,,,,,,,,,,,,,,,,,,,,,,,,,,,,,,,,,
1738746913.430760,34.000000,0.000000,4232.179688,4275.256348,4217.820313,4248.333496,4287.179688,4296.666504,4292.692383,4219.487305,4138.461426,4012.179443,4197.948730,3055.000000,4378.846191,4424.871582,0.000000,1.000000,30.000000,,,,0.000000,0.000000,0.000000,0.000000,0.000000,0.000000,0.000000,0.000000,0.000000,0.000000,0.000000,0.000000,0.000000,0.000000,0.000000,0.000000,,,,,,,,,,,,,,,,,,,,,,,,,,,,,,,,,,,,,,,,,,,,,,,,,,,,,,,,,,,,,,,,,,,,,,,,,,,,,,,,,,,,,,,,,,,,,,,,,,,,,,,,,,,,,,,,,,,,,,,,,,,,,,,,,
1738746913.438668,35.000000,0.000000,4234.230957,4275.128418,4219.358887,4249.615234,4287.948730,4296.794922,4291.153809,4220.128418,4139.102539,4015.897461,4201.410156,3055.897461,4381.282227,4429.230957,0.000000,1.000000,30.000000,,,,0.000000,0.000000,0.000000,0.000000,0.000000,0.000000,0.000000,0.000000,0.000000,0.000000,0.000000,0.000000,0.000000,0.000000,0.000000,0.000000,,,,,,,,,,,,,,,,,,,,,,,,,,,,,,,,,,,,,,,,,,,,,,,,,,,,,,,,,,,,,,,,,,,,,,,,,,,,,,,,,,,,,,,,,,,,,,,,,,,,,,,,,,,,,,,,,,,,,,,,,,,,,,,,,
1738746913.446476,36.000000,0.000000,4234.871582,4276.153809,4222.051270,4248.589844,4290.384766,4300.256348,4292.948730,4221.025879,4139.871582,4012.051270,4201.538574,3053.846191,4379.230957,4424.102539,0.000000,1.000000,30.000000,,,,0.000000,0.000000,0.000000,0.000000,0.000000,0.000000,0.000000,0.000000,0.000000,0.000000,0.000000,0.000000,0.000000,0.000000,0.000000,0.000000,,,,,,,,,,,,,,,,,9.000000,0.000000,0.799859,-0.596680,0.059875,-0.024780,-0.064461,-0.960078,0.283238,1.388299,-14.405602,20.975403,,,,,,,,,,,,,,,,,,,,,,,,,,,,,,,,,,,,,,,,,,,,,,,,,,,,,,,,,,,,,,,,,,,,,,,,,,,,,,,,,,,,,,,,,,,,,,,,,,,,,
1738746913.454384,37.000000,0.000000,4231.922852,4276.538574,4221.410156,4248.846191,4288.461426,4299.871582,4291.666504,4219.615234,4142.179688,4008.974365,4198.461426,3054.230713,4381.794922,4426.410156,0.000000,1.000000,30.000000,,,,0.000000,0.000000,0.000000,0.000000,0.000000,0.000000,0.000000,0.000000,0.000000,0.000000,0.000000,0.000000,0.000000,0.000000,0.000000,0.000000,,,,,,,,,,,,,,,,,,,,,,,,,,,,,,,,,,,,,,,,,,,,,,,,,,,,,,,,,,,,,,,,,,,,,,,,,,,,,,,,,,,,,,,,,,,,,,,,,,,,,,,,,,,,,,,,,,,,,,,,,,,,,,,,,
1738746913.462192,38.000000,0.000000,4233.333496,4274.615234,4219.871582,4248.974121,4287.692383,4298.461426,4288.333496,4219.615234,4142.563965,4017.820557,4198.205078,3055.384521,4383.846191,4428.333496,0.000000,1.000000,30.000000,,,,0.000000,0.000000,0.000000,0.000000,0.000000,0.000000,0.000000,0.000000,0.000000,0.000000,0.000000,0.000000,0.000000,0.000000,0.000000,0.000000,,,,,,,,,,,,,,,,,,,,,,,,,,,,,,,,,,,,,,,,,,,,,,,,,,,,,,,,,,,,,,,,,,,,,,,,,,,,,,,,,,,,,,,,,,,,,,,,,,,,,,,,,,,,,,,,,,,,,,,,,,,,,,,,,
1738746913.470100,39.000000,0.000000,4235.000000,4275.000000,4219.871582,4248.846191,4287.820313,4299.743652,4291.538574,4221.922852,4140.384766,4019.871826,4199.102539,3053.718018,4380.897461,4423.077148,0.000000,1.000000,30.000000,,,,0.000000,0.000000,0.000000,0.000000,0.000000,0.000000,0.000000,0.000000,0.000000,0.000000,0.000000,0.000000,0.000000,0.000000,0.000000,0.000000,,,,,,,,,,,,,,,,,,,,,,,,,,,,,,,,,,,,,,,,,,,,,,,,,,,,,,,,,,,,,,,,,,,,,,,,,,,,,,,,,,,,,,,,,,,,,,,,,,,,,,,,,,,,,,,,,,,,,,,,,,,,,,,,,
1738746913.477908,40.000000,0.000000,4234.871582,4275.256348,4220.769043,4249.487305,4286.794922,4298.333496,4295.769043,4221.025879,4140.897461,4014.487061,4200.128418,3054.743652,4383.589844,4428.846191,0.000000,1.000000,30.000000,,,,0.000000,0.000000,0.000000,0.000000,0.000000,0.000000,0.000000,0.000000,0.000000,0.000000,0.000000,0.000000,0.000000,0.000000,0.000000,0.000000,,,,,,,,,,,,,,,,,10.000000,0.000000,0.799862,-0.596680,0.059814,-0.024841,-0.070321,-0.958125,0.279331,1.366135,-14.448376,20.994530,,,,,,,,,,,,,,,,,,,,,,,,,,,,,,,,,,,,,,,,,,,,,,,,,,,,,,,,,,,,,,,,,,,,,,,,,,,,,,,,,,,,,,,,,,,,,,,,,,,,,
1738746913.485816,41.000000,0.000000,4234.102539,4271.282227,4221.282227,4248.461426,4285.384766,4296.410156,4295.769043,4220.641113,4142.179688,4017.435791,4198.974121,3057.179443,4381.794922,4426.282227,0.000000,1.000000,30.000000,,,,0.000000,0.000000,0.000000,0.000000,0.000000,0.000000,0.000000,0.000000,0.000000,0.000000,0.000000,0.000000,0.000000,0.000000,0.000000,0.000000,,,,,,,,,,,,,,,,,,,,,,,,,,,,,,,,,,,,,,,,,,,,,,,,,,,,,,,,,,,,,,,,,,,,,,,,,,,,,,,,,,,,,,,,,,,,,,,,,,,,,,,,,,,,,,,,,,,,,,,,,,,,,,,,,
1738746913.493624,42.000000,0.000000,4232.179688,4271.153809,4218.846191,4248.461426,4287.307617,4293.846191,4291.282227,4221.282227,4140.000000,4019.358887,4200.128418,3060.128174,4381.922852,4424.615234,0.000000,1.000000,30.000000,,,,0.000000,0.000000,0.000000,0.000000,0.000000,0.000000,0.000000,0.000000,0.000000,0.000000,0.000000,0.000000,0.000000,0.000000,0.000000,0.000000,,,,,,,,,,,,,,,,,,,,,,,,,,,,,,,,,,,,,,,,,,,,,,,,,,,,,,,,,,,,0.040901,0.026982,0.032049,0.012820,0.027873,0.011882,0.052748,0.010190,0.022425,0.035914,0.019865,0.018828,0.022526,0.016143,0.014770,0.033215,0.022378,0.034396,0.009127,0.017157,0.022586,0.056727,0.029694,0.027225,0.035851,0.046234,0.035088,0.022019,0.030120,0.026054,0.032237,0.029700,0.021598,0.023709,0.027545,0.040129,0.023729,0.012130,0.019308,0.018601,0.017074,0.011345,0.011663,0.013216,0.028986,0.014853,0.019745,0.024482,0.020657,0.019163,0.014315,0.008182,0.022719,0.026645,0.021889,0.030609,0.016894,0.020324,0.017475,0.018553,0.039149,0.028089,0.049366,0.017520,0.029064,0.026442,0.018352,0.035263,0.012592,0.017057
1738746913.501532,43.000000,0.000000,4232.820313,4274.743652,4218.974121,4250.000000,4290.641113,4295.000000,4291.538574,4219.743652,4140.128418,4014.487061,4199.487305,3058.076904,4383.461426,4430.897461,0.000000,1.000000,30.000000,,,,0.000000,0.000000,0.000000,0.000000,0.000000,0.000000,0.000000,0.000000,0.000000,0.000000,0.000000,0.000000,0.000000,0.000000,0.000000,0.000000,,,,,,,,,,,,,,,,,,,,,,,,,,,,,,,,,,,,,,,,,,,,,,,,,,,,,,,,,,,,,,,,,,,,,,,,,,,,,,,,,,,,,,,,,,,,,,,,,,,,,,,,,,,,,,,,,,,,,,,,,,,,,,,,,
1738746913.509340,44.000000,0.000000,4235.769043,4276.025879,4222.179688,4248.333496,4290.128418,4299.487305,4294.871582,4220.641113,4142.948730,4015.256348,4195.256348,3054.487061,4378.717773,4429.230957,0.000000,1.000000,30.000000,,,,0.000000,0.000000,0.000000,0.000000,0.000000,0.000000,0.000000,0.000000,0.000000,0.000000,0.000000,0.000000,0.000000,0.000000,0.000000,0.000000,,,,,,,,,,,,,,,,,11.000000,0.000000,0.799862,-0.596680,0.059814,-0.024841,-0.071298,-0.965450,0.278843,1.396189,-14.403538,20.761744,,,,,,,,,,,,,,,,,,,,,,,,,,,,,,,,,,,,,,,,,,,,,,,,,,,,,,,,,,,,,,,,,,,,,,,,,,,,,,,,,,,,,,,,,,,,,,,,,,,,,
1738746913.517247,45.000000,0.000000,4235.897461,4276.538574,4222.563965,4247.179688,4287.307617,4298.077148,4290.769043,4222.563965,4141.025879,4017.948730,4196.922852,3057.948730,4380.769043,4430.256348,0.000000,1.000000,30.000000,,,,0.000000,0.000000,0.000000,0.000000,0.000000,0.000000,0.000000,0.000000,0.000000,0.000000,0.000000,0.000000,0.000000,0.000000,0.000000,0.000000,,,,,,,,,,,,,,,,,,,,,,,,,,,,,,,,,,,,,,,,,,,,,,,,,,,,,,,,,,,,,,,,,,,,,,,,,,,,,,,,,,,,,,,,,,,,,,,,,,,,,,,,,,,,,,,,,,,,,,,,,,,,,,,,,
1738746913.525055,46.000000,0.000000,4233.846191,4276.153809,4220.384766,4252.563965,4288.717773,4296.282227,4291.794922,4221.282227,4140.256348,4014.743652,4196.538574,3058.333252,4380.256348,4425.897461,0.000000,1.000000,30.000000,,,,0.000000,0.000000,0.000000,0.000000,0.000000,0.000000,0.000000,0.000000,0.000000,0.000000,0.000000,0.000000,0.000000,0.000000,0.000000,0.000000,,,,,,,,,,,,,,,,,,,,,,,,,,,,,,,,,,,,,,,,,,,,,,,,,,,,,,,,,,,,,,,,,,,,,,,,,,,,,,,,,,,,,,,,,,,,,,,,,,,,,,,,,,,,,,,,,,,,,,,,,,,,,,,,,
1738746913.532963,47.000000,0.000000,4234.358887,4275.769043,4219.358887,4253.717773,4290.641113,4298.846191,4296.025879,4220.641113,4142.436035,4013.333252,4196.410156,3055.000000,4379.358887,4423.717773,0.000000,1.000000,30.000000,,,,0.000000,0.000000,0.000000,0.000000,0.000000,0.000000,0.000000,0.000000,0.000000,0.000000,0.000000,0.000000,0.000000,0.000000,0.000000,0.000000,,,,,,,,,,,,,,,,,,,,,,,,,,,,,,,,,,,,,,,,,,,,,,,,,,,,,,,,,,,,,,,,,,,,,,,,,,,,,,,,,,,,,,,,,,,,,,,,,,,,,,,,,,,,,,,,,,,,,,,,,,,,,,,,,
1738746913.540771,48.000000,0.000000,4234.358887,4277.436035,4220.384766,4248.333496,4288.846191,4300.256348,4293.974121,4222.563965,4141.410156,4018.205078,4201.794922,3054.743652,4383.974121,4427.692383,0.000000,1.000000,30.000000,,,,0.000000,0.000000,0.000000,0.000000,0.000000,0.000000,0.000000,0.000000,0.000000,0.000000,0.000000,0.000000,0.000000,0.000000,0.000000,0.000000,,,,,,,,,,,,,,,,,12.000000,0.000000,0.799860,-0.596680,0.059814,-0.024902,-0.076670,-0.969845,0.281773,1.273236,-14.213184,20.735569,,,,,,,,,,,,,,,,,,,,,,,,,,,,,,,,,,,,,,,,,,,,,,,,,,,,,,,,,,,,,,,,,,,,,,,,,,,,,,,,,,,,,,,,,,,,,,,,,,,,,
1738746913.548479,49.000000,0.000000,4232.948730,4276.025879,4221.282227,4248.077148,4287.051270,4298.461426,4293.205078,4222.307617,4140.000000,4020.000000,4202.307617,3055.256348,4381.410156,4426.282227,0.000000,1.000000,30.000000,,,,0.000000,0.000000,0.000000,0.000000,0.000000,0.000000,0.000000,0.000000,0.000000,0.000000,0.000000,0.000000,0.000000,0.000000,0.000000,0.000000,,,,,,,,,,,,,,,,,,,,,,,,,,,,,,,,,,,,,,,,,,,,,,,,,,,,,,,,,,,,,,,,,,,,,,,,,,,,,,,,,,,,,,,,,,,,,,,,,,,,,,,,,,,,,,,,,,,,,,,,,,,,,,,,,
1738746913.556287,50.000000,0.000000,4232.563965,4271.922852,4219.615234,4251.538574,4287.436035,4295.897461,4292.307617,4219.743652,4139.871582,4015.769287,4198.717773,3055.384521,4380.641113,4432.948730,0.000000,1.000000,30.000000,,,,0.000000,0.000000,0.000000,0.000000,0.000000,0.000000,0.000000,0.000000,0.000000,0.000000,0.000000,0.000000,0.000000,0.000000,0.000000,0.000000,,,,,,,,,,,,,,,,,,,,,,,,,,,,,,,,,,,,,,,,,,,,,,,,,,,,,,,,,,,,,,,,,,,,,,,,,,,,,,,,,,,,,,,,,,,,,,,,,,,,,,,,,,,,,,,,,,,,,,,,,,,,,,,,,
1738746913.563995,51.000000,0.000000,4231.666504,4272.692383,4219.487305,4250.000000,4287.436035,4296.922852,4291.666504,4220.256348,4140.256348,4013.718018,4194.487305,3053.974365,4380.769043,4430.256348,0.000000,1.000000,30.000000,,,,0.000000,0.000000,0.000000,0.000000,0.000000,0.000000,0.000000,0.000000,0.000000,0.000000,0.000000,0.000000,0.000000,0.000000,0.000000,0.000000,,,,,,,,,,,,,,,,,,,,,,,,,,,,,,,,,,,,,,,,,,,,,,,,,,,,,,,,,,,,,,,,,,,,,,,,,,,,,,,,,,,,,,,,,,,,,,,,,,,,,,,,,,,,,,,,,,,,,,,,,,,,,,,,,
1738746913.571803,52.000000,0.000000,4232.692383,4275.769043,4220.512695,4246.922852,4287.820313,4299.615234,4290.256348,4222.820313,4139.615234,4016.281982,4196.922852,3053.461426,4380.641113,4425.897461,0.000000,1.000000,30.000000,,,,0.000000,0.000000,0.000000,0.000000,0.000000,0.000000,0.000000,0.000000,0.000000,0.000000,0.000000,0.000000,0.000000,0.000000,0.000000,0.000000,,,,,,,,,,,,,,,,,13.000000,0.000000,0.799810,-0.596741,0.059875,-0.024902,-0.076181,-0.971310,0.286168,1.162579,-14.175200,20.878679,,,,,,,,,,,,,,,,,,,,,,,,,,,,,,,,,,,,,,,,,,,,,,,,,,,,,,,,,,,,,,,,,,,,,,,,,,,,,,,,,,,,,,,,,,,,,,,,,,,,,
1738746913.579511,53.000000,0.000000,4234.743652,4274.615234,4219.743652,4251.794922,4288.589844,4300.384766,4290.512695,4220.641113,4137.820313,4014.871826,4201.153809,3052.948730,4382.692383,4431.538574,0.000000,1.000000,30.000000,,,,0.000000,0.000000,0.000000,0.000000,0.000000,0.000000,0.000000,0.000000,0.000000,0.000000,0.000000,0.000000,0.000000,0.000000,0.000000,0.000000,,,,,,,,,,,,,,,,,,,,,,,,,,,,,,,,,,,,,,,,,,,,,,,,,,,,,,,,,,,,,,,,,,,,,,,,,,,,,,,,,,,,,,,,,,,,,,,,,,,,,,,,,,,,,,,,,,,,,,,,,,,,,,,,,
1738746913.587319,54.000000,0.000000,4233.461426,4273.461426,4221.666504,4254.358887,4286.794922,4298.461426,4296.410156,4219.102539,4140.512695,4011.025635,4195.256348,3051.794922,4379.743652,4426.794922,0.000000,1.000000,30.000000,,,,0.000000,0.000000,0.000000,0.000000,0.000000,0.000000,0.000000,0.000000,0.000000,0.000000,0.000000,0.000000,0.000000,0.000000,0.000000,0.000000,,,,,,,,,,,,,,,,,,,,,,,,,,,,,,,,,,,,,,,,,,,,,,,,,,,,,,,,,,,,,,,,,,,,,,,,,,,,,,,,,,,,,,,,,,,,,,,,,,,,,,,,,,,,,,,,,,,,,,,,,,,,,,,,,
1738746913.595027,55.000000,0.000000,4232.307617,4276.153809,4222.692383,4249.230957,4286.282227,4296.922852,4295.128418,4221.025879,4142.948730,4013.846191,4195.128418,3056.153809,4382.307617,4430.128418,0.000000,1.000000,30.000000,,,,0.000000,0.000000,0.000000,0.000000,0.000000,0.000000,0.000000,0.000000,0.000000,0.000000,0.000000,0.000000,0.000000,0.000000,0.000000,0.000000,,,,,,,,,,,,,,,,,,,,,,,,,,,,,,,,,,,,,,,,,,,,,,,,,,,,,,,,,,,,,,,,,,,,,,,,,,,,,,,,,,,,,,,,,,,,,,,,,,,,,,,,,,,,,,,,,,,,,,,,,,,,,,,,,
1738746913.602835,56.000000,0.000000,4233.205078,4277.051270,4220.769043,4253.589844,4289.871582,4298.974121,4290.512695,4223.717773,4141.282227,4016.281982,4202.436035,3055.897461,4381.666504,4430.897461,0.000000,1.000000,30.000000,,,,0.000000,0.000000,0.000000,0.000000,0.000000,0.000000,0.000000,0.000000,0.000000,0.000000,0.000000,0.000000,0.000000,0.000000,0.000000,0.000000,,,,,,,,,,,,,,,,,14.000000,0.000000,0.799810,-0.596741,0.059875,-0.024902,-0.079111,-0.960078,0.275424,1.129655,-14.157680,20.790812,,,,,,,,,,,,,,,,,,,,,,,,,,,,,,,,,,,,,,,,,,,,,,,,,,,,,,,,,,,,,,,,,,,,,,,,,,,,,,,,,,,,,,,,,,,,,,,,,,,,,
1738746913.610544,57.000000,0.000000,4233.974121,4276.794922,4220.000000,4258.846191,4289.871582,4299.743652,4292.051270,4222.436035,4138.461426,4014.871826,4200.897461,3052.948730,4377.563965,4426.410156,0.000000,1.000000,30.000000,,,,0.000000,0.000000,0.000000,0.000000,0.000000,0.000000,0.000000,0.000000,0.000000,0.000000,0.000000,0.000000,0.000000,0.000000,0.000000,0.000000,,,,,,,,,,,,,,,,,,,,,,,,,,,,,,,,,,,,,,,,,,,,,,,,,,,,,,,,,,,,,,,,,,,,,,,,,,,,,,,,,,,,,,,,,,,,,,,,,,,,,,,,,,,,,,,,,,,,,,,,,,,,,,,,,
1738746913.618451,58.000000,0.000000,4233.461426,4278.589844,4221.538574,4252.820313,4285.256348,4299.102539,4293.717773,4218.974121,4138.461426,4015.000000,4197.179688,3055.769287,4380.641113,4431.922852,0.000000,1.000000,30.000000,,,,0.000000,0.000000,0.000000,0.000000,0.000000,0.000000,0.000000,0.000000,0.000000,0.000000,0.000000,0.000000,0.000000,0.000000,0.000000,0.000000,,,,,,,,,,,,,,,,,,,,,,,,,,,,,,,,,,,,,,,,,,,,,,,,,,,,,,,,,,,,0.037641,0.025519,0.036531,0.011250,0.031098,0.011047,0.054308,0.011449,0.026183,0.037282,0.019091,0.021744,0.023004,0.016790,0.014830,0.035044,0.023426,0.037740,0.008441,0.019290,0.021939,0.043192,0.030471,0.027912,0.036968,0.048133,0.032268,0.016723,0.026317,0.023554,0.029291,0.027294,0.021680,0.021574,0.027635,0.038947,0.022373,0.012506,0.017942,0.018042,0.016036,0.009197,0.011147,0.014122,0.026032,0.015630,0.017609,0.025941,0.021607,0.019761,0.014784,0.012179,0.021691,0.025801,0.023362,0.029491,0.015724,0.022077,0.017471,0.021256,0.039096,0.025810,0.039358,0.016847,0.029005,0.025974,0.024011,0.034980,0.014575,0.015751
1738746913.626259,59.000000,0.000000,4233.333496,4277.051270,4223.974121,4250.641113,4286.538574,4299.743652,4292.692383,4220.769043,4141.666504,4015.256348,4198.461426,3054.871826,4378.846191,4428.461426,0.000000,1.000000,30.000000,,,,0.000000,0.000000,0.000000,0.000000,0.000000,0.000000,0.000000,0.000000,0.000000,0.000000,0.000000,0.000000,0.000000,0.000000,0.000000,0.000000,,,,,,,,,,,,,,,,,,,,,,,,,,,,,,,,,,,,,,,,,,,,,,,,,,,,,,,,,,,,,,,,,,,,,,,,,,,,,,,,,,,,,,,,,,,,,,,,,,,,,,,,,,,,,,,,,,,,,,,,,,,,,,,,,
1738746913.634167,60.000000,0.000000,4235.384766,4275.897461,4224.487305,4255.897461,4291.153809,4297.692383,4289.358887,4222.179688,4141.282227,4014.871826,4201.025879,3054.743652,4378.589844,4427.307617,0.000000,1.000000,30.000000,,,,0.000000,0.000000,0.000000,0.000000,0.000000,0.000000,0.000000,0.000000,0.000000,0.000000,0.000000,0.000000,0.000000,0.000000,0.000000,0.000000,,,,,,,,,,,,,,,,,15.000000,0.000000,0.799843,-0.596680,0.060059,-0.024841,-0.068856,-0.955683,0.278843,1.233356,-14.208578,20.728397,,,,,,,,,,,,,,,,,,,,,,,,,,,,,,,,,,,,,,,,,,,,,,,,,,,,,,,,,,,,,,,,,,,,,,,,,,,,,,,,,,,,,,,,,,,,,,,,,,,,,
1738746913.641975,61.000000,0.000000,4234.487305,4275.769043,4220.769043,4251.153809,4291.153809,4296.410156,4291.025879,4219.358887,4139.487305,4016.538574,4199.102539,3057.435791,4379.871582,4429.102539,0.000000,1.000000,30.000000,,,,0.000000,0.000000,0.000000,0.000000,0.000000,0.000000,0.000000,0.000000,0.000000,0.000000,0.000000,0.000000,0.000000,0.000000,0.000000,0.000000,,,,,,,,,,,,,,,,,,,,,,,,,,,,,,,,,,,,,,,,,,,,,,,,,,,,,,,,,,,,,,,,,,,,,,,,,,,,,,,,,,,,,,,,,,,,,,,,,,,,,,,,,,,,,,,,,,,,,,,,,,,,,,,,,
1738746913.649883,62.000000,0.000000,4232.051270,4275.128418,4219.743652,4245.897461,4287.436035,4299.102539,4293.461426,4218.846191,4143.077148,4017.820557,4196.666504,3055.000000,4379.871582,4426.282227,0.000000,1.000000,30.000000,,,,0.000000,0.000000,0.000000,0.000000,0.000000,0.000000,0.000000,0.000000,0.000000,0.000000,0.000000,0.000000,0.000000,0.000000,0.000000,0.000000,,,,,,,,,,,,,,,,,,,,,,,,,,,,,,,,,,,,,,,,,,,,,,,,,,,,,,,,,,,,,,,,,,,,,,,,,,,,,,,,,,,,,,,,,,,,,,,,,,,,,,,,,,,,,,,,,,,,,,,,,,,,,,,,,
1738746913.657691,63.000000,0.000000,4233.717773,4277.563965,4222.820313,4250.256348,4287.051270,4297.820313,4290.641113,4222.820313,4144.615234,4014.487061,4199.615234,3051.923096,4383.589844,4430.256348,0.000000,1.000000,30.000000,,,,0.000000,0.000000,0.000000,0.000000,0.000000,0.000000,0.000000,0.000000,0.000000,0.000000,0.000000,0.000000,0.000000,0.000000,0.000000,0.000000,,,,,,,,,,,,,,,,,,,,,,,,,,,,,,,,,,,,,,,,,,,,,,,,,,,,,,,,,,,,,,,,,,,,,,,,,,,,,,,,,,,,,,,,,,,,,,,,,,,,,,,,,,,,,,,,,,,,,,,,,,,,,,,,,
1738746913.665599,64.000000,0.000000,4236.153809,4277.307617,4222.051270,4250.000000,4290.512695,4296.666504,4295.000000,4225.641113,4140.512695,4012.307617,4200.512695,3053.718018,4381.410156,4426.410156,0.000000,1.000000,30.000000,,,,0.000000,0.000000,0.000000,0.000000,0.000000,0.000000,0.000000,0.000000,0.000000,0.000000,0.000000,0.000000,0.000000,0.000000,0.000000,0.000000,,,,,,,,,,,,,,,,,16.000000,0.000000,0.799850,-0.596680,0.059998,-0.024780,-0.062019,-0.971310,0.274448,1.210020,-14.037720,20.788891,,,,,,,,,,,,,,,,,,,,,,,,,,,,,,,,,,,,,,,,,,,,,,,,,,,,,,,,,,,,,,,,,,,,,,,,,,,,,,,,,,,,,,,,,,,,,,,,,,,,,
1738746913.673407,65.000000,0.000000,4235.641113,4275.256348,4220.256348,4247.179688,4289.102539,4296.922852,4297.051270,4222.692383,4139.871582,4014.871826,4200.897461,3057.307617,4381.794922,4424.615234,0.000000,1.000000,30.000000,,,,0.000000,0.000000,0.000000,0.000000,0.000000,0.000000,0.000000,0.000000,0.000000,0.000000,0.000000,0.000000,0.000000,0.000000,0.000000,0.000000,,,,,,,,,,,,,,,,,,,,,,,,,,,,,,,,,,,,,,,,,,,,,,,,,,,,,,,,,,,,,,,,,,,,,,,,,,,,,,,,,,,,,,,,,,,,,,,,,,,,,,,,,,,,,,,,,,,,,,,,,,,,,,,,,
1738746913.681315,66.000000,0.000000,4235.000000,4275.000000,4222.051270,4249.230957,4286.282227,4297.179688,4293.717773,4220.512695,4143.077148,4014.871826,4199.743652,3058.333252,4383.717773,4428.589844,0.000000,1.000000,30.000000,,,,0.000000,0.000000,0.000000,0.000000,0.000000,0.000000,0.000000,0.000000,0.000000,0.000000,0.000000,0.000000,0.000000,0.000000,0.000000,0.000000,,,,,,,,,,,,,,,,,,,,,,,,,,,,,,,,,,,,,,,,,,,,,,,,,,,,,,,,,,,,,,,,,,,,,,,,,,,,,,,,,,,,,,,,,,,,,,,,,,,,,,,,,,,,,,,,,,,,,,,,,,,,,,,,,
1738746913.689123,67.000000,0.000000,4236.410156,4273.461426,4222.436035,4251.153809,4287.820313,4300.000000,4295.641113,4221.794922,4141.794922,4011.538574,4198.717773,3057.051270,4380.256348,4424.230957,0.000000,1.000000,30.000000,,,,0.000000,0.000000,0.000000,0.000000,0.000000,0.000000,0.000000,0.000000,0.000000,0.000000,0.000000,0.000000,0.000000,0.000000,0.000000,0.000000,,,,,,,,,,,,,,,,,,,,,,,,,,,,,,,,,,,,,,,,,,,,,,,,,,,,,,,,,,,,,,,,,,,,,,,,,,,,,,,,,,,,,,,,,,,,,,,,,,,,,,,,,,,,,,,,,,,,,,,,,,,,,,,,,
1738746913.697031,68.000000,0.000000,4235.769043,4274.358887,4220.384766,4251.153809,4288.846191,4300.000000,4296.025879,4222.179688,4140.000000,4015.897461,4201.922852,3057.307617,4384.230957,4426.538574,0.000000,1.000000,30.000000,,,,0.000000,0.000000,0.000000,0.000000,0.000000,0.000000,0.000000,0.000000,0.000000,0.000000,0.000000,0.000000,0.000000,0.000000,0.000000,0.000000,,,,,,,,,,,,,,,,,17.000000,0.000000,0.799895,-0.596619,0.059998,-0.024780,-0.076670,-0.967892,0.290074,1.339018,-13.850615,20.826668,,,,,,,,,,,,,,,,,,,,,,,,,,,,,,,,,,,,,,,,,,,,,,,,,,,,,,,,,,,,,,,,,,,,,,,,,,,,,,,,,,,,,,,,,,,,,,,,,,,,,
1738746913.704839,69.000000,0.000000,4233.205078,4277.692383,4223.461426,4249.871582,4287.179688,4297.563965,4295.512695,4222.307617,4142.179688,4022.564209,4198.974121,3057.179443,4383.589844,4425.128418,0.000000,1.000000,30.000000,,,,0.000000,0.000000,0.000000,0.000000,0.000000,0.000000,0.000000,0.000000,0.000000,0.000000,0.000000,0.000000,0.000000,0.000000,0.000000,0.000000,,,,,,,,,,,,,,,,,,,,,,,,,,,,,,,,,,,,,,,,,,,,,,,,,,,,,,,,,,,,,,,,,,,,,,,,,,,,,,,,,,,,,,,,,,,,,,,,,,,,,,,,,,,,,,,,,,,,,,,,,,,,,,,,,
1738746913.712746,70.000000,0.000000,4235.641113,4278.333496,4225.256348,4248.205078,4287.307617,4296.282227,4296.666504,4222.948730,4142.051270,4018.205078,4195.641113,3057.051270,4379.102539,4423.333496,0.000000,1.000000,30.000000,,,,0.000000,0.000000,0.000000,0.000000,0.000000,0.000000,0.000000,0.000000,0.000000,0.000000,0.000000,0.000000,0.000000,0.000000,0.000000,0.000000,,,,,,,,,,,,,,,,,,,,,,,,,,,,,,,,,,,,,,,,,,,,,,,,,,,,,,,,,,,,,,,,,,,,,,,,,,,,,,,,,,,,,,,,,,,,,,,,,,,,,,,,,,,,,,,,,,,,,,,,,,,,,,,,,
1738746913.720554,71.000000,0.000000,4238.205078,4275.897461,4223.077148,4250.897461,4287.179688,4297.563965,4294.102539,4222.692383,4139.743652,4011.025635,4198.846191,3057.179443,4382.307617,4427.820313,0.000000,1.000000,30.000000,,,,0.000000,0.000000,0.000000,0.000000,0.000000,0.000000,0.000000,0.000000,0.000000,0.000000,0.000000,0.000000,0.000000,0.000000,0.000000,0.000000,,,,,,,,,,,,,,,,,,,,,,,,,,,,,,,,,,,,,,,,,,,,,,,,,,,,,,,,,,,,,,,,,,,,,,,,,,,,,,,,,,,,,,,,,,,,,,,,,,,,,,,,,,,,,,,,,,,,,,,,,,,,,,,,,
1738746913.728262,72.000000,0.000000,4235.512695,4275.769043,4223.717773,4254.230957,4285.512695,4299.615234,4291.282227,4223.589844,4141.922852,4013.461426,4198.077148,3056.153809,4381.922852,4424.487305,0.000000,1.000000,30.000000,,,,0.000000,0.000000,0.000000,0.000000,0.000000,0.000000,0.000000,0.000000,0.000000,0.000000,0.000000,0.000000,0.000000,0.000000,0.000000,0.000000,,,,,,,,,,,,,,,,,18.000000,0.000000,0.799845,-0.596680,0.060059,-0.024780,-0.073251,-0.965450,0.283238,1.288450,-13.865553,20.827333,,,,,,,,,,,,,,,,,,,,,,,,,,,,,,,,,,,,,,,,,,,,,,,,,,,,,,,,,,,,,,,,,,,,,,,,,,,,,,,,,,,,,,,,,,,,,,,,,,,,,
1738746913.736170,73.000000,0.000000,4234.871582,4277.051270,4222.563965,4251.282227,4287.692383,4297.820313,4292.563965,4223.846191,4144.615234,4015.897461,4199.615234,3056.794922,4381.794922,4429.615234,0.000000,1.000000,30.000000,,,,0.000000,0.000000,0.000000,0.000000,0.000000,0.000000,0.000000,0.000000,0.000000,0.000000,0.000000,0.000000,0.000000,0.000000,0.000000,0.000000,,,,,,,,,,,,,,,,,,,,,,,,,,,,,,,,,,,,,,,,,,,,,,,,,,,,,,,,,,,,,,,,,,,,,,,,,,,,,,,,,,,,,,,,,,,,,,,,,,,,,,,,,,,,,,,,,,,,,,,,,,,,,,,,,
1738746913.743978,74.000000,0.000000,4235.769043,4276.025879,4222.820313,4253.205078,4290.641113,4297.051270,4297.051270,4223.333496,4143.205078,4012.564209,4201.922852,3057.435791,4381.666504,4429.487305,0.000000,1.000000,30.000000,,,,0.000000,0.000000,0.000000,0.000000,0.000000,0.000000,0.000000,0.000000,0.000000,0.000000,0.000000,0.000000,0.000000,0.000000,0.000000,0.000000,,,,,,,,,,,,,,,,,,,,,,,,,,,,,,,,,,,,,,,,,,,,,,,,,,,,,,,,,,,,0.031709,0.022600,0.041527,0.010376,0.033190,0.011524,0.051333,0.012001,0.030171,0.037615,0.017468,0.026235,0.025257,0.016757,0.015376,0.033252,0.024508,0.039598,0.008044,0.021155,0.022205,0.030519,0.031913,0.028003,0.036890,0.048438,0.029756,0.013793,0.021718,0.021320,0.026630,0.024415,0.022404,0.019993,0.027042,0.035772,0.020472,0.013079,0.016354,0.018874,0.014581,0.007598,0.012294,0.014281,0.022426,0.019798,0.015619,0.026829,0.020886,0.020120,0.014373,0.016175,0.020808,0.023935,0.025049,0.028114,0.015128,0.021891,0.017924,0.023313,0.035379,0.023479,0.029248,0.015676,0.029305,0.026156,0.029994,0.033560,0.017864,0.014695
1738746913.751886,75.000000,0.000000,4235.641113,4276.282227,4225.384766,4254.102539,4287.820313,4297.692383,4295.897461,4222.820313,4142.820313,4013.333252,4199.102539,3058.205078,4383.077148,4423.717773,0.000000,1.000000,30.000000,,,,0.000000,0.000000,0.000000,0.000000,0.000000,0.000000,0.000000,0.000000,0.000000,0.000000,0.000000,0.000000,0.000000,0.000000,0.000000,0.000000,,,,,,,,,,,,,,,,,,,,,,,,,,,,,,,,,,,,,,,,,,,,,,,,,,,,,,,,,,,,,,,,,,,,,,,,,,,,,,,,,,,,,,,,,,,,,,,,,,,,,,,,,,,,,,,,,,,,,,,,,,,,,,,,,
1738746913.759694,76.000000,0.000000,4236.153809,4278.077148,4223.205078,4253.589844,4285.512695,4297.307617,4292.563965,4221.922852,4143.717773,4016.666748,4198.974121,3056.923096,4385.384766,4429.743652,0.000000,1.000000,30.000000,,,,0.000000,0.000000,0.000000,0.000000,0.000000,0.000000,0.000000,0.000000,0.000000,0.000000,0.000000,0.000000,0.000000,0.000000,0.000000,0.000000,,,,,,,,,,,,,,,,,19.000000,0.000000,0.799842,-0.596680,0.060120,-0.024719,-0.063484,-0.967403,0.284214,1.209605,-13.812331,20.794601,,,,,,,,,,,,,,,,,,,,,,,,,,,,,,,,,,,,,,,,,,,,,,,,,,,,,,,,,,,,,,,,,,,,,,,,,,,,,,,,,,,,,,,,,,,,,,,,,,,,,
1738746913.767502,77.000000,0.000000,4235.384766,4278.205078,4220.512695,4255.769043,4288.974121,4297.307617,4296.153809,4223.846191,4143.974121,4015.384521,4199.871582,3051.794922,4381.538574,4426.410156,0.000000,1.000000,30.000000,,,,0.000000,0.000000,0.000000,0.000000,0.000000,0.000000,0.000000,0.000000,0.000000,0.000000,0.000000,0.000000,0.000000,0.000000,0.000000,0.000000,,,,,,,,,,,,,,,,,,,,,,,,,,,,,,,,,,,,,,,,,,,,,,,,,,,,,,,,,,,,,,,,,,,,,,,,,,,,,,,,,,,,,,,,,,,,,,,,,,,,,,,,,,,,,,,,,,,,,,,,,,,,,,,,,
1738746913.775210,78.000000,0.000000,4234.487305,4278.717773,4221.025879,4253.333496,4290.128418,4297.436035,4295.769043,4223.205078,4142.436035,4013.461426,4199.487305,3055.897461,4384.615234,4425.512695,0.000000,1.000000,30.000000,,,,0.000000,0.000000,0.000000,0.000000,0.000000,0.000000,0.000000,0.000000,0.000000,0.000000,0.000000,0.000000,0.000000,0.000000,0.000000,0.000000,,,,,,,,,,,,,,,,,,,,,,,,,,,,,,,,,,,,,,,,,,,,,,,,,,,,,,,,,,,,,,,,,,,,,,,,,,,,,,,,,,,,,,,,,,,,,,,,,,,,,,,,,,,,,,,,,,,,,,,,,,,,,,,,,
1738746913.783018,79.000000,0.000000,4233.589844,4277.051270,4222.563965,4254.230957,4288.461426,4297.436035,4294.230957,4220.256348,4140.384766,4014.615479,4199.615234,3059.615479,4385.384766,4427.563965,0.000000,1.000000,30.000000,,,,0.000000,0.000000,0.000000,0.000000,0.000000,0.000000,0.000000,0.000000,0.000000,0.000000,0.000000,0.000000,0.000000,0.000000,0.000000,0.000000,,,,,,,,,,,,,,,,,,,,,,,,,,,,,,,,,,,,,,,,,,,,,,,,,,,,,,,,,,,,,,,,,,,,,,,,,,,,,,,,,,,,,,,,,,,,,,,,,,,,,,,,,,,,,,,,,,,,,,,,,,,,,,,,,
1738746913.790726,80.000000,0.000000,4233.974121,4272.563965,4224.102539,4257.051270,4289.102539,4297.563965,4297.179688,4220.128418,4141.410156,4015.128174,4200.256348,3054.615479,4380.128418,4424.230957,0.000000,1.000000,30.000000,,,,0.000000,0.000000,0.000000,0.000000,0.000000,0.000000,0.000000,0.000000,0.000000,0.000000,0.000000,0.000000,0.000000,0.000000,0.000000,0.000000,,,,,,,,,,,,,,,,,20.000000,0.000000,0.799793,-0.596741,0.060120,-0.024841,-0.069344,-0.961543,0.280796,1.288644,-13.881098,20.965141,,,,,,,,,,,,,,,,,,,,,,,,,,,,,,,,,,,,,,,,,,,,,,,,,,,,,,,,,,,,,,,,,,,,,,,,,,,,,,,,,,,,,,,,,,,,,,,,,,,,,
1738746913.798534,81.000000,0.000000,4236.410156,4272.563965,4224.743652,4255.384766,4289.102539,4298.205078,4295.128418,4221.794922,4143.846191,4016.281982,4201.025879,3055.128174,4384.487305,4428.589844,0.000000,1.000000,30.000000,,,,0.000000,0.000000,0.000000,0.000000,0.000000,0.000000,0.000000,0.000000,0.000000,0.000000,0.000000,0.000000,0.000000,0.000000,0.000000,0.000000,,,,,,,,,,,,,,,,,,,,,,,,,,,,,,,,,,,,,,,,,,,,,,,,,,,,,,,,,,,,,,,,,,,,,,,,,,,,,,,,,,,,,,,,,,,,,,,,,,,,,,,,,,,,,,,,,,,,,,,,,,,,,,,,,
1738746913.806242,82.000000,0.000000,4236.025879,4274.487305,4223.717773,4254.358887,4289.487305,4298.333496,4294.358887,4222.563965,4144.743652,4018.333252,4200.000000,3057.692383,4384.358887,4428.077148,0.000000,1.000000,30.000000,,,,0.000000,0.000000,0.000000,0.000000,0.000000,0.000000,0.000000,0.000000,0.000000,0.000000,0.000000,0.000000,0.000000,0.000000,0.000000,0.000000,,,,,,,,,,,,,,,,,,,,,,,,,,,,,,,,,,,,,,,,,,,,,,,,,,,,,,,,,,,,,,,,,,,,,,,,,,,,,,,,,,,,,,,,,,,,,,,,,,,,,,,,,,,,,,,,,,,,,,,,,,,,,,,,,
1738746913.814050,83.000000,0.000000,4234.230957,4275.128418,4220.769043,4254.615234,4291.153809,4296.025879,4296.538574,4220.384766,4142.692383,4020.641113,4202.948730,3058.461426,4383.333496,4429.102539,0.000000,1.000000,30.000000,,,,0.000000,0.000000,0.000000,0.000000,0.000000,0.000000,0.000000,0.000000,0.000000,0.000000,0.000000,0.000000,0.000000,0.000000,0.000000,0.000000,,,,,,,,,,,,,,,,,,,,,,,,,,,,,,,,,,,,,,,,,,,,,,,,,,,,,,,,,,,,,,,,,,,,,,,,,,,,,,,,,,,,,,,,,,,,,,,,,,,,,,,,,,,,,,,,,,,,,,,,,,,,,,,,,
1738746913.821758,84.000000,0.000000,4236.282227,4276.794922,4220.000000,4252.179688,4291.282227,4297.563965,4294.743652,4220.384766,4141.538574,4019.743652,4204.615234,3059.871826,4384.743652,4430.000000,0.000000,1.000000,30.000000,,,,0.000000,0.000000,0.000000,0.000000,0.000000,0.000000,0.000000,0.000000,0.000000,0.000000,0.000000,0.000000,0.000000,0.000000,0.000000,0.000000,,,,,,,,,,,,,,,,,21.000000,0.000000,0.799737,-0.596802,0.060181,-0.025024,-0.063484,-0.956660,0.283238,1.293113,-13.909655,21.001961,,,,,,,,,,,,,,,,,,,,,,,,,,,,,,,,,,,,,,,,,,,,,,,,,,,,,,,,,,,,,,,,,,,,,,,,,,,,,,,,,,,,,,,,,,,,,,,,,,,,,
1738746913.829566,85.000000,0.000000,4238.077148,4277.948730,4223.717773,4253.589844,4290.384766,4300.128418,4291.410156,4222.307617,4142.179688,4013.718018,4200.641113,3057.820557,4382.307617,4424.871582,0.000000,1.000000,30.000000,,,,0.000000,0.000000,0.000000,0.000000,0.000000,0.000000,0.000000,0.000000,0.000000,0.000000,0.000000,0.000000,0.000000,0.000000,0.000000,0.000000,,,,,,,,,,,,,,,,,,,,,,,,,,,,,,,,,,,,,,,,,,,,,,,,,,,,,,,,,,,,,,,,,,,,,,,,,,,,,,,,,,,,,,,,,,,,,,,,,,,,,,,,,,,,,,,,,,,,,,,,,,,,,,,,,
1738746913.837274,86.000000,0.000000,4235.384766,4277.307617,4224.487305,4254.871582,4288.333496,4297.436035,4290.384766,4220.256348,4143.974121,4015.512939,4199.358887,3056.794922,4384.102539,4430.256348,0.000000,1.000000,30.000000,,,,0.000000,0.000000,0.000000,0.000000,0.000000,0.000000,0.000000,0.000000,0.000000,0.000000,0.000000,0.000000,0.000000,0.000000,0.000000,0.000000,,,,,,,,,,,,,,,,,,,,,,,,,,,,,,,,,,,,,,,,,,,,,,,,,,,,,,,,,,,,,,,,,,,,,,,,,,,,,,,,,,,,,,,,,,,,,,,,,,,,,,,,,,,,,,,,,,,,,,,,,,,,,,,,,
1738746913.845082,87.000000,0.000000,4235.000000,4276.538574,4220.384766,4247.307617,4287.563965,4296.282227,4294.615234,4220.641113,4145.000000,4021.410156,4198.589844,3056.666748,4380.769043,4426.794922,0.000000,1.000000,30.000000,,,,0.000000,0.000000,0.000000,0.000000,0.000000,0.000000,0.000000,0.000000,0.000000,0.000000,0.000000,0.000000,0.000000,0.000000,0.000000,0.000000,,,,,,,,,,,,,,,,,,,,,,,,,,,,,,,,,,,,,,,,,,,,,,,,,,,,,,,,,,,,,,,,,,,,,,,,,,,,,,,,,,,,,,,,,,,,,,,,,,,,,,,,,,,,,,,,,,,,,,,,,,,,,,,,,
1738746913.852790,88.000000,0.000000,4237.179688,4277.820313,4220.512695,4246.153809,4290.897461,4299.487305,4295.769043,4224.871582,4142.179688,4017.692383,4201.025879,3056.538574,4380.384766,4422.436035,0.000000,1.000000,30.000000,,,,0.000000,0.000000,0.000000,0.000000,0.000000,0.000000,0.000000,0.000000,0.000000,0.000000,0.000000,0.000000,0.000000,0.000000,0.000000,0.000000,,,,,,,,,,,,,,,,,22.000000,0.000000,0.799742,-0.596802,0.060120,-0.025024,-0.066903,-0.956171,0.272494,1.213802,-13.935356,21.035097,,,,,,,,,,,,,,,,,,,,,,,,,,,,,,,,,,,,,,,,,,,,,,,,,,,,,,,,,,,,,,,,,,,,,,,,,,,,,,,,,,,,,,,,,,,,,,,,,,,,,
1738746913.860698,89.000000,0.000000,4236.794922,4277.948730,4224.743652,4254.487305,4291.538574,4299.487305,4292.436035,4224.615234,4141.025879,4016.025635,4205.256348,3057.692383,4386.282227,4429.871582,0.000000,1.000000,30.000000,,,,0.000000,0.000000,0.000000,0.000000,0.000000,0.000000,0.000000,0.000000,0.000000,0.000000,0.000000,0.000000,0.000000,0.000000,0.000000,0.000000,,,,,,,,,,,,,,,,,,,,,,,,,,,,,,,,,,,,,,,,,,,,,,,,,,,,,,,,,,,,,,,,,,,,,,,,,,,,,,,,,,,,,,,,,,,,,,,,,,,,,,,,,,,,,,,,,,,,,,,,,,,,,,,,,
1738746913.868506,90.000000,0.000000,4235.000000,4276.666504,4225.384766,4256.282227,4288.461426,4296.282227,4294.102539,4223.717773,4143.205078,4018.718018,4201.922852,3059.487061,4383.333496,4428.205078,0.000000,1.000000,30.000000,,,,0.000000,0.000000,0.000000,0.000000,0.000000,0.000000,0.000000,0.000000,0.000000,0.000000,0.000000,0.000000,0.000000,0.000000,0.000000,0.000000,1.000000,0.000000,0.000000,0.000000,0.000000,0.000000,0.000000,0.000000,0.000000,0.000000,0.000000,0.000000,0.000000,0.000000,0.000000,0.000000,,,,,,,,,,,,,,,,,,,,,,,,,,,,,,,,,,,,,,,,,,,,0.024891,0.018937,0.044190,0.010341,0.033770,0.013447,0.045229,0.012590,0.033487,0.036802,0.014988,0.031435,0.027540,0.015768,0.016365,0.029607,0.025197,0.039171,0.007837,0.022562,0.023153,0.020517,0.034244,0.026819,0.036167,0.048240,0.027043,0.013464,0.017411,0.019531,0.026261,0.020998,0.022830,0.019395,0.025762,0.030234,0.018437,0.014107,0.014630,0.020516,0.013041,0.006726,0.015243,0.013606,0.018876,0.027146,0.013156,0.027545,0.019259,0.020868,0.013065,0.019030,0.020002,0.022216,0.026799,0.026976,0.015299,0.019880,0.018721,0.024247,0.029790,0.022955,0.021212,0.014343,0.029282,0.026964,0.034491,0.031706,0.021627,0.014216
1738746913.876414,91.000000,0.000000,4236.410156,4277.179688,4221.922852,4251.922852,4288.333496,4297.436035,4295.769043,4223.589844,4142.948730,4016.923096,4201.410156,3059.102539,4384.102539,4430.769043,0.000000,1.000000,30.000000,,,,0.000000,0.000000,0.000000,0.000000,0.000000,0.000000,0.000000,0.000000,0.000000,0.000000,0.000000,0.000000,0.000000,0.000000,0.000000,0.000000,,,,,,,,,,,,,,,,,,,,,,,,,,,,,,,,,,,,,,,,,,,,,,,,,,,,,,,,,,,,,,,,,,,,,,,,,,,,,,,,,,,,,,,,,,,,,,,,,,,,,,,,,,,,,,,,,,,,,,,,,,,,,,,,,
1738746913.884222,92.000000,0.000000,4236.282227,4276.410156,4220.256348,4253.589844,4290.641113,4303.846191,4295.128418,4222.179688,4141.153809,4016.410156,4203.846191,3056.410156,4384.358887,4432.307617,0.000000,1.000000,30.000000,,,,0.000000,0.000000,0.000000,0.000000,0.000000,0.000000,0.000000,0.000000,0.000000,0.000000,0.000000,0.000000,0.000000,0.000000,0.000000,0.000000,,,,,,,,,,,,,,,,,23.000000,0.000000,0.799736,-0.596802,0.060242,-0.024902,-0.078135,-0.965450,0.277378,1.225755,-14.058487,20.981588,,,,,,,,,,,,,,,,,,,,,,,,,,,,,,,,,,,,,,,,,,,,,,,,,,,,,,,,,,,,,,,,,,,,,,,,,,,,,,,,,,,,,,,,,,,,,,,,,,,,,
1738746913.892130,93.000000,0.000000,4232.820313,4276.025879,4220.384766,4255.384766,4291.025879,4303.974121,4293.846191,4224.358887,4141.410156,4018.076904,4203.205078,3057.179443,4381.410156,4429.871582,0.000000,1.000000,30.000000,,,,0.000000,0.000000,0.000000,0.000000,0.000000,0.000000,0.000000,0.000000,0.000000,0.000000,0.000000,0.000000,0.000000,0.000000,0.000000,0.000000,,,,,,,,,,,,,,,,,,,,,,,,,,,,,,,,,,,,,,,,,,,,,,,,,,,,,,,,,,,,,,,,,,,,,,,,,,,,,,,,,,,,,,,,,,,,,,,,,,,,,,,,,,,,,,,,,,,,,,,,,,,,,,,,,
1738746913.899938,94.000000,0.000000,4233.846191,4277.051270,4220.512695,4253.717773,4292.820313,4297.179688,4294.358887,4226.666504,4141.922852,4020.128174,4201.794922,3056.666748,4383.333496,4431.666504,0.000000,1.000000,30.000000,,,,0.000000,0.000000,0.000000,0.000000,0.000000,0.000000,0.000000,0.000000,0.000000,0.000000,0.000000,0.000000,0.000000,0.000000,0.000000,0.000000,,,,,,,,,,,,,,,,,,,,,,,,,,,,,,,,,,,,,,,,,,,,,,,,,,,,,,,,,,,,,,,,,,,,,,,,,,,,,,,,,,,,,,,,,,,,,,,,,,,,,,,,,,,,,,,,,,,,,,,,,,,,,,,,,
1738746913.907846,95.000000,0.000000,4236.410156,4277.820313,4222.307617,4256.538574,4294.230957,4296.666504,4296.794922,4222.948730,4143.077148,4022.179443,4200.384766,3054.871826,4382.307617,4427.179688,0.000000,1.000000,30.000000,,,,0.000000,0.000000,0.000000,0.000000,0.000000,0.000000,0.000000,0.000000,0.000000,0.000000,0.000000,0.000000,0.000000,0.000000,0.000000,0.000000,,,,,,,,,,,,,,,,,,,,,,,,,,,,,,,,,,,,,,,,,,,,,,,,,,,,,,,,,,,,,,,,,,,,,,,,,,,,,,,,,,,,,,,,,,,,,,,,,,,,,,,,,,,,,,,,,,,,,,,,,,,,,,,,,
1738746913.915654,96.000000,0.000000,4238.205078,4277.820313,4224.743652,4256.922852,4290.769043,4299.230957,4293.717773,4219.230957,4142.436035,4019.743652,4201.922852,3060.000000,4384.358887,4429.871582,0.000000,1.000000,30.000000,,,,0.000000,0.000000,0.000000,0.000000,0.000000,0.000000,0.000000,0.000000,0.000000,0.000000,0.000000,0.000000,0.000000,0.000000,0.000000,0.000000,,,,,,,,,,,,,,,,,24.000000,0.000000,0.799736,-0.596802,0.060242,-0.024902,-0.080088,-0.966427,0.274936,1.219846,-13.969305,20.966763,,,,,,,,,,,,,,,,,,,,,,,,,,,,,,,,,,,,,,,,,,,,,,,,,,,,,,,,,,,,,,,,,,,,,,,,,,,,,,,,,,,,,,,,,,,,,,,,,,,,,
1738746913.923362,97.000000,0.000000,4238.589844,4276.282227,4225.769043,4255.769043,4291.410156,4300.000000,4293.333496,4222.436035,4141.282227,4015.641113,4202.436035,3061.410156,4385.769043,4429.743652,0.000000,1.000000,30.000000,,,,0.000000,0.000000,0.000000,0.000000,0.000000,0.000000,0.000000,0.000000,0.000000,0.000000,0.000000,0.000000,0.000000,0.000000,0.000000,0.000000,,,,,,,,,,,,,,,,,,,,,,,,,,,,,,,,,,,,,,,,,,,,,,,,,,,,,,,,,,,,,,,,,,,,,,,,,,,,,,,,,,,,,,,,,,,,,,,,,,,,,,,,,,,,,,,,,,,,,,,,,,,,,,,,,
1738746913.931170,98.000000,0.000000,4236.282227,4275.641113,4223.461426,4255.769043,4292.563965,4299.487305,4295.512695,4223.461426,4143.974121,4019.230713,4202.820313,3056.666748,4382.948730,4426.153809,0.000000,1.000000,30.000000,,,,0.000000,0.000000,0.000000,0.000000,0.000000,0.000000,0.000000,0.000000,0.000000,0.000000,0.000000,0.000000,0.000000,0.000000,0.000000,0.000000,,,,,,,,,,,,,,,,,,,,,,,,,,,,,,,,,,,,,,,,,,,,,,,,,,,,,,,,,,,,,,,,,,,,,,,,,,,,,,,,,,,,,,,,,,,,,,,,,,,,,,,,,,,,,,,,,,,,,,,,,,,,,,,,,
1738746913.938878,99.000000,0.000000,4236.282227,4277.307617,4220.641113,4254.871582,4288.717773,4298.974121,4293.461426,4220.000000,4145.897461,4024.487061,4204.487305,3056.666748,4383.205078,4431.666504,0.000000,1.000000,30.000000,,,,0.000000,0.000000,0.000000,0.000000,0.000000,0.000000,0.000000,0.000000,0.000000,0.000000,0.000000,0.000000,0.000000,0.000000,0.000000,0.000000,,,,,,,,,,,,,,,,,,,,,,,,,,,,,,,,,,,,,,,,,,,,,,,,,,,,,,,,,,,,,,,,,,,,,,,,,,,,,,,,,,,,,,,,,,,,,,,,,,,,,,,,,,,,,,,,,,,,,,,,,,,,,,,,,
1738746913.946686,100.000000,0.000000,4238.589844,4277.051270,4221.282227,4255.641113,4288.461426,4300.897461,4296.025879,4220.897461,4143.333496,4020.256348,4201.153809,3056.666748,4379.487305,4429.102539,0.000000,1.000000,30.000000,,,,0.000000,0.000000,0.000000,0.000000,0.000000,0.000000,0.000000,0.000000,0.000000,0.000000,0.000000,0.000000,0.000000,0.000000,0.000000,0.000000,,,,,,,,,,,,,,,,,25.000000,0.000000,0.799698,-0.596863,0.060120,-0.024963,-0.062019,-0.966427,0.276401,1.397862,-13.955708,21.053419,,,,,,,,,,,,,,,,,,,,,,,,,,,,,,,,,,,,,,,,,,,,,,,,,,,,,,,,,,,,,,,,,,,,,,,,,,,,,,,,,,,,,,,,,,,,,,,,,,,,,
1738746913.954394,101.000000,0.000000,4239.230957,4276.922852,4221.282227,4256.410156,4291.922852,4300.128418,4298.461426,4221.794922,4143.333496,4015.384521,4200.128418,3057.179443,4381.794922,4430.641113,0.000000,1.000000,30.000000,,,,0.000000,0.000000,0.000000,0.000000,0.000000,0.000000,0.000000,0.000000,0.000000,0.000000,0.000000,0.000000,0.000000,0.000000,0.000000,0.000000,,,,,,,,,,,,,,,,,,,,,,,,,,,,,,,,,,,,,,,,,,,,,,,,,,,,,,,,,,,,,,,,,,,,,,,,,,,,,,,,,,,,,,,,,,,,,,,,,,,,,,,,,,,,,,,,,,,,,,,,,,,,,,,,,
1738746913.962202,102.000000,0.000000,4237.051270,4278.077148,4223.205078,4255.256348,4291.538574,4297.820313,4297.307617,4220.256348,4148.589844,4018.333252,4201.153809,3059.230713,4386.922852,4430.256348,0.000000,1.000000,30.000000,,,,0.000000,0.000000,0.000000,0.000000,0.000000,0.000000,0.000000,0.000000,0.000000,0.000000,0.000000,0.000000,0.000000,0.000000,0.000000,0.000000,,,,,,,,,,,,,,,,,,,,,,,,,,,,,,,,,,,,,,,,,,,,,,,,,,,,,,,,,,,,,,,,,,,,,,,,,,,,,,,,,,,,,,,,,,,,,,,,,,,,,,,,,,,,,,,,,,,,,,,,,,,,,,,,,
1738746913.969910,103.000000,0.000000,4237.051270,4277.179688,4225.512695,4255.769043,4289.615234,4298.846191,4295.000000,4222.307617,4148.205078,4019.871826,4199.358887,3059.358887,4384.743652,4426.538574,0.000000,1.000000,30.000000,,,,0.000000,0.000000,0.000000,0.000000,0.000000,0.000000,0.000000,0.000000,0.000000,0.000000,0.000000,0.000000,0.000000,0.000000,0.000000,0.000000,,,,,,,,,,,,,,,,,,,,,,,,,,,,,,,,,,,,,,,,,,,,,,,,,,,,,,,,,,,,,,,,,,,,,,,,,,,,,,,,,,,,,,,,,,,,,,,,,,,,,,,,,,,,,,,,,,,,,,,,,,,,,,,,,
1738746913.977718,104.000000,0.000000,4236.282227,4276.922852,4223.717773,4256.282227,4289.743652,4300.000000,4292.436035,4223.589844,4140.897461,4016.923096,4200.000000,3057.307617,4386.922852,4434.487305,0.000000,1.000000,30.000000,,,,0.000000,0.000000,0.000000,0.000000,0.000000,0.000000,0.000000,0.000000,0.000000,0.000000,0.000000,0.000000,0.000000,0.000000,0.000000,0.000000,,,,,,,,,,,,,,,,,26.000000,0.000000,0.799651,-0.596924,0.060120,-0.025024,-0.062996,-0.960078,0.279331,1.391409,-14.026804,21.048077,,,,,,,,,,,,,,,,,,,,,,,,,,,,,,,,,,,,,,,,,,,,,,,,,,,,,,,,,,,,,,,,,,,,,,,,,,,,,,,,,,,,,,,,,,,,,,,,,,,,,
1738746913.985426,105.000000,0.000000,4234.871582,4277.051270,4224.615234,4252.692383,4290.641113,4300.384766,4295.769043,4222.051270,4140.256348,4016.794922,4201.538574,3053.205078,4387.307617,4430.128418,0.000000,1.000000,30.000000,,,,0.000000,0.000000,0.000000,0.000000,0.000000,0.000000,0.000000,0.000000,0.000000,0.000000,0.000000,0.000000,0.000000,0.000000,0.000000,0.000000,,,,,,,,,,,,,,,,,,,,,,,,,,,,,,,,,,,,,,,,,,,,,,,,,,,,,,,,,,,,,,,,,,,,,,,,,,,,,,,,,,,,,,,,,,,,,,,,,,,,,,,,,,,,,,,,,,,,,,,,,,,,,,,,,
1738746913.993234,106.000000,0.000000,4238.333496,4277.692383,4225.897461,4252.307617,4290.256348,4299.487305,4297.436035,4222.436035,4143.205078,4018.461426,4203.974121,3055.897461,4387.948730,4428.333496,0.000000,1.000000,30.000000,,,,0.000000,0.000000,0.000000,0.000000,0.000000,0.000000,0.000000,0.000000,0.000000,0.000000,0.000000,0.000000,0.000000,0.000000,0.000000,0.000000,,,,,,,,,,,,,,,,,,,,,,,,,,,,,,,,,,,,,,,,,,,,,,,,,,,,,,,,,,,,0.018734,0.015103,0.042839,0.011082,0.032768,0.016646,0.038212,0.014234,0.035251,0.034889,0.012683,0.035939,0.028312,0.014110,0.017661,0.027229,0.025753,0.036683,0.007782,0.024004,0.024909,0.014008,0.037222,0.024158,0.035544,0.048525,0.024154,0.015166,0.014435,0.018307,0.027843,0.017540,0.022673,0.019835,0.024282,0.023394,0.016698,0.015767,0.012852,0.022139,0.012524,0.006645,0.019603,0.012576,0.016228,0.037187,0.010686,0.029077,0.018028,0.023043,0.011346,0.020071,0.019751,0.021921,0.028640,0.026292,0.016284,0.016817,0.019370,0.024102,0.024124,0.025408,0.016170,0.013237,0.028332,0.028208,0.035778,0.030347,0.025022,0.014294
1738746914.000942,107.000000,0.000000,4239.358887,4279.358887,4223.205078,4255.000000,4288.461426,4298.333496,4294.358887,4223.333496,4142.179688,4018.076904,4203.974121,3060.641113,4387.820313,4432.563965,0.000000,1.000000,30.000000,,,,0.000000,0.000000,0.000000,0.000000,0.000000,0.000000,0.000000,0.000000,0.000000,0.000000,0.000000,0.000000,0.000000,0.000000,0.000000,0.000000,,,,,,,,,,,,,,,,,,,,,,,,,,,,,,,,,,,,,,,,,,,,,,,,,,,,,,,,,,,,,,,,,,,,,,,,,,,,,,,,,,,,,,,,,,,,,,,,,,,,,,,,,,,,,,,,,,,,,,,,,,,,,,,,,
1738746914.008750,108.000000,0.000000,4236.410156,4277.563965,4222.692383,4253.205078,4290.128418,4299.487305,4295.641113,4222.307617,4142.692383,4019.230713,4201.025879,3058.846191,4382.436035,4424.615234,0.000000,1.000000,30.000000,,,,0.000000,0.000000,0.000000,0.000000,0.000000,0.000000,0.000000,0.000000,0.000000,0.000000,0.000000,0.000000,0.000000,0.000000,0.000000,0.000000,,,,,,,,,,,,,,,,,27.000000,0.000000,0.799657,-0.596924,0.060059,-0.024963,-0.074716,-0.957636,0.280308,1.452268,-13.940790,21.059937,,,,,,,,,,,,,,,,,,,,,,,,,,,,,,,,,,,,,,,,,,,,,,,,,,,,,,,,,,,,,,,,,,,,,,,,,,,,,,,,,,,,,,,,,,,,,,,,,,,,,
