title:bread1, start timestamp:1738755232.205132, stop timestamp:1738755233.243609, headset type:EPOCX, headset serial:E50208A5, headset firmware:720, channels:168, sampling rate:eeg_128;mot_32;pm_0.1;pow_8, samples:134       , version:2.2, 
Timestamp,OriginalTimestamp,EEG.Counter,EEG.Interpolated,EEG.AF3,EEG.F7,EEG.F3,EEG.FC5,EEG.T7,EEG.P7,EEG.O1,EEG.O2,EEG.P8,EEG.T8,EEG.FC6,EEG.F4,EEG.F8,EEG.AF4,EEG.RawCq,EEG.Battery,EEG.BatteryPercent,MarkerIndex,MarkerType,MarkerValueInt,EEG.MarkerHardware,CQ.AF3,CQ.F7,CQ.F3,CQ.FC5,CQ.T7,CQ.P7,CQ.O1,CQ.O2,CQ.P8,CQ.T8,CQ.FC6,CQ.F4,CQ.F8,CQ.AF4,CQ.Overall,EQ.SampleRateQuality,EQ.OVERALL,EQ.AF3,EQ.F7,EQ.F3,EQ.FC5,EQ.T7,EQ.P7,EQ.O1,EQ.O2,EQ.P8,EQ.T8,EQ.FC6,EQ.F4,EQ.F8,EQ.AF4,MOT.CounterMems,MOT.InterpolatedMems,MOT.Q0,MOT.Q1,MOT.Q2,MOT.Q3,MOT.AccX,MOT.AccY,MOT.AccZ,MOT.MagX,MOT.MagY,MOT.MagZ,PM.Attention.IsActive,PM.Attention.Scaled,PM.Attention.Raw,PM.Attention.Min,PM.Attention.Max,PM.Engagement.IsActive,PM.Engagement.Scaled,PM.Engagement.Raw,PM.Engagement.Min,PM.Engagement.Max,PM.Excitement.IsActive,PM.Excitement.Scaled,PM.Excitement.Raw,PM.Excitement.Min,PM.Excitement.Max,PM.LongTermExcitement,PM.Stress.IsActive,PM.Stress.Scaled,PM.Stress.Raw,PM.Stress.Min,PM.Stress.Max,PM.Relaxation.IsActive,PM.Relaxation.Scaled,PM.Relaxation.Raw,PM.Relaxation.Min,PM.Relaxation.Max,PM.Interest.IsActive,PM.Interest.Scaled,PM.Interest.Raw,PM.Interest.Min,PM.Interest.Max,POW.AF3.Theta,POW.AF3.Alpha,POW.AF3.BetaL,POW.AF3.BetaH,POW.AF3.Gamma,POW.F7.Theta,POW.F7.Alpha,POW.F7.BetaL,POW.F7.BetaH,POW.F7.Gamma,POW.F3.Theta,POW.F3.Alpha,POW.F3.BetaL,POW.F3.BetaH,POW.F3.Gamma,POW.FC5.Theta,POW.FC5.Alpha,POW.FC5.BetaL,POW.FC5.BetaH,POW.FC5.Gamma,POW.T7.Theta,POW.T7.Alpha,POW.T7.BetaL,POW.T7.BetaH,POW.T7.Gamma,POW.P7.Theta,POW.P7.Alpha,POW.P7.BetaL,POW.P7.BetaH,POW.P7.Gamma,POW.O1.Theta,POW.O1.Alpha,POW.O1.BetaL,POW.O1.BetaH,POW.O1.Gamma,POW.O2.Theta,POW.O2.Alpha,POW.O2.BetaL,POW.O2.BetaH,POW.O2.Gamma,POW.P8.Theta,POW.P8.Alpha,POW.P8.BetaL,POW.P8.BetaH,POW.P8.Gamma,POW.T8.Theta,POW.T8.Alpha,POW.T8.BetaL,POW.T8.BetaH,POW.T8.Gamma,POW.FC6.Theta,POW.FC6.Alpha,POW.FC6.BetaL,POW.FC6.BetaH,POW.FC6.Gamma,POW.F4.Theta,POW.F4.Alpha,POW.F4.BetaL,POW.F4.BetaH,POW.F4.Gamma,POW.F8.Theta,POW.F8.Alpha,POW.F8.BetaL,POW.F8.BetaH,POW.F8.Gamma,POW.AF4.Theta,POW.AF4.Alpha,POW.AF4.BetaL,POW.AF4.BetaH,POW.AF4.Gamma
1738755232.205132,1738755232.205938,6.000000,0.000000,4323.205078,4351.922852,4251.538574,4300.769043,4351.410156,4360.128418,4365.000000,4551.538574,4537.820313,4559.102539,4496.794922,5661.153809,4312.051270,4257.692383,0.000000,4.000000,75.000000,,,,0.000000,0.000000,0.000000,0.000000,0.000000,0.000000,0.000000,0.000000,0.000000,0.000000,0.000000,0.000000,0.000000,0.000000,0.000000,0.000000,,,,,,,,,,,,,,,,,,,,,,,,,,,,,,,,,,,,,,,,,,,,,,,,,,,,,,,,,,,,,,,,,,,,,,,,,,,,,,,,,,,,,,,,,,,,,,,,,,,,,,,,,,,,,,,,,,,,,,,,,,,,,,,,,
1738755232.212940,1738755232.213846,7.000000,0.000000,4321.922852,4348.461426,4250.512695,4301.025879,4350.897461,4360.384766,4365.769043,4551.025879,4539.358887,4556.410156,4496.922852,5663.077148,4310.769043,4260.000000,0.000000,4.000000,75.000000,,,,0.000000,0.000000,0.000000,0.000000,0.000000,0.000000,0.000000,0.000000,0.000000,0.000000,0.000000,0.000000,0.000000,0.000000,0.000000,0.000000,,,,,,,,,,,,,,,,,,,,,,,,,,,,,,,,,,,,,,,,,,,,,,,,,,,,,,,,,,,,,,,,,,,,,,,,,,,,,,,,,,,,,,,,,,,,,,,,,,,,,,,,,,,,,,,,,,,,,,,,,,,,,,,,,
1738755232.220748,1738755232.221654,8.000000,0.000000,4323.717773,4348.846191,4252.051270,4299.871582,4352.820313,4362.051270,4368.333496,4550.256348,4537.692383,4557.436035,4497.436035,5663.717773,4309.615234,4257.692383,0.000000,4.000000,75.000000,,,,0.000000,0.000000,0.000000,0.000000,0.000000,0.000000,0.000000,0.000000,0.000000,0.000000,0.000000,0.000000,0.000000,0.000000,0.000000,0.000000,,,,,,,,,,,,,,,,,2.000000,0.000000,0.785237,-0.615662,-0.060730,0.026001,0.062019,-0.973263,0.234404,4.550433,-15.114241,22.480717,,,,,,,,,,,,,,,,,,,,,,,,,,,,,,,,,,,,,,,,,,,,,,,,,,,,,,,,,,,,,,,,,,,,,,,,,,,,,,,,,,,,,,,,,,,,,,,,,,,,,
1738755232.228556,1738755232.229462,9.000000,0.000000,4324.871582,4353.589844,4253.205078,4298.589844,4353.333496,4362.179688,4365.512695,4551.666504,4537.948730,4558.974121,4499.358887,5662.179688,4311.922852,4257.948730,0.000000,4.000000,75.000000,,,,0.000000,0.000000,0.000000,0.000000,0.000000,0.000000,0.000000,0.000000,0.000000,0.000000,0.000000,0.000000,0.000000,0.000000,0.000000,0.000000,,,,,,,,,,,,,,,,,,,,,,,,,,,,,,,,,,,,,,,,,,,,,,,,,,,,,,,,,,,,,,,,,,,,,,,,,,,,,,,,,,,,,,,,,,,,,,,,,,,,,,,,,,,,,,,,,,,,,,,,,,,,,,,,,
1738755232.236364,1738755232.237170,10.000000,0.000000,4323.333496,4354.358887,4253.461426,4300.641113,4352.179688,4359.871582,4363.333496,4553.846191,4538.846191,4560.000000,4497.948730,5662.692383,4311.666504,4259.230957,0.000000,4.000000,75.000000,,,,0.000000,0.000000,0.000000,0.000000,0.000000,0.000000,0.000000,0.000000,0.000000,0.000000,0.000000,0.000000,0.000000,0.000000,0.000000,0.000000,,,,,,,,,,,,,,,,,,,,,,,,,,,,,,,,,,,,,,,,,,,,,,,,,,,,,,,,,,,,,,,,,,,,,,,,,,,,,,,,,,,,,,,,,,,,,,,,,,,,,,,,,,,,,,,,,,,,,,,,,,,,,,,,,
1738755232.244172,1738755232.245078,11.000000,0.000000,4322.436035,4350.512695,4252.436035,4301.922852,4352.820313,4360.256348,4363.846191,4552.307617,4537.820313,4560.000000,4494.871582,5665.256348,4312.179688,4258.461426,0.000000,4.000000,75.000000,,,,0.000000,0.000000,0.000000,0.000000,0.000000,0.000000,0.000000,0.000000,0.000000,0.000000,0.000000,0.000000,0.000000,0.000000,0.000000,0.000000,,,,,,,,,,,,,,,,,,,,,,,,,,,,,,,,,,,,,,,,,,,,,,,,,,,,,,,,,,,,,,,,,,,,,,,,,,,,,,,,,,,,,,,,,,,,,,,,,,,,,,,,,,,,,,,,,,,,,,,,,,,,,,,,,
1738755232.251980,1738755232.252887,12.000000,0.000000,4322.563965,4348.846191,4251.025879,4302.307617,4353.589844,4363.205078,4365.641113,4549.743652,4538.717773,4557.948730,4497.436035,5665.384766,4312.051270,4255.641113,0.000000,4.000000,75.000000,,,,0.000000,0.000000,0.000000,0.000000,0.000000,0.000000,0.000000,0.000000,0.000000,0.000000,0.000000,0.000000,0.000000,0.000000,0.000000,0.000000,,,,,,,,,,,,,,,,,3.000000,0.000000,0.785237,-0.615662,-0.060730,0.026001,0.063484,-0.962520,0.232450,4.545390,-15.086150,22.265980,,,,,,,,,,,,,,,,,,,,,,,,,,,,,,,,,,,,,,,,,,,,,,,,,,,,,,,,,,,,,,,,,,,,,,,,,,,,,,,,,,,,,,,,,,,,,,,,,,,,,
1738755232.259789,1738755232.260795,13.000000,0.000000,4321.922852,4348.974121,4251.025879,4302.948730,4350.897461,4362.051270,4366.410156,4550.897461,4539.358887,4556.153809,4502.307617,5664.615234,4309.358887,4255.897461,0.000000,4.000000,75.000000,,,,0.000000,0.000000,0.000000,0.000000,0.000000,0.000000,0.000000,0.000000,0.000000,0.000000,0.000000,0.000000,0.000000,0.000000,0.000000,0.000000,,,,,,,,,,,,,,,,,,,,,,,,,,,,,,,,,,,,,,,,,,,,,,,,,,,,,,,,,,,,,,,,,,,,,,,,,,,,,,,,,,,,,,,,,,,,,,,,,,,,,,,,,,,,,,,,,,,,,,,,,,,,,,,,,
1738755232.267597,1738755232.268603,14.000000,0.000000,4320.512695,4349.230957,4251.538574,4302.051270,4347.692383,4360.384766,4365.769043,4552.051270,4539.230957,4557.307617,4501.025879,5661.794922,4309.615234,4260.128418,0.000000,4.000000,75.000000,,,,0.000000,0.000000,0.000000,0.000000,0.000000,0.000000,0.000000,0.000000,0.000000,0.000000,0.000000,0.000000,0.000000,0.000000,0.000000,0.000000,,,,,,,,,,,,,,,,,,,,,,,,,,,,,,,,,,,,,,,,,,,,,,,,,,,,,,,,,,,,0.037641,0.018841,0.043538,0.017039,0.018611,0.022977,0.019223,0.029319,0.028356,0.017670,0.051233,0.033258,0.018699,0.010123,0.027107,0.025458,0.013935,0.037076,0.023304,0.024573,0.045448,0.043982,0.022762,0.033218,0.023851,0.023434,0.020390,0.017655,0.014612,0.020755,0.047131,0.029909,0.052354,0.025405,0.032606,0.035619,0.028949,0.020890,0.010655,0.030637,0.026317,0.021887,0.034539,0.017629,0.027343,0.008541,0.015614,0.016288,0.013456,0.017368,0.019196,0.043984,0.016973,0.015086,0.037812,0.011040,0.032155,0.058629,0.018671,0.024891,0.054444,0.089701,0.048530,0.031811,0.019668,0.016950,0.013309,0.028888,0.020925,0.030298
1738755232.275405,1738755232.276511,15.000000,0.000000,4319.615234,4350.769043,4250.769043,4300.897461,4348.589844,4361.410156,4365.641113,4550.128418,4539.487305,4558.589844,4496.282227,5660.512695,4310.641113,4257.436035,0.000000,4.000000,75.000000,,,,0.000000,0.000000,0.000000,0.000000,0.000000,0.000000,0.000000,0.000000,0.000000,0.000000,0.000000,0.000000,0.000000,0.000000,0.000000,0.000000,,,,,,,,,,,,,,,,,,,,,,,,,,,,,,,,,,,,,,,,,,,,,,,,,,,,,,,,,,,,,,,,,,,,,,,,,,,,,,,,,,,,,,,,,,,,,,,,,,,,,,,,,,,,,,,,,,,,,,,,,,,,,,,,,
1738755232.283213,1738755232.284319,16.000000,0.000000,4319.102539,4349.743652,4252.436035,4301.538574,4350.384766,4361.153809,4367.948730,4550.769043,4538.461426,4557.820313,4496.666504,5661.922852,4313.717773,4255.256348,0.000000,4.000000,75.000000,,,,0.000000,0.000000,0.000000,0.000000,0.000000,0.000000,0.000000,0.000000,0.000000,0.000000,0.000000,0.000000,0.000000,0.000000,0.000000,0.000000,,,,,,,,,,,,,,,,,4.000000,0.000000,0.785239,-0.615662,-0.060730,0.025940,0.068856,-0.974728,0.236357,4.624185,-15.160869,22.156048,,,,,,,,,,,,,,,,,,,,,,,,,,,,,,,,,,,,,,,,,,,,,,,,,,,,,,,,,,,,,,,,,,,,,,,,,,,,,,,,,,,,,,,,,,,,,,,,,,,,,
1738755232.291021,1738755232.292227,17.000000,0.000000,4321.282227,4348.589844,4254.615234,4302.307617,4349.871582,4361.666504,4373.077148,4553.846191,4538.589844,4558.205078,4499.230957,5661.538574,4314.615234,4258.589844,0.000000,4.000000,75.000000,,,,0.000000,0.000000,0.000000,0.000000,0.000000,0.000000,0.000000,0.000000,0.000000,0.000000,0.000000,0.000000,0.000000,0.000000,0.000000,0.000000,,,,,,,,,,,,,,,,,,,,,,,,,,,,,,,,,,,,,,,,,,,,,,,,,,,,,,,,,,,,,,,,,,,,,,,,,,,,,,,,,,,,,,,,,,,,,,,,,,,,,,,,,,,,,,,,,,,,,,,,,,,,,,,,,
1738755232.298829,1738755232.300036,18.000000,0.000000,4322.820313,4351.282227,4253.717773,4301.282227,4349.358887,4363.717773,4372.692383,4552.948730,4541.153809,4560.641113,4498.846191,5660.000000,4310.512695,4257.307617,0.000000,4.000000,75.000000,,,,0.000000,0.000000,0.000000,0.000000,0.000000,0.000000,0.000000,0.000000,0.000000,0.000000,0.000000,0.000000,0.000000,0.000000,0.000000,0.000000,,,,,,,,,,,,,,,,,,,,,,,,,,,,,,,,,,,,,,,,,,,,,,,,,,,,,,,,,,,,,,,,,,,,,,,,,,,,,,,,,,,,,,,,,,,,,,,,,,,,,,,,,,,,,,,,,,,,,,,,,,,,,,,,,
1738755232.306637,1738755232.307944,19.000000,0.000000,4321.025879,4351.794922,4253.974121,4300.769043,4349.230957,4361.153809,4366.410156,4551.922852,4541.025879,4561.922852,4498.589844,5661.025879,4310.769043,4257.051270,0.000000,4.000000,75.000000,,,,0.000000,0.000000,0.000000,0.000000,0.000000,0.000000,0.000000,0.000000,0.000000,0.000000,0.000000,0.000000,0.000000,0.000000,0.000000,0.000000,,,,,,,,,,,,,,,,,,,,,,,,,,,,,,,,,,,,,,,,,,,,,,,,,,,,,,,,,,,,,,,,,,,,,,,,,,,,,,,,,,,,,,,,,,,,,,,,,,,,,,,,,,,,,,,,,,,,,,,,,,,,,,,,,
1738755232.314445,1738755232.315752,20.000000,0.000000,4322.051270,4346.538574,4254.230957,4302.307617,4348.846191,4358.333496,4364.230957,4552.948730,4537.948730,4561.410156,4498.589844,5662.692383,4312.307617,4258.589844,0.000000,4.000000,75.000000,,,,0.000000,0.000000,0.000000,0.000000,0.000000,0.000000,0.000000,0.000000,0.000000,0.000000,0.000000,0.000000,0.000000,0.000000,0.000000,0.000000,,,,,,,,,,,,,,,,,5.000000,0.000000,0.785232,-0.615662,-0.060791,0.026001,0.064949,-0.964473,0.232939,4.578433,-15.178115,22.190443,,,,,,,,,,,,,,,,,,,,,,,,,,,,,,,,,,,,,,,,,,,,,,,,,,,,,,,,,,,,,,,,,,,,,,,,,,,,,,,,,,,,,,,,,,,,,,,,,,,,,
1738755232.322253,1738755232.323460,21.000000,0.000000,4323.333496,4345.512695,4252.051270,4303.974121,4350.384766,4361.025879,4365.641113,4551.282227,4539.487305,4562.307617,4497.563965,5659.615234,4312.563965,4256.922852,0.000000,4.000000,75.000000,,,,0.000000,0.000000,0.000000,0.000000,0.000000,0.000000,0.000000,0.000000,0.000000,0.000000,0.000000,0.000000,0.000000,0.000000,0.000000,0.000000,,,,,,,,,,,,,,,,,,,,,,,,,,,,,,,,,,,,,,,,,,,,,,,,,,,,,,,,,,,,,,,,,,,,,,,,,,,,,,,,,,,,,,,,,,,,,,,,,,,,,,,,,,,,,,,,,,,,,,,,,,,,,,,,,
1738755232.330062,1738755232.331268,22.000000,0.000000,4321.666504,4346.922852,4251.153809,4304.358887,4352.948730,4361.666504,4366.410156,4551.666504,4542.563965,4561.410156,4497.051270,5660.512695,4313.077148,4254.743652,0.000000,4.000000,75.000000,,,,0.000000,0.000000,0.000000,0.000000,0.000000,0.000000,0.000000,0.000000,0.000000,0.000000,0.000000,0.000000,0.000000,0.000000,0.000000,0.000000,,,,,,,,,,,,,,,,,,,,,,,,,,,,,,,,,,,,,,,,,,,,,,,,,,,,,,,,,,,,,,,,,,,,,,,,,,,,,,,,,,,,,,,,,,,,,,,,,,,,,,,,,,,,,,,,,,,,,,,,,,,,,,,,,
1738755232.337870,1738755232.338976,23.000000,0.000000,4321.153809,4345.512695,4252.051270,4302.692383,4352.563965,4359.615234,4366.153809,4553.717773,4538.717773,4557.948730,4498.333496,5664.487305,4310.897461,4256.282227,0.000000,4.000000,75.000000,,,,0.000000,0.000000,0.000000,0.000000,0.000000,0.000000,0.000000,0.000000,0.000000,0.000000,0.000000,0.000000,0.000000,0.000000,0.000000,0.000000,,,,,,,,,,,,,,,,,,,,,,,,,,,,,,,,,,,,,,,,,,,,,,,,,,,,,,,,,,,,,,,,,,,,,,,,,,,,,,,,,,,,,,,,,,,,,,,,,,,,,,,,,,,,,,,,,,,,,,,,,,,,,,,,,
1738755232.345678,1738755232.346784,24.000000,0.000000,4323.077148,4345.769043,4252.179688,4302.307617,4351.794922,4360.641113,4365.512695,4551.666504,4534.615234,4558.589844,4499.102539,5662.563965,4310.256348,4256.410156,0.000000,4.000000,75.000000,,,,0.000000,0.000000,0.000000,0.000000,0.000000,0.000000,0.000000,0.000000,0.000000,0.000000,0.000000,0.000000,0.000000,0.000000,0.000000,0.000000,,,,,,,,,,,,,,,,,6.000000,0.000000,0.785182,-0.615723,-0.060791,0.026062,0.076670,-0.966427,0.228055,4.620589,-15.143637,22.338066,,,,,,,,,,,,,,,,,,,,,,,,,,,,,,,,,,,,,,,,,,,,,,,,,,,,,,,,,,,,,,,,,,,,,,,,,,,,,,,,,,,,,,,,,,,,,,,,,,,,,
1738755232.353486,1738755232.354492,25.000000,0.000000,4323.205078,4347.692383,4251.922852,4303.461426,4351.282227,4360.769043,4366.282227,4550.641113,4536.538574,4560.256348,4496.922852,5660.897461,4309.487305,4254.230957,0.000000,4.000000,75.000000,,,,0.000000,0.000000,0.000000,0.000000,0.000000,0.000000,0.000000,0.000000,0.000000,0.000000,0.000000,0.000000,0.000000,0.000000,0.000000,0.000000,,,,,,,,,,,,,,,,,,,,,,,,,,,,,,,,,,,,,,,,,,,,,,,,,,,,,,,,,,,,,,,,,,,,,,,,,,,,,,,,,,,,,,,,,,,,,,,,,,,,,,,,,,,,,,,,,,,,,,,,,,,,,,,,,
1738755232.361294,1738755232.362300,26.000000,0.000000,4321.410156,4352.307617,4252.051270,4300.000000,4351.282227,4359.871582,4364.743652,4550.897461,4538.846191,4559.871582,4495.641113,5661.794922,4306.025879,4257.948730,0.000000,4.000000,75.000000,,,,0.000000,0.000000,0.000000,0.000000,0.000000,0.000000,0.000000,0.000000,0.000000,0.000000,0.000000,0.000000,0.000000,0.000000,0.000000,0.000000,,,,,,,,,,,,,,,,,,,,,,,,,,,,,,,,,,,,,,,,,,,,,,,,,,,,,,,,,,,,,,,,,,,,,,,,,,,,,,,,,,,,,,,,,,,,,,,,,,,,,,,,,,,,,,,,,,,,,,,,,,,,,,,,,
1738755232.369102,1738755232.370009,27.000000,0.000000,4322.051270,4355.128418,4252.692383,4298.589844,4353.589844,4360.384766,4363.461426,4549.102539,4538.077148,4559.871582,4494.871582,5662.563965,4305.384766,4258.846191,0.000000,4.000000,75.000000,,,,0.000000,0.000000,0.000000,0.000000,0.000000,0.000000,0.000000,0.000000,0.000000,0.000000,0.000000,0.000000,0.000000,0.000000,0.000000,0.000000,,,,,,,,,,,,,,,,,,,,,,,,,,,,,,,,,,,,,,,,,,,,,,,,,,,,,,,,,,,,,,,,,,,,,,,,,,,,,,,,,,,,,,,,,,,,,,,,,,,,,,,,,,,,,,,,,,,,,,,,,,,,,,,,,
1738755232.376910,1738755232.377816,28.000000,0.000000,4323.846191,4352.051270,4254.871582,4302.948730,4355.128418,4361.153809,4366.922852,4548.846191,4540.128418,4562.051270,4495.256348,5661.666504,4310.256348,4254.487305,0.000000,4.000000,75.000000,,,,0.000000,0.000000,0.000000,0.000000,0.000000,0.000000,0.000000,0.000000,0.000000,0.000000,0.000000,0.000000,0.000000,0.000000,0.000000,0.000000,,,,,,,,,,,,,,,,,7.000000,0.000000,0.785222,-0.615662,-0.060913,0.026001,0.069833,-0.977170,0.235380,4.608531,-15.079273,22.470926,,,,,,,,,,,,,,,,,,,,,,,,,,,,,,,,,,,,,,,,,,,,,,,,,,,,,,,,,,,,,,,,,,,,,,,,,,,,,,,,,,,,,,,,,,,,,,,,,,,,,
1738755232.384718,1738755232.385525,29.000000,0.000000,4324.615234,4350.641113,4256.538574,4304.358887,4352.179688,4360.641113,4369.487305,4550.512695,4541.794922,4563.333496,4498.589844,5659.743652,4311.922852,4254.487305,0.000000,4.000000,75.000000,,,,0.000000,0.000000,0.000000,0.000000,0.000000,0.000000,0.000000,0.000000,0.000000,0.000000,0.000000,0.000000,0.000000,0.000000,0.000000,0.000000,,,,,,,,,,,,,,,,,,,,,,,,,,,,,,,,,,,,,,,,,,,,,,,,,,,,,,,,,,,,,,,,,,,,,,,,,,,,,,,,,,,,,,,,,,,,,,,,,,,,,,,,,,,,,,,,,,,,,,,,,,,,,,,,,
1738755232.392526,1738755232.393333,30.000000,0.000000,4322.436035,4350.256348,4255.384766,4302.948730,4351.410156,4359.871582,4367.051270,4551.282227,4538.974121,4559.743652,4499.871582,5661.922852,4307.179688,4256.025879,0.000000,4.000000,75.000000,,,,0.000000,0.000000,0.000000,0.000000,0.000000,0.000000,0.000000,0.000000,0.000000,0.000000,0.000000,0.000000,0.000000,0.000000,0.000000,0.000000,1.000000,0.000000,0.000000,0.000000,0.000000,0.000000,0.000000,0.000000,0.000000,0.000000,0.000000,0.000000,0.000000,0.000000,0.000000,0.000000,,,,,,,,,,,,,,,,,,,,,,,,,,,,,,,,,,,,,,,,,,,,0.034330,0.016265,0.038168,0.016888,0.018763,0.027362,0.018723,0.025775,0.027542,0.018721,0.058804,0.034963,0.016571,0.010520,0.028291,0.032823,0.017606,0.035496,0.024131,0.025662,0.043207,0.034662,0.020200,0.026973,0.022817,0.024920,0.026909,0.018788,0.014938,0.023309,0.043901,0.025652,0.045925,0.029160,0.031120,0.039414,0.028553,0.020702,0.013112,0.029772,0.024077,0.021316,0.039496,0.015780,0.026154,0.009877,0.014604,0.017660,0.013988,0.017759,0.020975,0.047311,0.019755,0.016268,0.040087,0.012333,0.026541,0.060877,0.018308,0.023957,0.051464,0.087418,0.058334,0.028397,0.023685,0.016833,0.014680,0.024820,0.022717,0.031067
1738755232.400334,1738755232.401041,31.000000,0.000000,4321.153809,4349.487305,4253.461426,4302.307617,4353.205078,4360.769043,4364.871582,4550.000000,4539.743652,4558.461426,4496.025879,5665.384766,4306.025879,4256.282227,0.000000,4.000000,75.000000,,,,0.000000,0.000000,0.000000,0.000000,0.000000,0.000000,0.000000,0.000000,0.000000,0.000000,0.000000,0.000000,0.000000,0.000000,0.000000,0.000000,,,,,,,,,,,,,,,,,,,,,,,,,,,,,,,,,,,,,,,,,,,,,,,,,,,,,,,,,,,,,,,,,,,,,,,,,,,,,,,,,,,,,,,,,,,,,,,,,,,,,,,,,,,,,,,,,,,,,,,,,,,,,,,,,
1738755232.408142,1738755232.408849,32.000000,0.000000,4324.102539,4350.384766,4253.333496,4302.051270,4351.025879,4361.666504,4365.512695,4549.615234,4542.179688,4560.384766,4494.871582,5663.077148,4308.077148,4255.897461,0.000000,4.000000,75.000000,,,,0.000000,0.000000,0.000000,0.000000,0.000000,0.000000,0.000000,0.000000,0.000000,0.000000,0.000000,0.000000,0.000000,0.000000,0.000000,0.000000,,,,,,,,,,,,,,,,,8.000000,0.000000,0.785224,-0.615662,-0.060913,0.025940,0.069344,-0.981077,0.241240,4.547678,-15.088013,22.573833,,,,,,,,,,,,,,,,,,,,,,,,,,,,,,,,,,,,,,,,,,,,,,,,,,,,,,,,,,,,,,,,,,,,,,,,,,,,,,,,,,,,,,,,,,,,,,,,,,,,,
1738755232.415951,1738755232.416557,33.000000,0.000000,4324.615234,4350.128418,4254.487305,4301.666504,4350.256348,4361.153809,4365.000000,4552.436035,4540.512695,4561.025879,4498.205078,5661.794922,4308.717773,4256.282227,0.000000,4.000000,75.000000,,,,0.000000,0.000000,0.000000,0.000000,0.000000,0.000000,0.000000,0.000000,0.000000,0.000000,0.000000,0.000000,0.000000,0.000000,0.000000,0.000000,,,,,,,,,,,,,,,,,,,,,,,,,,,,,,,,,,,,,,,,,,,,,,,,,,,,,,,,,,,,,,,,,,,,,,,,,,,,,,,,,,,,,,,,,,,,,,,,,,,,,,,,,,,,,,,,,,,,,,,,,,,,,,,,,
1738755232.423759,1738755232.424365,34.000000,0.000000,4321.025879,4347.820313,4254.487305,4301.410156,4352.948730,4361.153809,4364.358887,4552.051270,4538.974121,4561.666504,4498.333496,5661.922852,4311.538574,4257.307617,0.000000,4.000000,75.000000,,,,0.000000,0.000000,0.000000,0.000000,0.000000,0.000000,0.000000,0.000000,0.000000,0.000000,0.000000,0.000000,0.000000,0.000000,0.000000,0.000000,,,,,,,,,,,,,,,,,,,,,,,,,,,,,,,,,,,,,,,,,,,,,,,,,,,,,,,,,,,,,,,,,,,,,,,,,,,,,,,,,,,,,,,,,,,,,,,,,,,,,,,,,,,,,,,,,,,,,,,,,,,,,,,,,
1738755232.431567,1738755232.432073,35.000000,0.000000,4320.128418,4346.666504,4254.487305,4302.179688,4352.051270,4361.922852,4365.512695,4550.641113,4539.743652,4563.077148,4497.051270,5662.436035,4311.025879,4255.769043,0.000000,4.000000,75.000000,,,,0.000000,0.000000,0.000000,0.000000,0.000000,0.000000,0.000000,0.000000,0.000000,0.000000,0.000000,0.000000,0.000000,0.000000,0.000000,0.000000,,,,,,,,,,,,,,,,,,,,,,,,,,,,,,,,,,,,,,,,,,,,,,,,,,,,,,,,,,,,,,,,,,,,,,,,,,,,,,,,,,,,,,,,,,,,,,,,,,,,,,,,,,,,,,,,,,,,,,,,,,,,,,,,,
1738755232.439375,1738755232.439981,36.000000,0.000000,4321.410156,4347.948730,4254.615234,4303.461426,4352.948730,4361.410156,4363.846191,4551.794922,4541.794922,4562.051270,4498.333496,5663.333496,4309.487305,4256.282227,0.000000,4.000000,75.000000,,,,0.000000,0.000000,0.000000,0.000000,0.000000,0.000000,0.000000,0.000000,0.000000,0.000000,0.000000,0.000000,0.000000,0.000000,0.000000,0.000000,,,,,,,,,,,,,,,,,9.000000,0.000000,0.785272,-0.615601,-0.060913,0.025940,0.064461,-0.969357,0.234892,4.492909,-15.129211,22.666451,,,,,,,,,,,,,,,,,,,,,,,,,,,,,,,,,,,,,,,,,,,,,,,,,,,,,,,,,,,,,,,,,,,,,,,,,,,,,,,,,,,,,,,,,,,,,,,,,,,,,
1738755232.447183,1738755232.447789,37.000000,0.000000,4320.769043,4352.820313,4254.358887,4304.487305,4357.051270,4360.897461,4361.282227,4551.538574,4542.563965,4561.538574,4497.820313,5662.563965,4312.436035,4259.230957,0.000000,4.000000,75.000000,,,,0.000000,0.000000,0.000000,0.000000,0.000000,0.000000,0.000000,0.000000,0.000000,0.000000,0.000000,0.000000,0.000000,0.000000,0.000000,0.000000,,,,,,,,,,,,,,,,,,,,,,,,,,,,,,,,,,,,,,,,,,,,,,,,,,,,,,,,,,,,,,,,,,,,,,,,,,,,,,,,,,,,,,,,,,,,,,,,,,,,,,,,,,,,,,,,,,,,,,,,,,,,,,,,,
1738755232.454991,1738755232.455697,38.000000,0.000000,4320.256348,4353.077148,4254.871582,4303.205078,4354.358887,4361.025879,4363.333496,4552.179688,4539.615234,4561.922852,4495.897461,5663.077148,4309.102539,4254.487305,0.000000,4.000000,75.000000,,,,0.000000,0.000000,0.000000,0.000000,0.000000,0.000000,0.000000,0.000000,0.000000,0.000000,0.000000,0.000000,0.000000,0.000000,0.000000,0.000000,,,,,,,,,,,,,,,,,,,,,,,,,,,,,,,,,,,,,,,,,,,,,,,,,,,,,,,,,,,,,,,,,,,,,,,,,,,,,,,,,,,,,,,,,,,,,,,,,,,,,,,,,,,,,,,,,,,,,,,,,,,,,,,,,
1738755232.462799,1738755232.463505,39.000000,0.000000,4321.538574,4349.230957,4255.897461,4301.025879,4348.205078,4361.025879,4366.282227,4553.205078,4538.974121,4559.615234,4496.538574,5661.153809,4305.769043,4249.871582,0.000000,4.000000,75.000000,,,,0.000000,0.000000,0.000000,0.000000,0.000000,0.000000,0.000000,0.000000,0.000000,0.000000,0.000000,0.000000,0.000000,0.000000,0.000000,0.000000,,,,,,,,,,,,,,,,,,,,,,,,,,,,,,,,,,,,,,,,,,,,,,,,,,,,,,,,,,,,,,,,,,,,,,,,,,,,,,,,,,,,,,,,,,,,,,,,,,,,,,,,,,,,,,,,,,,,,,,,,,,,,,,,,
1738755232.470607,1738755232.471413,40.000000,0.000000,4323.717773,4348.077148,4254.102539,4303.461426,4350.128418,4360.897461,4365.897461,4550.769043,4540.256348,4558.589844,4497.051270,5661.282227,4308.974121,4253.846191,0.000000,4.000000,75.000000,,,,0.000000,0.000000,0.000000,0.000000,0.000000,0.000000,0.000000,0.000000,0.000000,0.000000,0.000000,0.000000,0.000000,0.000000,0.000000,0.000000,,,,,,,,,,,,,,,,,10.000000,0.000000,0.785272,-0.615601,-0.060913,0.025940,0.067391,-0.974240,0.239287,4.643619,-15.166290,22.783138,,,,,,,,,,,,,,,,,,,,,,,,,,,,,,,,,,,,,,,,,,,,,,,,,,,,,,,,,,,,,,,,,,,,,,,,,,,,,,,,,,,,,,,,,,,,,,,,,,,,,
1738755232.478415,1738755232.479222,41.000000,0.000000,4323.333496,4350.256348,4252.051270,4304.230957,4353.077148,4360.641113,4364.615234,4547.436035,4538.717773,4560.769043,4496.666504,5663.333496,4310.512695,4257.692383,0.000000,4.000000,75.000000,,,,0.000000,0.000000,0.000000,0.000000,0.000000,0.000000,0.000000,0.000000,0.000000,0.000000,0.000000,0.000000,0.000000,0.000000,0.000000,0.000000,,,,,,,,,,,,,,,,,,,,,,,,,,,,,,,,,,,,,,,,,,,,,,,,,,,,,,,,,,,,,,,,,,,,,,,,,,,,,,,,,,,,,,,,,,,,,,,,,,,,,,,,,,,,,,,,,,,,,,,,,,,,,,,,,
1738755232.486224,1738755232.487130,42.000000,0.000000,4320.512695,4349.871582,4253.846191,4300.897461,4351.153809,4360.897461,4363.589844,4546.666504,4539.102539,4561.153809,4496.666504,5662.179688,4310.256348,4257.179688,0.000000,4.000000,75.000000,,,,0.000000,0.000000,0.000000,0.000000,0.000000,0.000000,0.000000,0.000000,0.000000,0.000000,0.000000,0.000000,0.000000,0.000000,0.000000,0.000000,,,,,,,,,,,,,,,,,,,,,,,,,,,,,,,,,,,,,,,,,,,,,,,,,,,,,,,,,,,,,,,,,,,,,,,,,,,,,,,,,,,,,,,,,,,,,,,,,,,,,,,,,,,,,,,,,,,,,,,,,,,,,,,,,
1738755232.494032,1738755232.494938,43.000000,0.000000,4320.128418,4349.230957,4256.153809,4302.692383,4350.641113,4362.307617,4367.307617,4548.846191,4539.743652,4558.974121,4497.051270,5661.922852,4308.333496,4255.128418,0.000000,4.000000,75.000000,,,,0.000000,0.000000,0.000000,0.000000,0.000000,0.000000,0.000000,0.000000,0.000000,0.000000,0.000000,0.000000,0.000000,0.000000,0.000000,0.000000,,,,,,,,,,,,,,,,,,,,,,,,,,,,,,,,,,,,,,,,,,,,,,,,,,,,,,,,,,,,,,,,,,,,,,,,,,,,,,,,,,,,,,,,,,,,,,,,,,,,,,,,,,,,,,,,,,,,,,,,,,,,,,,,,
1738755232.501840,1738755232.502746,44.000000,0.000000,4322.563965,4352.820313,4254.743652,4303.077148,4351.922852,4360.769043,4370.000000,4551.282227,4538.717773,4559.487305,4496.666504,5663.589844,4309.358887,4255.128418,0.000000,4.000000,75.000000,,,,0.000000,0.000000,0.000000,0.000000,0.000000,0.000000,0.000000,0.000000,0.000000,0.000000,0.000000,0.000000,0.000000,0.000000,0.000000,0.000000,,,,,,,,,,,,,,,,,11.000000,0.000000,0.785329,-0.615540,-0.060852,0.025818,0.070809,-0.982542,0.237334,4.529257,-15.032994,22.638157,,,,,,,,,,,,,,,,,,,,,,,,,,,,,,,,,,,,,,,,,,,,,,,,,,,,,,,,,,,,,,,,,,,,,,,,,,,,,,,,,,,,,,,,,,,,,,,,,,,,,
1738755232.509648,1738755232.510554,45.000000,0.000000,4323.077148,4353.333496,4249.871582,4300.384766,4352.563965,4359.615234,4365.256348,4550.769043,4540.641113,4563.077148,4496.538574,5664.871582,4309.615234,4256.025879,0.000000,4.000000,75.000000,,,,0.000000,0.000000,0.000000,0.000000,0.000000,0.000000,0.000000,0.000000,0.000000,0.000000,0.000000,0.000000,0.000000,0.000000,0.000000,0.000000,,,,,,,,,,,,,,,,,,,,,,,,,,,,,,,,,,,,,,,,,,,,,,,,,,,,,,,,,,,,,,,,,,,,,,,,,,,,,,,,,,,,,,,,,,,,,,,,,,,,,,,,,,,,,,,,,,,,,,,,,,,,,,,,,
1738755232.517456,1738755232.518263,46.000000,0.000000,4321.282227,4349.615234,4249.615234,4302.692383,4352.179688,4361.794922,4361.922852,4546.538574,4542.179688,4563.205078,4496.538574,5664.487305,4307.307617,4255.256348,0.000000,4.000000,75.000000,,,,0.000000,0.000000,0.000000,0.000000,0.000000,0.000000,0.000000,0.000000,0.000000,0.000000,0.000000,0.000000,0.000000,0.000000,0.000000,0.000000,,,,,,,,,,,,,,,,,,,,,,,,,,,,,,,,,,,,,,,,,,,,,,,,,,,,,,,,,,,,0.029301,0.013066,0.033647,0.017424,0.018923,0.032341,0.019715,0.025601,0.027535,0.019315,0.061371,0.034578,0.014759,0.012102,0.029086,0.040153,0.022226,0.032151,0.024640,0.026877,0.041173,0.025340,0.017918,0.022644,0.022321,0.024190,0.032218,0.020444,0.015776,0.025808,0.038549,0.023978,0.037947,0.031344,0.029311,0.042034,0.026976,0.019705,0.016024,0.028380,0.023221,0.022485,0.047112,0.014421,0.025090,0.011753,0.014098,0.020672,0.013916,0.018545,0.023369,0.050435,0.021469,0.016395,0.039968,0.013463,0.023794,0.061466,0.018848,0.024796,0.051262,0.082169,0.064182,0.026003,0.028494,0.019172,0.015795,0.021949,0.024182,0.031039
1738755232.525264,1738755232.526071,47.000000,0.000000,4319.487305,4347.820313,4255.384766,4302.948730,4352.692383,4362.692383,4367.436035,4548.077148,4539.871582,4560.769043,4496.025879,5662.948730,4308.846191,4253.461426,0.000000,4.000000,75.000000,,,,0.000000,0.000000,0.000000,0.000000,0.000000,0.000000,0.000000,0.000000,0.000000,0.000000,0.000000,0.000000,0.000000,0.000000,0.000000,0.000000,,,,,,,,,,,,,,,,,,,,,,,,,,,,,,,,,,,,,,,,,,,,,,,,,,,,,,,,,,,,,,,,,,,,,,,,,,,,,,,,,,,,,,,,,,,,,,,,,,,,,,,,,,,,,,,,,,,,,,,,,,,,,,,,,
1738755232.533072,1738755232.533779,48.000000,0.000000,4320.256348,4348.717773,4257.051270,4299.487305,4353.205078,4360.128418,4372.051270,4553.717773,4538.846191,4560.512695,4496.025879,5663.461426,4309.743652,4253.077148,0.000000,4.000000,75.000000,,,,0.000000,0.000000,0.000000,0.000000,0.000000,0.000000,0.000000,0.000000,0.000000,0.000000,0.000000,0.000000,0.000000,0.000000,0.000000,0.000000,,,,,,,,,,,,,,,,,12.000000,0.000000,0.785324,-0.615540,-0.060913,0.025818,0.066414,-0.974728,0.227078,4.592998,-14.913029,22.641008,,,,,,,,,,,,,,,,,,,,,,,,,,,,,,,,,,,,,,,,,,,,,,,,,,,,,,,,,,,,,,,,,,,,,,,,,,,,,,,,,,,,,,,,,,,,,,,,,,,,,
1738755232.540880,1738755232.541587,49.000000,0.000000,4323.461426,4348.589844,4252.820313,4301.666504,4353.974121,4360.512695,4365.512695,4552.307617,4540.384766,4561.025879,4497.692383,5665.000000,4308.589844,4255.000000,0.000000,4.000000,75.000000,,,,0.000000,0.000000,0.000000,0.000000,0.000000,0.000000,0.000000,0.000000,0.000000,0.000000,0.000000,0.000000,0.000000,0.000000,0.000000,0.000000,,,,,,,,,,,,,,,,,,,,,,,,,,,,,,,,,,,,,,,,,,,,,,,,,,,,,,,,,,,,,,,,,,,,,,,,,,,,,,,,,,,,,,,,,,,,,,,,,,,,,,,,,,,,,,,,,,,,,,,,,,,,,,,,,
1738755232.548688,1738755232.549295,50.000000,0.000000,4323.461426,4349.487305,4251.666504,4304.358887,4355.128418,4362.692383,4362.436035,4550.000000,4541.282227,4559.615234,4497.692383,5662.948730,4308.205078,4255.128418,0.000000,4.000000,75.000000,,,,0.000000,0.000000,0.000000,0.000000,0.000000,0.000000,0.000000,0.000000,0.000000,0.000000,0.000000,0.000000,0.000000,0.000000,0.000000,0.000000,,,,,,,,,,,,,,,,,,,,,,,,,,,,,,,,,,,,,,,,,,,,,,,,,,,,,,,,,,,,,,,,,,,,,,,,,,,,,,,,,,,,,,,,,,,,,,,,,,,,,,,,,,,,,,,,,,,,,,,,,,,,,,,,,
1738755232.556497,1738755232.557103,51.000000,0.000000,4321.410156,4351.153809,4253.077148,4302.948730,4354.615234,4362.692383,4367.948730,4552.563965,4540.897461,4559.358887,4496.153809,5661.538574,4310.256348,4255.384766,0.000000,4.000000,75.000000,,,,0.000000,0.000000,0.000000,0.000000,0.000000,0.000000,0.000000,0.000000,0.000000,0.000000,0.000000,0.000000,0.000000,0.000000,0.000000,0.000000,,,,,,,,,,,,,,,,,,,,,,,,,,,,,,,,,,,,,,,,,,,,,,,,,,,,,,,,,,,,,,,,,,,,,,,,,,,,,,,,,,,,,,,,,,,,,,,,,,,,,,,,,,,,,,,,,,,,,,,,,,,,,,,,,
1738755232.564304,1738755232.564811,52.000000,0.000000,4322.179688,4349.487305,4253.333496,4301.410156,4352.563965,4362.563965,4366.410156,4550.256348,4540.000000,4559.743652,4498.717773,5663.717773,4313.205078,4258.717773,0.000000,4.000000,75.000000,,,,0.000000,0.000000,0.000000,0.000000,0.000000,0.000000,0.000000,0.000000,0.000000,0.000000,0.000000,0.000000,0.000000,0.000000,0.000000,0.000000,,,,,,,,,,,,,,,,,13.000000,0.000000,0.785328,-0.615540,-0.060913,0.025696,0.054694,-0.969357,0.236357,4.533698,-14.971725,22.676908,,,,,,,,,,,,,,,,,,,,,,,,,,,,,,,,,,,,,,,,,,,,,,,,,,,,,,,,,,,,,,,,,,,,,,,,,,,,,,,,,,,,,,,,,,,,,,,,,,,,,
1738755232.572113,1738755232.572619,53.000000,0.000000,4323.205078,4348.205078,4254.743652,4301.410156,4353.205078,4361.538574,4362.307617,4547.436035,4539.487305,4560.512695,4498.974121,5666.794922,4311.410156,4259.615234,0.000000,4.000000,75.000000,,,,0.000000,0.000000,0.000000,0.000000,0.000000,0.000000,0.000000,0.000000,0.000000,0.000000,0.000000,0.000000,0.000000,0.000000,0.000000,0.000000,,,,,,,,,,,,,,,,,,,,,,,,,,,,,,,,,,,,,,,,,,,,,,,,,,,,,,,,,,,,,,,,,,,,,,,,,,,,,,,,,,,,,,,,,,,,,,,,,,,,,,,,,,,,,,,,,,,,,,,,,,,,,,,,,
1738755232.579921,1738755232.580327,54.000000,0.000000,4320.128418,4348.846191,4255.384766,4301.794922,4354.230957,4360.256348,4365.128418,4551.025879,4538.974121,4561.794922,4495.512695,5665.256348,4311.666504,4257.563965,0.000000,4.000000,75.000000,,,,0.000000,0.000000,0.000000,0.000000,0.000000,0.000000,0.000000,0.000000,0.000000,0.000000,0.000000,0.000000,0.000000,0.000000,0.000000,0.000000,,,,,,,,,,,,,,,,,,,,,,,,,,,,,,,,,,,,,,,,,,,,,,,,,,,,,,,,,,,,,,,,,,,,,,,,,,,,,,,,,,,,,,,,,,,,,,,,,,,,,,,,,,,,,,,,,,,,,,,,,,,,,,,,,
1738755232.587729,1738755232.588135,55.000000,0.000000,4319.743652,4348.333496,4256.025879,4302.692383,4352.820313,4361.282227,4368.333496,4552.436035,4540.000000,4560.128418,4496.410156,5660.769043,4314.487305,4257.563965,0.000000,4.000000,75.000000,,,,0.000000,0.000000,0.000000,0.000000,0.000000,0.000000,0.000000,0.000000,0.000000,0.000000,0.000000,0.000000,0.000000,0.000000,0.000000,0.000000,,,,,,,,,,,,,,,,,,,,,,,,,,,,,,,,,,,,,,,,,,,,,,,,,,,,,,,,,,,,,,,,,,,,,,,,,,,,,,,,,,,,,,,,,,,,,,,,,,,,,,,,,,,,,,,,,,,,,,,,,,,,,,,,,
1738755232.595537,1738755232.595843,56.000000,0.000000,4323.589844,4346.153809,4257.307617,4302.948730,4351.538574,4362.692383,4366.538574,4550.000000,4539.743652,4558.077148,4498.333496,5664.230957,4310.641113,4256.538574,0.000000,4.000000,75.000000,,,,0.000000,0.000000,0.000000,0.000000,0.000000,0.000000,0.000000,0.000000,0.000000,0.000000,0.000000,0.000000,0.000000,0.000000,0.000000,0.000000,,,,,,,,,,,,,,,,,14.000000,0.000000,0.785328,-0.615540,-0.060913,0.025696,0.063484,-0.979123,0.232939,4.513661,-14.941219,22.759216,,,,,,,,,,,,,,,,,,,,,,,,,,,,,,,,,,,,,,,,,,,,,,,,,,,,,,,,,,,,,,,,,,,,,,,,,,,,,,,,,,,,,,,,,,,,,,,,,,,,,
1738755232.603345,1738755232.603651,57.000000,0.000000,4321.538574,4346.794922,4254.743652,4301.538574,4350.256348,4361.922852,4365.384766,4550.897461,4537.820313,4561.153809,4499.102539,5667.692383,4307.051270,4256.282227,0.000000,4.000000,75.000000,,,,0.000000,0.000000,0.000000,0.000000,0.000000,0.000000,0.000000,0.000000,0.000000,0.000000,0.000000,0.000000,0.000000,0.000000,0.000000,0.000000,,,,,,,,,,,,,,,,,,,,,,,,,,,,,,,,,,,,,,,,,,,,,,,,,,,,,,,,,,,,,,,,,,,,,,,,,,,,,,,,,,,,,,,,,,,,,,,,,,,,,,,,,,,,,,,,,,,,,,,,,,,,,,,,,
1738755232.611153,1738755232.611359,58.000000,0.000000,4320.769043,4350.897461,4251.410156,4301.794922,4349.358887,4360.512695,4366.922852,4552.179688,4540.128418,4563.846191,4498.846191,5664.102539,4308.461426,4257.692383,0.000000,4.000000,75.000000,,,,0.000000,0.000000,0.000000,0.000000,0.000000,0.000000,0.000000,0.000000,0.000000,0.000000,0.000000,0.000000,0.000000,0.000000,0.000000,0.000000,,,,,,,,,,,,,,,,,,,,,,,,,,,,,,,,,,,,,,,,,,,,,,,,,,,,,,,,,,,,,,,,,,,,,,,,,,,,,,,,,,,,,,,,,,,,,,,,,,,,,,,,,,,,,,,,,,,,,,,,,,,,,,,,,
1738755232.618961,1738755232.619267,59.000000,0.000000,4324.871582,4352.436035,4252.948730,4302.307617,4352.179688,4361.153809,4368.077148,4551.025879,4543.846191,4562.179688,4497.948730,5662.436035,4309.871582,4257.051270,0.000000,4.000000,75.000000,,,,0.000000,0.000000,0.000000,0.000000,0.000000,0.000000,0.000000,0.000000,0.000000,0.000000,0.000000,0.000000,0.000000,0.000000,0.000000,0.000000,,,,,,,,,,,,,,,,,,,,,,,,,,,,,,,,,,,,,,,,,,,,,,,,,,,,,,,,,,,,,,,,,,,,,,,,,,,,,,,,,,,,,,,,,,,,,,,,,,,,,,,,,,,,,,,,,,,,,,,,,,,,,,,,,
1738755232.626769,1738755232.627075,60.000000,0.000000,4322.948730,4347.820313,4257.692383,4300.512695,4353.077148,4360.384766,4366.666504,4549.743652,4541.666504,4559.615234,4499.871582,5664.487305,4310.128418,4255.256348,0.000000,4.000000,75.000000,,,,0.000000,0.000000,0.000000,0.000000,0.000000,0.000000,0.000000,0.000000,0.000000,0.000000,0.000000,0.000000,0.000000,0.000000,0.000000,0.000000,,,,,,,,,,,,,,,,,15.000000,0.000000,0.785379,-0.615479,-0.060852,0.025757,0.062996,-0.974728,0.240264,4.562295,-14.930431,22.816629,,,,,,,,,,,,,,,,,,,,,,,,,,,,,,,,,,,,,,,,,,,,,,,,,,,,,,,,,,,,,,,,,,,,,,,,,,,,,,,,,,,,,,,,,,,,,,,,,,,,,
1738755232.634577,1738755232.634984,61.000000,0.000000,4321.282227,4347.051270,4258.461426,4302.436035,4352.051270,4359.615234,4366.410156,4548.846191,4537.692383,4559.615234,4499.358887,5662.820313,4309.487305,4253.974121,0.000000,4.000000,75.000000,,,,0.000000,0.000000,0.000000,0.000000,0.000000,0.000000,0.000000,0.000000,0.000000,0.000000,0.000000,0.000000,0.000000,0.000000,0.000000,0.000000,,,,,,,,,,,,,,,,,,,,,,,,,,,,,,,,,,,,,,,,,,,,,,,,,,,,,,,,,,,,,,,,,,,,,,,,,,,,,,,,,,,,,,,,,,,,,,,,,,,,,,,,,,,,,,,,,,,,,,,,,,,,,,,,,
1738755232.642386,1738755232.642792,62.000000,0.000000,4325.512695,4351.794922,4254.871582,4305.897461,4352.948730,4359.487305,4366.794922,4549.358887,4540.256348,4561.282227,4495.256348,5661.794922,4312.179688,4255.769043,0.000000,4.000000,75.000000,,,,0.000000,0.000000,0.000000,0.000000,0.000000,0.000000,0.000000,0.000000,0.000000,0.000000,0.000000,0.000000,0.000000,0.000000,0.000000,0.000000,,,,,,,,,,,,,,,,,,,,,,,,,,,,,,,,,,,,,,,,,,,,,,,,,,,,,,,,,,,,0.024680,0.010419,0.030879,0.018219,0.018741,0.036737,0.022236,0.028902,0.028565,0.019666,0.058224,0.031834,0.013175,0.014465,0.029049,0.045758,0.026363,0.028366,0.024731,0.027632,0.039734,0.017967,0.015920,0.021399,0.022148,0.021523,0.034636,0.022470,0.016739,0.027591,0.033394,0.024922,0.030938,0.031642,0.028362,0.041962,0.025156,0.017973,0.018720,0.026866,0.024013,0.024697,0.056352,0.013770,0.023761,0.013700,0.014310,0.024884,0.013262,0.019445,0.025780,0.053477,0.021428,0.015543,0.037400,0.014012,0.023999,0.059868,0.019972,0.027259,0.054964,0.076273,0.064786,0.024690,0.032645,0.022650,0.015968,0.021233,0.025221,0.030481
1738755232.650194,1738755232.650700,63.000000,0.000000,4325.512695,4351.538574,4252.436035,4302.692383,4353.974121,4360.256348,4365.641113,4550.384766,4545.128418,4561.025879,4495.512695,5662.692383,4314.102539,4258.717773,0.000000,4.000000,75.000000,,,,0.000000,0.000000,0.000000,0.000000,0.000000,0.000000,0.000000,0.000000,0.000000,0.000000,0.000000,0.000000,0.000000,0.000000,0.000000,0.000000,,,,,,,,,,,,,,,,,,,,,,,,,,,,,,,,,,,,,,,,,,,,,,,,,,,,,,,,,,,,,,,,,,,,,,,,,,,,,,,,,,,,,,,,,,,,,,,,,,,,,,,,,,,,,,,,,,,,,,,,,,,,,,,,,
1738755232.658002,1738755232.658508,64.000000,0.000000,4322.051270,4348.205078,4253.589844,4299.358887,4353.589844,4359.615234,4365.769043,4548.589844,4543.589844,4558.333496,4500.256348,5661.025879,4310.769043,4257.051270,0.000000,4.000000,75.000000,,,,0.000000,0.000000,0.000000,0.000000,0.000000,0.000000,0.000000,0.000000,0.000000,0.000000,0.000000,0.000000,0.000000,0.000000,0.000000,0.000000,,,,,,,,,,,,,,,,,16.000000,0.000000,0.785422,-0.615417,-0.060913,0.025757,0.067879,-0.963985,0.233427,4.672732,-14.987388,22.801632,,,,,,,,,,,,,,,,,,,,,,,,,,,,,,,,,,,,,,,,,,,,,,,,,,,,,,,,,,,,,,,,,,,,,,,,,,,,,,,,,,,,,,,,,,,,,,,,,,,,,
1738755232.665810,1738755232.666416,65.000000,0.000000,4322.948730,4349.743652,4255.384766,4300.769043,4351.153809,4360.000000,4364.358887,4547.179688,4538.589844,4558.589844,4501.025879,5661.538574,4309.487305,4256.025879,0.000000,4.000000,75.000000,,,,0.000000,0.000000,0.000000,0.000000,0.000000,0.000000,0.000000,0.000000,0.000000,0.000000,0.000000,0.000000,0.000000,0.000000,0.000000,0.000000,,,,,,,,,,,,,,,,,,,,,,,,,,,,,,,,,,,,,,,,,,,,,,,,,,,,,,,,,,,,,,,,,,,,,,,,,,,,,,,,,,,,,,,,,,,,,,,,,,,,,,,,,,,,,,,,,,,,,,,,,,,,,,,,,
1738755232.673618,1738755232.674224,66.000000,0.000000,4324.230957,4350.256348,4255.897461,4302.307617,4350.000000,4363.589844,4363.205078,4551.538574,4535.384766,4561.025879,4496.153809,5664.102539,4307.948730,4257.948730,0.000000,4.000000,75.000000,,,,0.000000,0.000000,0.000000,0.000000,0.000000,0.000000,0.000000,0.000000,0.000000,0.000000,0.000000,0.000000,0.000000,0.000000,0.000000,0.000000,,,,,,,,,,,,,,,,,,,,,,,,,,,,,,,,,,,,,,,,,,,,,,,,,,,,,,,,,,,,,,,,,,,,,,,,,,,,,,,,,,,,,,,,,,,,,,,,,,,,,,,,,,,,,,,,,,,,,,,,,,,,,,,,,
1738755232.681426,1738755232.682133,67.000000,0.000000,4321.666504,4347.692383,4255.641113,4300.897461,4353.589844,4362.051270,4363.846191,4553.205078,4537.948730,4560.128418,4493.846191,5661.922852,4307.436035,4257.948730,0.000000,4.000000,75.000000,,,,0.000000,0.000000,0.000000,0.000000,0.000000,0.000000,0.000000,0.000000,0.000000,0.000000,0.000000,0.000000,0.000000,0.000000,0.000000,0.000000,,,,,,,,,,,,,,,,,,,,,,,,,,,,,,,,,,,,,,,,,,,,,,,,,,,,,,,,,,,,,,,,,,,,,,,,,,,,,,,,,,,,,,,,,,,,,,,,,,,,,,,,,,,,,,,,,,,,,,,,,,,,,,,,,
1738755232.689234,1738755232.689941,68.000000,0.000000,4319.743652,4349.743652,4253.077148,4300.384766,4356.153809,4359.102539,4362.948730,4549.615234,4541.153809,4559.487305,4496.538574,5663.461426,4309.487305,4256.025879,0.000000,4.000000,75.000000,,,,0.000000,0.000000,0.000000,0.000000,0.000000,0.000000,0.000000,0.000000,0.000000,0.000000,0.000000,0.000000,0.000000,0.000000,0.000000,0.000000,,,,,,,,,,,,,,,,,17.000000,0.000000,0.785420,-0.615417,-0.060913,0.025818,0.078135,-0.981077,0.239775,4.572126,-15.021982,22.804802,,,,,,,,,,,,,,,,,,,,,,,,,,,,,,,,,,,,,,,,,,,,,,,,,,,,,,,,,,,,,,,,,,,,,,,,,,,,,,,,,,,,,,,,,,,,,,,,,,,,,
1738755232.697042,1738755232.697849,69.000000,0.000000,4321.025879,4350.000000,4251.410156,4300.769043,4351.666504,4360.897461,4363.077148,4549.743652,4541.794922,4561.538574,4499.230957,5668.077148,4308.717773,4258.846191,0.000000,4.000000,75.000000,,,,0.000000,0.000000,0.000000,0.000000,0.000000,0.000000,0.000000,0.000000,0.000000,0.000000,0.000000,0.000000,0.000000,0.000000,0.000000,0.000000,,,,,,,,,,,,,,,,,,,,,,,,,,,,,,,,,,,,,,,,,,,,,,,,,,,,,,,,,,,,,,,,,,,,,,,,,,,,,,,,,,,,,,,,,,,,,,,,,,,,,,,,,,,,,,,,,,,,,,,,,,,,,,,,,
1738755232.704850,1738755232.705657,70.000000,0.000000,4321.025879,4347.948730,4254.230957,4299.230957,4348.205078,4361.282227,4364.230957,4548.589844,4543.205078,4560.769043,4498.717773,5664.358887,4310.128418,4261.282227,0.000000,4.000000,75.000000,,,,0.000000,0.000000,0.000000,0.000000,0.000000,0.000000,0.000000,0.000000,0.000000,0.000000,0.000000,0.000000,0.000000,0.000000,0.000000,0.000000,,,,,,,,,,,,,,,,,,,,,,,,,,,,,,,,,,,,,,,,,,,,,,,,,,,,,,,,,,,,,,,,,,,,,,,,,,,,,,,,,,,,,,,,,,,,,,,,,,,,,,,,,,,,,,,,,,,,,,,,,,,,,,,,,
1738755232.712659,1738755232.713365,71.000000,0.000000,4320.512695,4350.128418,4256.794922,4302.436035,4352.820313,4360.000000,4366.025879,4546.794922,4541.538574,4557.820313,4497.436035,5661.153809,4312.692383,4257.307617,0.000000,4.000000,75.000000,,,,0.000000,0.000000,0.000000,0.000000,0.000000,0.000000,0.000000,0.000000,0.000000,0.000000,0.000000,0.000000,0.000000,0.000000,0.000000,0.000000,,,,,,,,,,,,,,,,,,,,,,,,,,,,,,,,,,,,,,,,,,,,,,,,,,,,,,,,,,,,,,,,,,,,,,,,,,,,,,,,,,,,,,,,,,,,,,,,,,,,,,,,,,,,,,,,,,,,,,,,,,,,,,,,,
1738755232.720467,1738755232.721174,72.000000,0.000000,4322.051270,4353.589844,4252.948730,4303.717773,4354.871582,4362.307617,4365.897461,4547.948730,4540.256348,4558.461426,4499.615234,5664.102539,4313.077148,4254.358887,0.000000,4.000000,75.000000,,,,0.000000,0.000000,0.000000,0.000000,0.000000,0.000000,0.000000,0.000000,0.000000,0.000000,0.000000,0.000000,0.000000,0.000000,0.000000,0.000000,,,,,,,,,,,,,,,,,18.000000,0.000000,0.785422,-0.615417,-0.060913,0.025757,0.078623,-0.984984,0.243682,4.514914,-15.036450,22.707655,,,,,,,,,,,,,,,,,,,,,,,,,,,,,,,,,,,,,,,,,,,,,,,,,,,,,,,,,,,,,,,,,,,,,,,,,,,,,,,,,,,,,,,,,,,,,,,,,,,,,
1738755232.728275,1738755232.728882,73.000000,0.000000,4321.794922,4353.846191,4251.794922,4300.769043,4352.051270,4363.205078,4363.461426,4549.102539,4541.282227,4560.384766,4500.897461,5664.615234,4312.307617,4256.153809,0.000000,4.000000,75.000000,,,,0.000000,0.000000,0.000000,0.000000,0.000000,0.000000,0.000000,0.000000,0.000000,0.000000,0.000000,0.000000,0.000000,0.000000,0.000000,0.000000,,,,,,,,,,,,,,,,,,,,,,,,,,,,,,,,,,,,,,,,,,,,,,,,,,,,,,,,,,,,,,,,,,,,,,,,,,,,,,,,,,,,,,,,,,,,,,,,,,,,,,,,,,,,,,,,,,,,,,,,,,,,,,,,,
1738755232.736083,1738755232.736690,74.000000,0.000000,4319.871582,4351.922852,4256.922852,4302.179688,4351.922852,4360.256348,4365.000000,4552.692383,4540.384766,4558.974121,4498.717773,5661.666504,4311.538574,4257.051270,0.000000,4.000000,75.000000,,,,0.000000,0.000000,0.000000,0.000000,0.000000,0.000000,0.000000,0.000000,0.000000,0.000000,0.000000,0.000000,0.000000,0.000000,0.000000,0.000000,,,,,,,,,,,,,,,,,,,,,,,,,,,,,,,,,,,,,,,,,,,,,,,,,,,,,,,,,,,,,,,,,,,,,,,,,,,,,,,,,,,,,,,,,,,,,,,,,,,,,,,,,,,,,,,,,,,,,,,,,,,,,,,,,
1738755232.743891,1738755232.744398,75.000000,0.000000,4320.128418,4349.358887,4257.179688,4303.205078,4353.974121,4362.307617,4367.436035,4554.358887,4538.461426,4559.230957,4497.692383,5661.025879,4311.282227,4257.820313,0.000000,4.000000,75.000000,,,,0.000000,0.000000,0.000000,0.000000,0.000000,0.000000,0.000000,0.000000,0.000000,0.000000,0.000000,0.000000,0.000000,0.000000,0.000000,0.000000,,,,,,,,,,,,,,,,,,,,,,,,,,,,,,,,,,,,,,,,,,,,,,,,,,,,,,,,,,,,,,,,,,,,,,,,,,,,,,,,,,,,,,,,,,,,,,,,,,,,,,,,,,,,,,,,,,,,,,,,,,,,,,,,,
1738755232.751699,1738755232.752206,76.000000,0.000000,4323.333496,4348.717773,4253.717773,4301.666504,4353.974121,4363.974121,4366.922852,4551.025879,4536.922852,4560.897461,4497.051270,5663.205078,4308.846191,4260.000000,0.000000,4.000000,75.000000,,,,0.000000,0.000000,0.000000,0.000000,0.000000,0.000000,0.000000,0.000000,0.000000,0.000000,0.000000,0.000000,0.000000,0.000000,0.000000,0.000000,,,,,,,,,,,,,,,,,19.000000,0.000000,0.785510,-0.615295,-0.061035,0.025696,0.054694,-0.978147,0.236357,4.580089,-14.999473,22.653557,,,,,,,,,,,,,,,,,,,,,,,,,,,,,,,,,,,,,,,,,,,,,,,,,,,,,,,,,,,,,,,,,,,,,,,,,,,,,,,,,,,,,,,,,,,,,,,,,,,,,
1738755232.759507,1738755232.759914,77.000000,0.000000,4324.487305,4351.282227,4252.948730,4302.051270,4354.358887,4360.512695,4365.897461,4550.641113,4538.333496,4560.384766,4496.153809,5665.641113,4311.666504,4261.025879,0.000000,4.000000,75.000000,,,,0.000000,0.000000,0.000000,0.000000,0.000000,0.000000,0.000000,0.000000,0.000000,0.000000,0.000000,0.000000,0.000000,0.000000,0.000000,0.000000,,,,,,,,,,,,,,,,,,,,,,,,,,,,,,,,,,,,,,,,,,,,,,,,,,,,,,,,,,,,,,,,,,,,,,,,,,,,,,,,,,,,,,,,,,,,,,,,,,,,,,,,,,,,,,,,,,,,,,,,,,,,,,,,,
1738755232.767315,1738755232.767822,78.000000,0.000000,4322.051270,4351.666504,4252.563965,4301.666504,4353.205078,4359.487305,4363.974121,4551.538574,4539.615234,4560.000000,4497.436035,5664.871582,4314.743652,4258.974121,0.000000,4.000000,75.000000,,,,0.000000,0.000000,0.000000,0.000000,0.000000,0.000000,0.000000,0.000000,0.000000,0.000000,0.000000,0.000000,0.000000,0.000000,0.000000,0.000000,,,,,,,,,,,,,,,,,,,,,,,,,,,,,,,,,,,,,,,,,,,,,,,,,,,,,,,,,,,,0.022267,0.009121,0.029503,0.018632,0.018143,0.039977,0.026385,0.035156,0.030434,0.020211,0.050561,0.027399,0.012532,0.017106,0.028056,0.048065,0.028482,0.025577,0.024363,0.027509,0.039022,0.013893,0.014630,0.022989,0.022023,0.017716,0.033240,0.024069,0.017225,0.028022,0.029977,0.029266,0.027086,0.030581,0.029148,0.039021,0.024234,0.015956,0.020658,0.025441,0.025835,0.026787,0.064731,0.013699,0.022507,0.014988,0.015011,0.029581,0.012298,0.020059,0.027466,0.055609,0.019583,0.014415,0.033089,0.013872,0.026100,0.055798,0.021096,0.030441,0.061669,0.070785,0.060654,0.024465,0.034899,0.026105,0.015494,0.022941,0.025865,0.029907
1738755232.775123,1738755232.775630,79.000000,0.000000,4322.436035,4350.256348,4253.974121,4301.025879,4350.512695,4360.897461,4362.948730,4548.333496,4537.820313,4558.461426,4497.051270,5663.717773,4309.102539,4257.692383,0.000000,4.000000,75.000000,,,,0.000000,0.000000,0.000000,0.000000,0.000000,0.000000,0.000000,0.000000,0.000000,0.000000,0.000000,0.000000,0.000000,0.000000,0.000000,0.000000,,,,,,,,,,,,,,,,,,,,,,,,,,,,,,,,,,,,,,,,,,,,,,,,,,,,,,,,,,,,,,,,,,,,,,,,,,,,,,,,,,,,,,,,,,,,,,,,,,,,,,,,,,,,,,,,,,,,,,,,,,,,,,,,,
1738755232.782931,1738755232.783538,80.000000,0.000000,4322.436035,4350.000000,4256.025879,4303.333496,4350.897461,4360.641113,4364.743652,4547.179688,4536.666504,4559.487305,4497.307617,5663.589844,4308.589844,4259.358887,0.000000,4.000000,75.000000,,,,0.000000,0.000000,0.000000,0.000000,0.000000,0.000000,0.000000,0.000000,0.000000,0.000000,0.000000,0.000000,0.000000,0.000000,0.000000,0.000000,,,,,,,,,,,,,,,,,20.000000,0.000000,0.785510,-0.615295,-0.061035,0.025696,0.052741,-0.964473,0.233427,4.572080,-15.082858,22.588202,,,,,,,,,,,,,,,,,,,,,,,,,,,,,,,,,,,,,,,,,,,,,,,,,,,,,,,,,,,,,,,,,,,,,,,,,,,,,,,,,,,,,,,,,,,,,,,,,,,,,
1738755232.790739,1738755232.791346,81.000000,0.000000,4320.384766,4349.487305,4254.871582,4303.974121,4350.000000,4360.897461,4367.307617,4549.743652,4538.333496,4560.641113,4501.025879,5663.205078,4311.922852,4258.205078,0.000000,4.000000,75.000000,,,,0.000000,0.000000,0.000000,0.000000,0.000000,0.000000,0.000000,0.000000,0.000000,0.000000,0.000000,0.000000,0.000000,0.000000,0.000000,0.000000,,,,,,,,,,,,,,,,,,,,,,,,,,,,,,,,,,,,,,,,,,,,,,,,,,,,,,,,,,,,,,,,,,,,,,,,,,,,,,,,,,,,,,,,,,,,,,,,,,,,,,,,,,,,,,,,,,,,,,,,,,,,,,,,,
1738755232.798548,1738755232.799155,82.000000,0.000000,4321.410156,4347.179688,4253.333496,4300.641113,4347.820313,4361.282227,4366.282227,4548.846191,4539.743652,4559.615234,4501.282227,5663.205078,4308.846191,4256.666504,0.000000,4.000000,75.000000,,,,0.000000,0.000000,0.000000,0.000000,0.000000,0.000000,0.000000,0.000000,0.000000,0.000000,0.000000,0.000000,0.000000,0.000000,0.000000,0.000000,,,,,,,,,,,,,,,,,,,,,,,,,,,,,,,,,,,,,,,,,,,,,,,,,,,,,,,,,,,,,,,,,,,,,,,,,,,,,,,,,,,,,,,,,,,,,,,,,,,,,,,,,,,,,,,,,,,,,,,,,,,,,,,,,
1738755232.806356,1738755232.806863,83.000000,0.000000,4321.282227,4346.922852,4253.589844,4299.743652,4351.282227,4359.871582,4366.794922,4550.000000,4538.846191,4560.256348,4497.692383,5663.974121,4310.256348,4261.282227,0.000000,4.000000,75.000000,,,,0.000000,0.000000,0.000000,0.000000,0.000000,0.000000,0.000000,0.000000,0.000000,0.000000,0.000000,0.000000,0.000000,0.000000,0.000000,0.000000,,,,,,,,,,,,,,,,,,,,,,,,,,,,,,,,,,,,,,,,,,,,,,,,,,,,,,,,,,,,,,,,,,,,,,,,,,,,,,,,,,,,,,,,,,,,,,,,,,,,,,,,,,,,,,,,,,,,,,,,,,,,,,,,,
1738755232.814164,1738755232.814771,84.000000,0.000000,4319.230957,4350.641113,4253.077148,4302.692383,4353.205078,4360.641113,4369.871582,4553.589844,4539.230957,4561.153809,4497.563965,5665.512695,4312.948730,4260.769043,0.000000,4.000000,75.000000,,,,0.000000,0.000000,0.000000,0.000000,0.000000,0.000000,0.000000,0.000000,0.000000,0.000000,0.000000,0.000000,0.000000,0.000000,0.000000,0.000000,,,,,,,,,,,,,,,,,21.000000,0.000000,0.785503,-0.615295,-0.061096,0.025757,0.063484,-0.978635,0.234404,4.464872,-15.091239,22.679380,,,,,,,,,,,,,,,,,,,,,,,,,,,,,,,,,,,,,,,,,,,,,,,,,,,,,,,,,,,,,,,,,,,,,,,,,,,,,,,,,,,,,,,,,,,,,,,,,,,,,
1738755232.821972,1738755232.822579,85.000000,0.000000,4320.000000,4351.538574,4252.948730,4303.846191,4349.871582,4362.692383,4368.077148,4549.358887,4541.153809,4560.512695,4497.948730,5662.307617,4313.717773,4256.410156,0.000000,4.000000,75.000000,,,,0.000000,0.000000,0.000000,0.000000,0.000000,0.000000,0.000000,0.000000,0.000000,0.000000,0.000000,0.000000,0.000000,0.000000,0.000000,0.000000,,,,,,,,,,,,,,,,,,,,,,,,,,,,,,,,,,,,,,,,,,,,,,,,,,,,,,,,,,,,,,,,,,,,,,,,,,,,,,,,,,,,,,,,,,,,,,,,,,,,,,,,,,,,,,,,,,,,,,,,,,,,,,,,,
1738755232.829780,1738755232.830487,86.000000,0.000000,4320.384766,4348.589844,4253.974121,4303.846191,4349.743652,4362.179688,4366.794922,4545.256348,4541.538574,4560.641113,4495.128418,5660.897461,4313.077148,4256.025879,0.000000,4.000000,75.000000,,,,0.000000,0.000000,0.000000,0.000000,0.000000,0.000000,0.000000,0.000000,0.000000,0.000000,0.000000,0.000000,0.000000,0.000000,0.000000,0.000000,,,,,,,,,,,,,,,,,,,,,,,,,,,,,,,,,,,,,,,,,,,,,,,,,,,,,,,,,,,,,,,,,,,,,,,,,,,,,,,,,,,,,,,,,,,,,,,,,,,,,,,,,,,,,,,,,,,,,,,,,,,,,,,,,
1738755232.837588,1738755232.838295,87.000000,0.000000,4319.487305,4348.333496,4253.205078,4303.846191,4352.692383,4360.384766,4367.820313,4549.487305,4540.512695,4560.769043,4495.512695,5666.282227,4311.922852,4257.820313,0.000000,4.000000,75.000000,,,,0.000000,0.000000,0.000000,0.000000,0.000000,0.000000,0.000000,0.000000,0.000000,0.000000,0.000000,0.000000,0.000000,0.000000,0.000000,0.000000,,,,,,,,,,,,,,,,,,,,,,,,,,,,,,,,,,,,,,,,,,,,,,,,,,,,,,,,,,,,,,,,,,,,,,,,,,,,,,,,,,,,,,,,,,,,,,,,,,,,,,,,,,,,,,,,,,,,,,,,,,,,,,,,,
1738755232.845396,1738755232.846203,88.000000,0.000000,4322.692383,4349.871582,4252.563965,4302.692383,4352.820313,4359.230957,4365.256348,4550.897461,4539.871582,4558.333496,4498.461426,5664.743652,4315.128418,4260.512695,0.000000,4.000000,75.000000,,,,0.000000,0.000000,0.000000,0.000000,0.000000,0.000000,0.000000,0.000000,0.000000,0.000000,0.000000,0.000000,0.000000,0.000000,0.000000,0.000000,,,,,,,,,,,,,,,,,22.000000,0.000000,0.785559,-0.615234,-0.060974,0.025818,0.058601,-0.983518,0.226102,4.418385,-14.965448,22.761442,,,,,,,,,,,,,,,,,,,,,,,,,,,,,,,,,,,,,,,,,,,,,,,,,,,,,,,,,,,,,,,,,,,,,,,,,,,,,,,,,,,,,,,,,,,,,,,,,,,,,
1738755232.853204,1738755232.854012,89.000000,0.000000,4324.487305,4349.102539,4256.025879,4301.153809,4353.077148,4359.102539,4365.769043,4547.820313,4539.230957,4557.307617,4497.820313,5659.871582,4315.256348,4258.717773,0.000000,4.000000,75.000000,,,,0.000000,0.000000,0.000000,0.000000,0.000000,0.000000,0.000000,0.000000,0.000000,0.000000,0.000000,0.000000,0.000000,0.000000,0.000000,0.000000,,,,,,,,,,,,,,,,,,,,,,,,,,,,,,,,,,,,,,,,,,,,,,,,,,,,,,,,,,,,,,,,,,,,,,,,,,,,,,,,,,,,,,,,,,,,,,,,,,,,,,,,,,,,,,,,,,,,,,,,,,,,,,,,,
1738755232.861012,1738755232.861920,90.000000,0.000000,4320.769043,4350.512695,4256.666504,4301.025879,4355.384766,4359.102539,4367.307617,4547.051270,4539.615234,4559.615234,4497.307617,5660.512695,4310.512695,4255.384766,0.000000,4.000000,75.000000,,,,0.000000,0.000000,0.000000,0.000000,0.000000,0.000000,0.000000,0.000000,0.000000,0.000000,0.000000,0.000000,0.000000,0.000000,0.000000,0.000000,,,,,,,,,,,,,,,,,,,,,,,,,,,,,,,,,,,,,,,,,,,,,,,,,,,,,,,,,,,,,,,,,,,,,,,,,,,,,,,,,,,,,,,,,,,,,,,,,,,,,,,,,,,,,,,,,,,,,,,,,,,,,,,,,
1738755232.868821,1738755232.869728,91.000000,0.000000,4321.538574,4352.179688,4253.205078,4303.846191,4355.000000,4360.128418,4366.666504,4550.641113,4540.000000,4560.897461,4496.794922,5665.384766,4309.358887,4256.666504,0.000000,4.000000,75.000000,,,,0.000000,0.000000,0.000000,0.000000,0.000000,0.000000,0.000000,0.000000,0.000000,0.000000,0.000000,0.000000,0.000000,0.000000,0.000000,0.000000,,,,,,,,,,,,,,,,,,,,,,,,,,,,,,,,,,,,,,,,,,,,,,,,,,,,,,,,,,,,,,,,,,,,,,,,,,,,,,,,,,,,,,,,,,,,,,,,,,,,,,,,,,,,,,,,,,,,,,,,,,,,,,,,,
1738755232.876629,1738755232.877636,92.000000,0.000000,4322.820313,4348.974121,4253.717773,4302.307617,4352.051270,4360.512695,4366.922852,4550.641113,4539.358887,4561.666504,4497.051270,5666.025879,4312.179688,4256.666504,0.000000,4.000000,75.000000,,,,0.000000,0.000000,0.000000,0.000000,0.000000,0.000000,0.000000,0.000000,0.000000,0.000000,0.000000,0.000000,0.000000,0.000000,0.000000,0.000000,,,,,,,,,,,,,,,,,23.000000,0.000000,0.785501,-0.615295,-0.061096,0.025818,0.070321,-0.984007,0.238799,4.276546,-15.018904,22.751965,,,,,,,,,,,,,,,,,,,,,,,,,,,,,,,,,,,,,,,,,,,,,,,,,,,,,,,,,,,,,,,,,,,,,,,,,,,,,,,,,,,,,,,,,,,,,,,,,,,,,
1738755232.884437,1738755232.885444,93.000000,0.000000,4321.025879,4347.051270,4256.025879,4298.461426,4351.538574,4358.974121,4367.051270,4547.436035,4538.461426,4561.153809,4498.717773,5660.769043,4313.717773,4255.128418,0.000000,4.000000,75.000000,,,,0.000000,0.000000,0.000000,0.000000,0.000000,0.000000,0.000000,0.000000,0.000000,0.000000,0.000000,0.000000,0.000000,0.000000,0.000000,0.000000,,,,,,,,,,,,,,,,,,,,,,,,,,,,,,,,,,,,,,,,,,,,,,,,,,,,,,,,,,,,,,,,,,,,,,,,,,,,,,,,,,,,,,,,,,,,,,,,,,,,,,,,,,,,,,,,,,,,,,,,,,,,,,,,,
1738755232.892245,1738755232.893153,94.000000,0.000000,4322.051270,4346.538574,4253.846191,4301.922852,4353.589844,4358.461426,4366.666504,4548.205078,4538.846191,4559.615234,4498.461426,5660.897461,4310.128418,4254.230957,0.000000,4.000000,75.000000,,,,0.000000,0.000000,0.000000,0.000000,0.000000,0.000000,0.000000,0.000000,0.000000,0.000000,0.000000,0.000000,0.000000,0.000000,0.000000,0.000000,1.000000,0.000000,0.000000,0.000000,0.000000,0.000000,0.000000,0.000000,0.000000,0.000000,0.000000,0.000000,0.000000,0.000000,0.000000,0.000000,,,,,,,,,,,,,,,,,,,,,,,,,,,,,,,,,,,,,,,,,,,,0.022629,0.009118,0.028290,0.018160,0.017387,0.041991,0.032210,0.043234,0.032804,0.021296,0.040861,0.022630,0.013158,0.019880,0.026398,0.046257,0.027698,0.024425,0.023497,0.026412,0.039281,0.013678,0.014511,0.026027,0.021735,0.013972,0.028231,0.024219,0.016658,0.026812,0.028510,0.037562,0.026652,0.029055,0.031868,0.034349,0.024461,0.014170,0.021564,0.024238,0.027315,0.028065,0.069657,0.013785,0.021864,0.015130,0.015986,0.033974,0.011458,0.020125,0.027522,0.055249,0.016410,0.013922,0.028265,0.013273,0.028511,0.049282,0.021785,0.033251,0.068702,0.065318,0.054342,0.025100,0.034718,0.028653,0.015211,0.026503,0.026139,0.029666
1738755232.900053,1738755232.901061,95.000000,0.000000,4322.436035,4345.641113,4253.974121,4305.128418,4350.384766,4359.615234,4365.000000,4548.077148,4538.461426,4560.641113,4497.179688,5663.205078,4310.384766,4255.384766,0.000000,4.000000,75.000000,,,,0.000000,0.000000,0.000000,0.000000,0.000000,0.000000,0.000000,0.000000,0.000000,0.000000,0.000000,0.000000,0.000000,0.000000,0.000000,0.000000,,,,,,,,,,,,,,,,,,,,,,,,,,,,,,,,,,,,,,,,,,,,,,,,,,,,,,,,,,,,,,,,,,,,,,,,,,,,,,,,,,,,,,,,,,,,,,,,,,,,,,,,,,,,,,,,,,,,,,,,,,,,,,,,,
1738755232.907861,1738755232.908869,96.000000,0.000000,4321.794922,4348.717773,4258.589844,4302.820313,4346.025879,4361.282227,4363.974121,4546.794922,4536.153809,4562.307617,4498.461426,5660.897461,4312.820313,4257.307617,0.000000,4.000000,75.000000,,,,0.000000,0.000000,0.000000,0.000000,0.000000,0.000000,0.000000,0.000000,0.000000,0.000000,0.000000,0.000000,0.000000,0.000000,0.000000,0.000000,,,,,,,,,,,,,,,,,24.000000,0.000000,0.785544,-0.615234,-0.061157,0.025818,0.062019,-0.980588,0.230985,4.248891,-15.167013,22.693436,,,,,,,,,,,,,,,,,,,,,,,,,,,,,,,,,,,,,,,,,,,,,,,,,,,,,,,,,,,,,,,,,,,,,,,,,,,,,,,,,,,,,,,,,,,,,,,,,,,,,
1738755232.915669,1738755232.916677,97.000000,0.000000,4321.794922,4349.102539,4256.410156,4301.538574,4350.512695,4361.922852,4363.205078,4549.743652,4537.563965,4560.897461,4498.461426,5661.153809,4310.384766,4258.333496,0.000000,4.000000,75.000000,,,,0.000000,0.000000,0.000000,0.000000,0.000000,0.000000,0.000000,0.000000,0.000000,0.000000,0.000000,0.000000,0.000000,0.000000,0.000000,0.000000,,,,,,,,,,,,,,,,,,,,,,,,,,,,,,,,,,,,,,,,,,,,,,,,,,,,,,,,,,,,,,,,,,,,,,,,,,,,,,,,,,,,,,,,,,,,,,,,,,,,,,,,,,,,,,,,,,,,,,,,,,,,,,,,,
1738755232.923477,1738755232.924385,98.000000,0.000000,4321.410156,4345.769043,4251.410156,4301.922852,4355.256348,4359.615234,4363.333496,4553.461426,4541.153809,4560.256348,4495.897461,5661.025879,4308.846191,4257.307617,0.000000,4.000000,75.000000,,,,0.000000,0.000000,0.000000,0.000000,0.000000,0.000000,0.000000,0.000000,0.000000,0.000000,0.000000,0.000000,0.000000,0.000000,0.000000,0.000000,,,,,,,,,,,,,,,,,,,,,,,,,,,,,,,,,,,,,,,,,,,,,,,,,,,,,,,,,,,,,,,,,,,,,,,,,,,,,,,,,,,,,,,,,,,,,,,,,,,,,,,,,,,,,,,,,,,,,,,,,,,,,,,,,
1738755232.931285,1738755232.932193,99.000000,0.000000,4322.820313,4347.563965,4253.461426,4302.820313,4352.436035,4357.820313,4364.487305,4552.307617,4540.897461,4561.922852,4495.641113,5658.205078,4309.743652,4256.282227,0.000000,4.000000,75.000000,,,,0.000000,0.000000,0.000000,0.000000,0.000000,0.000000,0.000000,0.000000,0.000000,0.000000,0.000000,0.000000,0.000000,0.000000,0.000000,0.000000,,,,,,,,,,,,,,,,,,,,,,,,,,,,,,,,,,,,,,,,,,,,,,,,,,,,,,,,,,,,,,,,,,,,,,,,,,,,,,,,,,,,,,,,,,,,,,,,,,,,,,,,,,,,,,,,,,,,,,,,,,,,,,,,,
1738755232.939093,1738755232.939901,100.000000,0.000000,4322.436035,4350.512695,4256.410156,4301.922852,4348.846191,4360.000000,4364.615234,4549.358887,4539.743652,4563.333496,4496.538574,5658.589844,4312.692383,4257.820313,0.000000,4.000000,75.000000,,,,0.000000,0.000000,0.000000,0.000000,0.000000,0.000000,0.000000,0.000000,0.000000,0.000000,0.000000,0.000000,0.000000,0.000000,0.000000,0.000000,,,,,,,,,,,,,,,,,25.000000,0.000000,0.785546,-0.615234,-0.061157,0.025757,0.065438,-0.970822,0.236357,4.224002,-15.166979,22.690758,,,,,,,,,,,,,,,,,,,,,,,,,,,,,,,,,,,,,,,,,,,,,,,,,,,,,,,,,,,,,,,,,,,,,,,,,,,,,,,,,,,,,,,,,,,,,,,,,,,,,
1738755232.946901,1738755232.947709,101.000000,0.000000,4320.128418,4346.794922,4254.871582,4299.615234,4350.384766,4362.051270,4365.641113,4550.256348,4541.922852,4564.102539,4496.666504,5659.743652,4314.102539,4257.307617,0.000000,4.000000,75.000000,,,,0.000000,0.000000,0.000000,0.000000,0.000000,0.000000,0.000000,0.000000,0.000000,0.000000,0.000000,0.000000,0.000000,0.000000,0.000000,0.000000,,,,,,,,,,,,,,,,,,,,,,,,,,,,,,,,,,,,,,,,,,,,,,,,,,,,,,,,,,,,,,,,,,,,,,,,,,,,,,,,,,,,,,,,,,,,,,,,,,,,,,,,,,,,,,,,,,,,,,,,,,,,,,,,,
1738755232.954710,1738755232.955417,102.000000,0.000000,4321.410156,4344.358887,4254.871582,4301.410156,4351.153809,4358.846191,4364.615234,4553.333496,4541.538574,4563.461426,4498.077148,5660.256348,4310.512695,4255.897461,0.000000,4.000000,75.000000,,,,0.000000,0.000000,0.000000,0.000000,0.000000,0.000000,0.000000,0.000000,0.000000,0.000000,0.000000,0.000000,0.000000,0.000000,0.000000,0.000000,,,,,,,,,,,,,,,,,,,,,,,,,,,,,,,,,,,,,,,,,,,,,,,,,,,,,,,,,,,,,,,,,,,,,,,,,,,,,,,,,,,,,,,,,,,,,,,,,,,,,,,,,,,,,,,,,,,,,,,,,,,,,,,,,
1738755232.962518,1738755232.963225,103.000000,0.000000,4323.205078,4347.307617,4255.512695,4302.051270,4350.769043,4357.563965,4363.717773,4550.641113,4539.743652,4562.179688,4499.230957,5661.794922,4309.230957,4257.692383,0.000000,4.000000,75.000000,,,,0.000000,0.000000,0.000000,0.000000,0.000000,0.000000,0.000000,0.000000,0.000000,0.000000,0.000000,0.000000,0.000000,0.000000,0.000000,0.000000,,,,,,,,,,,,,,,,,,,,,,,,,,,,,,,,,,,,,,,,,,,,,,,,,,,,,,,,,,,,,,,,,,,,,,,,,,,,,,,,,,,,,,,,,,,,,,,,,,,,,,,,,,,,,,,,,,,,,,,,,,,,,,,,,
1738755232.970326,1738755232.970933,104.000000,0.000000,4321.025879,4346.153809,4252.692383,4298.205078,4351.922852,4361.282227,4365.512695,4546.794922,4540.512695,4561.794922,4497.820313,5662.820313,4310.512695,4258.461426,0.000000,4.000000,75.000000,,,,0.000000,0.000000,0.000000,0.000000,0.000000,0.000000,0.000000,0.000000,0.000000,0.000000,0.000000,0.000000,0.000000,0.000000,0.000000,0.000000,,,,,,,,,,,,,,,,,26.000000,0.000000,0.785451,-0.615356,-0.061157,0.025757,0.070321,-0.978147,0.235869,4.234935,-15.116947,22.855017,,,,,,,,,,,,,,,,,,,,,,,,,,,,,,,,,,,,,,,,,,,,,,,,,,,,,,,,,,,,,,,,,,,,,,,,,,,,,,,,,,,,,,,,,,,,,,,,,,,,,
1738755232.978134,1738755232.978741,105.000000,0.000000,4320.769043,4344.743652,4251.538574,4300.128418,4350.512695,4360.384766,4365.897461,4550.641113,4541.666504,4562.179688,4496.282227,5662.307617,4311.922852,4256.666504,0.000000,4.000000,75.000000,,,,0.000000,0.000000,0.000000,0.000000,0.000000,0.000000,0.000000,0.000000,0.000000,0.000000,0.000000,0.000000,0.000000,0.000000,0.000000,0.000000,,,,,,,,,,,,,,,,,,,,,,,,,,,,,,,,,,,,,,,,,,,,,,,,,,,,,,,,,,,,,,,,,,,,,,,,,,,,,,,,,,,,,,,,,,,,,,,,,,,,,,,,,,,,,,,,,,,,,,,,,,,,,,,,,
1738755232.985942,1738755232.986449,106.000000,0.000000,4322.436035,4349.230957,4253.333496,4305.384766,4349.102539,4358.589844,4364.743652,4552.436035,4541.666504,4561.538574,4496.410156,5661.794922,4310.256348,4255.256348,0.000000,4.000000,75.000000,,,,0.000000,0.000000,0.000000,0.000000,0.000000,0.000000,0.000000,0.000000,0.000000,0.000000,0.000000,0.000000,0.000000,0.000000,0.000000,0.000000,,,,,,,,,,,,,,,,,,,,,,,,,,,,,,,,,,,,,,,,,,,,,,,,,,,,,,,,,,,,,,,,,,,,,,,,,,,,,,,,,,,,,,,,,,,,,,,,,,,,,,,,,,,,,,,,,,,,,,,,,,,,,,,,,
1738755232.993750,1738755232.994257,107.000000,0.000000,4323.077148,4349.871582,4254.358887,4303.846191,4350.512695,4361.666504,4363.846191,4549.358887,4540.384766,4560.512695,4495.769043,5662.436035,4307.307617,4254.358887,0.000000,4.000000,75.000000,,,,0.000000,0.000000,0.000000,0.000000,0.000000,0.000000,0.000000,0.000000,0.000000,0.000000,0.000000,0.000000,0.000000,0.000000,0.000000,0.000000,,,,,,,,,,,,,,,,,,,,,,,,,,,,,,,,,,,,,,,,,,,,,,,,,,,,,,,,,,,,,,,,,,,,,,,,,,,,,,,,,,,,,,,,,,,,,,,,,,,,,,,,,,,,,,,,,,,,,,,,,,,,,,,,,
1738755233.001558,1738755233.001965,108.000000,0.000000,4323.077148,4348.974121,4255.128418,4301.410156,4351.538574,4361.666504,4363.589844,4548.846191,4541.153809,4560.384766,4495.512695,5662.179688,4309.230957,4255.512695,0.000000,4.000000,75.000000,,,,0.000000,0.000000,0.000000,0.000000,0.000000,0.000000,0.000000,0.000000,0.000000,0.000000,0.000000,0.000000,0.000000,0.000000,0.000000,0.000000,,,,,,,,,,,,,,,,,27.000000,0.000000,0.785542,-0.615234,-0.061157,0.025879,0.058113,-0.975705,0.237334,4.078109,-15.121920,22.669514,,,,,,,,,,,,,,,,,,,,,,,,,,,,,,,,,,,,,,,,,,,,,,,,,,,,,,,,,,,,,,,,,,,,,,,,,,,,,,,,,,,,,,,,,,,,,,,,,,,,,
1738755233.009366,1738755233.009873,109.000000,0.000000,4322.820313,4350.384766,4255.384766,4304.487305,4349.743652,4359.230957,4365.512695,4550.512695,4541.025879,4559.358887,4495.897461,5661.282227,4312.179688,4255.769043,0.000000,4.000000,75.000000,,,,0.000000,0.000000,0.000000,0.000000,0.000000,0.000000,0.000000,0.000000,0.000000,0.000000,0.000000,0.000000,0.000000,0.000000,0.000000,0.000000,,,,,,,,,,,,,,,,,,,,,,,,,,,,,,,,,,,,,,,,,,,,,,,,,,,,,,,,,,,,,,,,,,,,,,,,,,,,,,,,,,,,,,,,,,,,,,,,,,,,,,,,,,,,,,,,,,,,,,,,,,,,,,,,,
1738755233.017174,1738755233.017682,110.000000,0.000000,4323.846191,4350.000000,4253.846191,4305.128418,4348.205078,4361.282227,4366.538574,4551.153809,4538.589844,4558.333496,4496.025879,5660.897461,4310.897461,4253.589844,0.000000,4.000000,75.000000,,,,0.000000,0.000000,0.000000,0.000000,0.000000,0.000000,0.000000,0.000000,0.000000,0.000000,0.000000,0.000000,0.000000,0.000000,0.000000,0.000000,,,,,,,,,,,,,,,,,,,,,,,,,,,,,,,,,,,,,,,,,,,,,,,,,,,,,,,,,,,,0.025109,0.010176,0.026058,0.016779,0.016947,0.042855,0.039049,0.051147,0.035193,0.022932,0.031722,0.018742,0.014611,0.022851,0.024818,0.040694,0.024244,0.024538,0.022154,0.024658,0.040497,0.016855,0.015497,0.028900,0.021401,0.011450,0.021001,0.022383,0.014840,0.024234,0.028301,0.048775,0.028412,0.027809,0.035817,0.029795,0.025319,0.013905,0.021545,0.023427,0.027484,0.028731,0.069966,0.014097,0.022216,0.014148,0.017058,0.037477,0.011046,0.019669,0.025784,0.051436,0.013093,0.014715,0.024228,0.012550,0.030114,0.041182,0.021706,0.034989,0.073467,0.059304,0.049284,0.026153,0.032480,0.029668,0.015991,0.030593,0.026087,0.029798
1738755233.024983,1738755233.025590,111.000000,0.000000,4325.256348,4349.102539,4253.333496,4301.282227,4350.897461,4362.563965,4364.102539,4551.666504,4539.102539,4558.461426,4495.384766,5661.538574,4310.384766,4254.358887,0.000000,4.000000,75.000000,,,,0.000000,0.000000,0.000000,0.000000,0.000000,0.000000,0.000000,0.000000,0.000000,0.000000,0.000000,0.000000,0.000000,0.000000,0.000000,0.000000,,,,,,,,,,,,,,,,,,,,,,,,,,,,,,,,,,,,,,,,,,,,,,,,,,,,,,,,,,,,,,,,,,,,,,,,,,,,,,,,,,,,,,,,,,,,,,,,,,,,,,,,,,,,,,,,,,,,,,,,,,,,,,,,,
1738755233.032791,1738755233.033398,112.000000,0.000000,4325.897461,4349.102539,4255.256348,4302.563965,4355.128418,4359.615234,4363.461426,4554.102539,4539.102539,4559.102539,4494.615234,5665.512695,4309.871582,4255.000000,0.000000,4.000000,75.000000,,,,0.000000,0.000000,0.000000,0.000000,0.000000,0.000000,0.000000,0.000000,0.000000,0.000000,0.000000,0.000000,0.000000,0.000000,0.000000,0.000000,,,,,,,,,,,,,,,,,28.000000,0.000000,0.785404,-0.615417,-0.061096,0.025879,0.061531,-0.971310,0.233915,4.020298,-15.026394,22.585896,,,,,,,,,,,,,,,,,,,,,,,,,,,,,,,,,,,,,,,,,,,,,,,,,,,,,,,,,,,,,,,,,,,,,,,,,,,,,,,,,,,,,,,,,,,,,,,,,,,,,
1738755233.040599,1738755233.041306,113.000000,0.000000,4323.974121,4350.512695,4256.410156,4306.282227,4354.487305,4359.871582,4362.948730,4552.692383,4538.333496,4558.974121,4495.641113,5667.692383,4309.743652,4254.358887,0.000000,4.000000,75.000000,,,,0.000000,0.000000,0.000000,0.000000,0.000000,0.000000,0.000000,0.000000,0.000000,0.000000,0.000000,0.000000,0.000000,0.000000,0.000000,0.000000,,,,,,,,,,,,,,,,,,,,,,,,,,,,,,,,,,,,,,,,,,,,,,,,,,,,,,,,,,,,,,,,,,,,,,,,,,,,,,,,,,,,,,,,,,,,,,,,,,,,,,,,,,,,,,,,,,,,,,,,,,,,,,,,,
1738755233.048407,1738755233.049114,114.000000,0.000000,4320.769043,4351.538574,4254.358887,4305.384766,4350.512695,4360.512695,4360.897461,4548.333496,4541.410156,4558.974121,4495.897461,5664.871582,4310.256348,4255.512695,0.000000,4.000000,75.000000,,,,0.000000,0.000000,0.000000,0.000000,0.000000,0.000000,0.000000,0.000000,0.000000,0.000000,0.000000,0.000000,0.000000,0.000000,0.000000,0.000000,,,,,,,,,,,,,,,,,,,,,,,,,,,,,,,,,,,,,,,,,,,,,,,,,,,,,,,,,,,,,,,,,,,,,,,,,,,,,,,,,,,,,,,,,,,,,,,,,,,,,,,,,,,,,,,,,,,,,,,,,,,,,,,,,
1738755233.056215,1738755233.057022,115.000000,0.000000,4322.436035,4350.512695,4253.846191,4302.692383,4350.384766,4358.205078,4362.692383,4548.589844,4540.897461,4559.743652,4495.256348,5664.358887,4308.205078,4255.384766,0.000000,4.000000,75.000000,,,,0.000000,0.000000,0.000000,0.000000,0.000000,0.000000,0.000000,0.000000,0.000000,0.000000,0.000000,0.000000,0.000000,0.000000,0.000000,0.000000,,,,,,,,,,,,,,,,,,,,,,,,,,,,,,,,,,,,,,,,,,,,,,,,,,,,,,,,,,,,,,,,,,,,,,,,,,,,,,,,,,,,,,,,,,,,,,,,,,,,,,,,,,,,,,,,,,,,,,,,,,,,,,,,,
1738755233.064023,1738755233.064831,116.000000,0.000000,4323.077148,4351.025879,4253.717773,4301.025879,4350.769043,4358.589844,4363.205078,4550.000000,4539.615234,4560.384766,4496.538574,5666.153809,4309.487305,4255.256348,0.000000,4.000000,75.000000,,,,0.000000,0.000000,0.000000,0.000000,0.000000,0.000000,0.000000,0.000000,0.000000,0.000000,0.000000,0.000000,0.000000,0.000000,0.000000,0.000000,,,,,,,,,,,,,,,,,29.000000,0.000000,0.785397,-0.615417,-0.061157,0.025940,0.064949,-0.969845,0.235380,4.051601,-15.073755,22.627306,,,,,,,,,,,,,,,,,,,,,,,,,,,,,,,,,,,,,,,,,,,,,,,,,,,,,,,,,,,,,,,,,,,,,,,,,,,,,,,,,,,,,,,,,,,,,,,,,,,,,
1738755233.071831,1738755233.072739,117.000000,0.000000,4320.000000,4351.153809,4251.153809,4302.692383,4349.615234,4360.000000,4363.461426,4550.641113,4542.563965,4562.307617,4498.205078,5667.820313,4310.256348,4256.025879,0.000000,4.000000,75.000000,,,,0.000000,0.000000,0.000000,0.000000,0.000000,0.000000,0.000000,0.000000,0.000000,0.000000,0.000000,0.000000,0.000000,0.000000,0.000000,0.000000,,,,,,,,,,,,,,,,,,,,,,,,,,,,,,,,,,,,,,,,,,,,,,,,,,,,,,,,,,,,,,,,,,,,,,,,,,,,,,,,,,,,,,,,,,,,,,,,,,,,,,,,,,,,,,,,,,,,,,,,,,,,,,,,,
1738755233.079639,1738755233.080547,118.000000,0.000000,4318.974121,4349.615234,4250.769043,4305.641113,4351.153809,4360.769043,4363.205078,4551.153809,4540.256348,4562.820313,4496.666504,5665.897461,4308.846191,4254.871582,0.000000,4.000000,75.000000,,,,0.000000,0.000000,0.000000,0.000000,0.000000,0.000000,0.000000,0.000000,0.000000,0.000000,0.000000,0.000000,0.000000,0.000000,0.000000,0.000000,,,,,,,,,,,,,,,,,,,,,,,,,,,,,,,,,,,,,,,,,,,,,,,,,,,,,,,,,,,,,,,,,,,,,,,,,,,,,,,,,,,,,,,,,,,,,,,,,,,,,,,,,,,,,,,,,,,,,,,,,,,,,,,,,
1738755233.087447,1738755233.088255,119.000000,0.000000,4321.410156,4348.205078,4254.743652,4304.871582,4352.051270,4360.000000,4360.897461,4549.871582,4538.974121,4559.871582,4494.358887,5661.794922,4311.666504,4253.974121,0.000000,4.000000,75.000000,,,,0.000000,0.000000,0.000000,0.000000,0.000000,0.000000,0.000000,0.000000,0.000000,0.000000,0.000000,0.000000,0.000000,0.000000,0.000000,0.000000,,,,,,,,,,,,,,,,,,,,,,,,,,,,,,,,,,,,,,,,,,,,,,,,,,,,,,,,,,,,,,,,,,,,,,,,,,,,,,,,,,,,,,,,,,,,,,,,,,,,,,,,,,,,,,,,,,,,,,,,,,,,,,,,,
1738755233.095255,1738755233.096063,120.000000,0.000000,4322.563965,4347.948730,4258.205078,4303.461426,4353.077148,4359.871582,4362.436035,4549.230957,4543.846191,4558.333496,4492.820313,5663.461426,4309.358887,4256.794922,0.000000,4.000000,75.000000,,,,0.000000,0.000000,0.000000,0.000000,0.000000,0.000000,0.000000,0.000000,0.000000,0.000000,0.000000,0.000000,0.000000,0.000000,0.000000,0.000000,,,,,,,,,,,,,,,,,30.000000,0.000000,0.785404,-0.615417,-0.061035,0.026001,0.061531,-0.982053,0.233915,4.046441,-15.033046,22.831244,,,,,,,,,,,,,,,,,,,,,,,,,,,,,,,,,,,,,,,,,,,,,,,,,,,,,,,,,,,,,,,,,,,,,,,,,,,,,,,,,,,,,,,,,,,,,,,,,,,,,
1738755233.103063,1738755233.103771,121.000000,0.000000,4322.307617,4347.948730,4256.153809,4301.282227,4354.743652,4360.897461,4365.512695,4551.538574,4542.692383,4561.025879,4494.871582,5666.025879,4307.563965,4255.512695,0.000000,4.000000,75.000000,,,,0.000000,0.000000,0.000000,0.000000,0.000000,0.000000,0.000000,0.000000,0.000000,0.000000,0.000000,0.000000,0.000000,0.000000,0.000000,0.000000,,,,,,,,,,,,,,,,,,,,,,,,,,,,,,,,,,,,,,,,,,,,,,,,,,,,,,,,,,,,,,,,,,,,,,,,,,,,,,,,,,,,,,,,,,,,,,,,,,,,,,,,,,,,,,,,,,,,,,,,,,,,,,,,,
1738755233.110872,1738755233.111579,122.000000,0.000000,4321.922852,4348.461426,4250.512695,4300.000000,4354.615234,4360.641113,4365.897461,4551.922852,4538.846191,4561.282227,4497.436035,5665.897461,4311.282227,4251.922852,0.000000,4.000000,75.000000,,,,0.000000,0.000000,0.000000,0.000000,0.000000,0.000000,0.000000,0.000000,0.000000,0.000000,0.000000,0.000000,0.000000,0.000000,0.000000,0.000000,,,,,,,,,,,,,,,,,,,,,,,,,,,,,,,,,,,,,,,,,,,,,,,,,,,,,,,,,,,,,,,,,,,,,,,,,,,,,,,,,,,,,,,,,,,,,,,,,,,,,,,,,,,,,,,,,,,,,,,,,,,,,,,,,
1738755233.118680,1738755233.119288,123.000000,0.000000,4320.128418,4349.615234,4248.461426,4302.563965,4355.512695,4357.948730,4363.974121,4551.282227,4540.897461,4558.461426,4498.205078,5664.871582,4312.307617,4255.641113,0.000000,4.000000,75.000000,,,,0.000000,0.000000,0.000000,0.000000,0.000000,0.000000,0.000000,0.000000,0.000000,0.000000,0.000000,0.000000,0.000000,0.000000,0.000000,0.000000,,,,,,,,,,,,,,,,,,,,,,,,,,,,,,,,,,,,,,,,,,,,,,,,,,,,,,,,,,,,,,,,,,,,,,,,,,,,,,,,,,,,,,,,,,,,,,,,,,,,,,,,,,,,,,,,,,,,,,,,,,,,,,,,,
1738755233.126488,1738755233.127096,124.000000,0.000000,4320.512695,4348.846191,4254.487305,4302.692383,4355.512695,4358.077148,4362.436035,4553.205078,4542.820313,4561.025879,4498.205078,5664.230957,4311.025879,4257.051270,0.000000,4.000000,75.000000,,,,0.000000,0.000000,0.000000,0.000000,0.000000,0.000000,0.000000,0.000000,0.000000,0.000000,0.000000,0.000000,0.000000,0.000000,0.000000,0.000000,,,,,,,,,,,,,,,,,31.000000,0.000000,0.785404,-0.615417,-0.061035,0.026001,0.059089,-0.973263,0.233915,4.091797,-15.063075,22.831451,,,,,,,,,,,,,,,,,,,,,,,,,,,,,,,,,,,,,,,,,,,,,,,,,,,,,,,,,,,,,,,,,,,,,,,,,,,,,,,,,,,,,,,,,,,,,,,,,,,,,
1738755233.134296,1738755233.134804,125.000000,0.000000,4322.179688,4348.846191,4259.871582,4301.282227,4351.538574,4361.666504,4365.641113,4552.692383,4540.384766,4562.692383,4497.179688,5665.128418,4310.384766,4251.153809,0.000000,4.000000,75.000000,,,,0.000000,0.000000,0.000000,0.000000,0.000000,0.000000,0.000000,0.000000,0.000000,0.000000,0.000000,0.000000,0.000000,0.000000,0.000000,0.000000,,,,,,,,,,,,,,,,,,,,,,,,,,,,,,,,,,,,,,,,,,,,,,,,,,,,,,,,,,,,,,,,,,,,,,,,,,,,,,,,,,,,,,,,,,,,,,,,,,,,,,,,,,,,,,,,,,,,,,,,,,,,,,,,,
1738755233.142104,1738755233.142612,126.000000,0.000000,4322.179688,4352.179688,4255.128418,4302.051270,4350.000000,4360.512695,4369.230957,4548.461426,4538.717773,4559.487305,4496.410156,5663.846191,4312.307617,4253.589844,0.000000,4.000000,75.000000,,,,0.000000,0.000000,0.000000,0.000000,0.000000,0.000000,0.000000,0.000000,0.000000,0.000000,0.000000,0.000000,0.000000,0.000000,0.000000,0.000000,,,,,,,,,,,,,,,,,,,,,,,,,,,,,,,,,,,,,,,,,,,,,,,,,,,,,,,,,,,,0.028291,0.012112,0.022506,0.014931,0.017143,0.042252,0.045557,0.056801,0.037287,0.024774,0.025044,0.016240,0.016070,0.026108,0.024154,0.032867,0.019361,0.024876,0.020415,0.022888,0.042183,0.022777,0.016842,0.030493,0.021542,0.010677,0.013660,0.019012,0.012182,0.021088,0.028364,0.059975,0.030527,0.027062,0.039649,0.026859,0.026097,0.016693,0.021068,0.023311,0.026411,0.029120,0.065931,0.014960,0.023443,0.012694,0.018069,0.039730,0.011125,0.018911,0.022838,0.044757,0.010988,0.016748,0.021804,0.012199,0.030579,0.032549,0.020560,0.035620,0.074413,0.053047,0.047759,0.027246,0.029340,0.029219,0.018417,0.033744,0.025889,0.030016
1738755233.149912,1738755233.150320,127.000000,0.000000,4322.820313,4353.461426,4251.410156,4301.794922,4352.692383,4357.436035,4367.051270,4548.205078,4538.717773,4560.128418,4495.897461,5662.179688,4311.153809,4259.743652,75.000000,4.000000,75.000000,,,,0.000000,0.000000,0.000000,0.000000,0.000000,0.000000,0.000000,0.000000,0.000000,0.000000,0.000000,0.000000,0.000000,0.000000,0.000000,0.000000,,,,,,,,,,,,,,,,,,,,,,,,,,,,,,,,,,,,,,,,,,,,,,,,,,,,,,,,,,,,,,,,,,,,,,,,,,,,,,,,,,,,,,,,,,,,,,,,,,,,,,,,,,,,,,,,,,,,,,,,,,,,,,,,,
1738755233.157720,1738755233.158128,0.000000,0.000000,4321.666504,4351.410156,4254.615234,4300.512695,4351.666504,4359.615234,4366.282227,4552.179688,4539.358887,4563.333496,4494.871582,5663.205078,4310.000000,4257.307617,0.000000,4.000000,75.000000,,,,0.000000,0.000000,0.000000,0.000000,0.000000,0.000000,0.000000,0.000000,0.000000,0.000000,0.000000,0.000000,0.000000,0.000000,0.000000,0.000000,,,,,,,,,,,,,,,,,0.000000,0.000000,0.785404,-0.615417,-0.061035,0.026001,0.058113,-0.976193,0.233915,4.182617,-15.140100,22.798307,,,,,,,,,,,,,,,,,,,,,,,,,,,,,,,,,,,,,,,,,,,,,,,,,,,,,,,,,,,,,,,,,,,,,,,,,,,,,,,,,,,,,,,,,,,,,,,,,,,,,
1738755233.165528,1738755233.165836,1.000000,0.000000,4318.846191,4349.102539,4254.871582,4300.641113,4350.897461,4361.025879,4368.589844,4552.436035,4537.692383,4561.538574,4498.077148,5664.487305,4312.436035,4256.410156,0.000000,4.000000,75.000000,,,,0.000000,0.000000,0.000000,0.000000,0.000000,0.000000,0.000000,0.000000,0.000000,0.000000,0.000000,0.000000,0.000000,0.000000,0.000000,0.000000,,,,,,,,,,,,,,,,,,,,,,,,,,,,,,,,,,,,,,,,,,,,,,,,,,,,,,,,,,,,,,,,,,,,,,,,,,,,,,,,,,,,,,,,,,,,,,,,,,,,,,,,,,,,,,,,,,,,,,,,,,,,,,,,,
1738755233.173336,1738755233.173644,2.000000,0.000000,4321.025879,4348.461426,4250.641113,4301.153809,4351.153809,4359.358887,4367.692383,4549.615234,4536.666504,4558.589844,4500.256348,5664.615234,4311.666504,4258.461426,0.000000,4.000000,75.000000,,,,0.000000,0.000000,0.000000,0.000000,0.000000,0.000000,0.000000,0.000000,0.000000,0.000000,0.000000,0.000000,0.000000,0.000000,0.000000,0.000000,,,,,,,,,,,,,,,,,,,,,,,,,,,,,,,,,,,,,,,,,,,,,,,,,,,,,,,,,,,,,,,,,,,,,,,,,,,,,,,,,,,,,,,,,,,,,,,,,,,,,,,,,,,,,,,,,,,,,,,,,,,,,,,,,
1738755233.181145,1738755233.181352,3.000000,0.000000,4322.436035,4347.820313,4252.948730,4302.948730,4347.692383,4358.974121,4363.974121,4548.717773,4540.256348,4559.743652,4496.922852,5663.589844,4311.153809,4257.820313,0.000000,4.000000,75.000000,,,,0.000000,0.000000,0.000000,0.000000,0.000000,0.000000,0.000000,0.000000,0.000000,0.000000,0.000000,0.000000,0.000000,0.000000,0.000000,0.000000,,,,,,,,,,,,,,,,,,,,,,,,,,,,,,,,,,,,,,,,,,,,,,,,,,,,,,,,,,,,,,,,,,,,,,,,,,,,,,,,,,,,,,,,,,,,,,,,,,,,,,,,,,,,,,,,,,,,,,,,,,,,,,,,,
1738755233.188953,1738755233.189160,4.000000,0.000000,4319.230957,4349.487305,4258.717773,4305.512695,4349.871582,4360.384766,4362.179688,4549.487305,4540.256348,4560.000000,4495.128418,5663.461426,4311.410156,4257.179688,0.000000,4.000000,75.000000,,,,0.000000,0.000000,0.000000,0.000000,0.000000,0.000000,0.000000,0.000000,0.000000,0.000000,0.000000,0.000000,0.000000,0.000000,0.000000,0.000000,,,,,,,,,,,,,,,,,1.000000,0.000000,0.785400,-0.615417,-0.061096,0.026001,0.055183,-0.976193,0.243682,4.347689,-15.159424,22.768476,,,,,,,,,,,,,,,,,,,,,,,,,,,,,,,,,,,,,,,,,,,,,,,,,,,,,,,,,,,,,,,,,,,,,,,,,,,,,,,,,,,,,,,,,,,,,,,,,,,,,
1738755233.196761,1738755233.196868,5.000000,0.000000,4320.897461,4350.769043,4256.282227,4302.948730,4356.666504,4360.384766,4366.025879,4550.897461,4536.153809,4559.743652,4500.128418,5663.974121,4311.025879,4255.384766,0.000000,4.000000,75.000000,,,,0.000000,0.000000,0.000000,0.000000,0.000000,0.000000,0.000000,0.000000,0.000000,0.000000,0.000000,0.000000,0.000000,0.000000,0.000000,0.000000,,,,,,,,,,,,,,,,,,,,,,,,,,,,,,,,,,,,,,,,,,,,,,,,,,,,,,,,,,,,,,,,,,,,,,,,,,,,,,,,,,,,,,,,,,,,,,,,,,,,,,,,,,,,,,,,,,,,,,,,,,,,,,,,,
1738755233.204569,1738755233.204776,6.000000,0.000000,4325.641113,4348.974121,4253.333496,4299.615234,4354.871582,4360.512695,4367.563965,4550.641113,4538.846191,4560.769043,4502.179688,5663.205078,4312.051270,4254.358887,0.000000,4.000000,75.000000,,,,0.000000,0.000000,0.000000,0.000000,0.000000,0.000000,0.000000,0.000000,0.000000,0.000000,0.000000,0.000000,0.000000,0.000000,0.000000,0.000000,,,,,,,,,,,,,,,,,,,,,,,,,,,,,,,,,,,,,,,,,,,,,,,,,,,,,,,,,,,,,,,,,,,,,,,,,,,,,,,,,,,,,,,,,,,,,,,,,,,,,,,,,,,,,,,,,,,,,,,,,,,,,,,,,
1738755233.212377,1738755233.212584,7.000000,0.000000,4324.487305,4348.846191,4255.512695,4300.897461,4351.922852,4360.641113,4365.512695,4549.871582,4542.692383,4559.487305,4498.461426,5664.743652,4313.589844,4256.666504,0.000000,4.000000,75.000000,,,,0.000000,0.000000,0.000000,0.000000,0.000000,0.000000,0.000000,0.000000,0.000000,0.000000,0.000000,0.000000,0.000000,0.000000,0.000000,0.000000,,,,,,,,,,,,,,,,,,,,,,,,,,,,,,,,,,,,,,,,,,,,,,,,,,,,,,,,,,,,,,,,,,,,,,,,,,,,,,,,,,,,,,,,,,,,,,,,,,,,,,,,,,,,,,,,,,,,,,,,,,,,,,,,,
1738755233.220185,1738755233.220492,8.000000,0.000000,4321.025879,4348.333496,4255.256348,4300.897461,4354.102539,4360.641113,4364.487305,4550.641113,4542.051270,4558.333496,4497.307617,5665.128418,4315.000000,4258.205078,0.000000,4.000000,75.000000,,,,0.000000,0.000000,0.000000,0.000000,0.000000,0.000000,0.000000,0.000000,0.000000,0.000000,0.000000,0.000000,0.000000,0.000000,0.000000,0.000000,,,,,,,,,,,,,,,,,2.000000,0.000000,0.785497,-0.615295,-0.061096,0.025940,0.056648,-0.972775,0.247589,4.329587,-15.093481,22.858295,,,,,,,,,,,,,,,,,,,,,,,,,,,,,,,,,,,,,,,,,,,,,,,,,,,,,,,,,,,,,,,,,,,,,,,,,,,,,,,,,,,,,,,,,,,,,,,,,,,,,
1738755233.227993,1738755233.228300,9.000000,0.000000,4321.410156,4348.077148,4252.820313,4299.102539,4353.717773,4362.179688,4365.256348,4550.897461,4541.922852,4559.615234,4499.102539,5663.461426,4313.205078,4256.666504,0.000000,4.000000,75.000000,,,,0.000000,0.000000,0.000000,0.000000,0.000000,0.000000,0.000000,0.000000,0.000000,0.000000,0.000000,0.000000,0.000000,0.000000,0.000000,0.000000,,,,,,,,,,,,,,,,,,,,,,,,,,,,,,,,,,,,,,,,,,,,,,,,,,,,,,,,,,,,,,,,,,,,,,,,,,,,,,,,,,,,,,,,,,,,,,,,,,,,,,,,,,,,,,,,,,,,,,,,,,,,,,,,,
1738755233.235801,1738755233.236208,10.000000,0.000000,4323.717773,4349.230957,4252.179688,4300.000000,4349.615234,4362.179688,4366.410156,4550.897461,4542.179688,4560.384766,4500.256348,5665.512695,4312.179688,4256.282227,0.000000,4.000000,75.000000,,,,0.000000,0.000000,0.000000,0.000000,0.000000,0.000000,0.000000,0.000000,0.000000,0.000000,0.000000,0.000000,0.000000,0.000000,0.000000,0.000000,,,,,,,,,,,,,,,,,,,,,,,,,,,,,,,,,,,,,,,,,,,,,,,,,,,,,,,,,,,,,,,,,,,,,,,,,,,,,,,,,,,,,,,,,,,,,,,,,,,,,,,,,,,,,,,,,,,,,,,,,,,,,,,,,
1738755233.243609,1738755233.244017,11.000000,0.000000,4322.692383,4350.897461,4252.692383,4301.282227,4348.461426,4360.512695,4365.384766,4550.641113,4543.333496,4561.410156,4500.256348,5665.897461,4313.846191,4257.436035,0.000000,4.000000,75.000000,,,,0.000000,0.000000,0.000000,0.000000,0.000000,0.000000,0.000000,0.000000,0.000000,0.000000,0.000000,0.000000,0.000000,0.000000,0.000000,0.000000,,,,,,,,,,,,,,,,,,,,,,,,,,,,,,,,,,,,,,,,,,,,,,,,,,,,,,,,,,,,,,,,,,,,,,,,,,,,,,,,,,,,,,,,,,,,,,,,,,,,,,,,,,,,,,,,,,,,,,,,,,,,,,,,,
