title:bread1, start timestamp:1738755581.758262, stop timestamp:1738755582.788931, headset type:EPOCX, headset serial:E50208A5, headset firmware:720, channels:168, sampling rate:eeg_128;mot_32;pm_0.1;pow_8, samples:133       , version:2.2, 
Timestamp,OriginalTimestamp,EEG.Counter,EEG.Interpolated,EEG.AF3,EEG.F7,EEG.F3,EEG.FC5,EEG.T7,EEG.P7,EEG.O1,EEG.O2,EEG.P8,EEG.T8,EEG.FC6,EEG.F4,EEG.F8,EEG.AF4,EEG.RawCq,EEG.Battery,EEG.BatteryPercent,MarkerIndex,MarkerType,MarkerValueInt,EEG.MarkerHardware,CQ.AF3,CQ.F7,CQ.F3,CQ.FC5,CQ.T7,CQ.P7,CQ.O1,CQ.O2,CQ.P8,CQ.T8,CQ.FC6,CQ.F4,CQ.F8,CQ.AF4,CQ.Overall,EQ.SampleRateQuality,EQ.OVERALL,EQ.AF3,EQ.F7,EQ.F3,EQ.FC5,EQ.T7,EQ.P7,EQ.O1,EQ.O2,EQ.P8,EQ.T8,EQ.FC6,EQ.F4,EQ.F8,EQ.AF4,MOT.CounterMems,MOT.InterpolatedMems,MOT.Q0,MOT.Q1,MOT.Q2,MOT.Q3,MOT.AccX,MOT.AccY,MOT.AccZ,MOT.MagX,MOT.MagY,MOT.MagZ,PM.Attention.IsActive,PM.Attention.Scaled,PM.Attention.Raw,PM.Attention.Min,PM.Attention.Max,PM.Engagement.IsActive,PM.Engagement.Scaled,PM.Engagement.Raw,PM.Engagement.Min,PM.Engagement.Max,PM.Excitement.IsActive,PM.Excitement.Scaled,PM.Excitement.Raw,PM.Excitement.Min,PM.Excitement.Max,PM.LongTermExcitement,PM.Stress.IsActive,PM.Stress.Scaled,PM.Stress.Raw,PM.Stress.Min,PM.Stress.Max,PM.Relaxation.IsActive,PM.Relaxation.Scaled,PM.Relaxation.Raw,PM.Relaxation.Min,PM.Relaxation.Max,PM.Interest.IsActive,PM.Interest.Scaled,PM.Interest.Raw,PM.Interest.Min,PM.Interest.Max,POW.AF3.Theta,POW.AF3.Alpha,POW.AF3.BetaL,POW.AF3.BetaH,POW.AF3.Gamma,POW.F7.Theta,POW.F7.Alpha,POW.F7.BetaL,POW.F7.BetaH,POW.F7.Gamma,POW.F3.Theta,POW.F3.Alpha,POW.F3.BetaL,POW.F3.BetaH,POW.F3.Gamma,POW.FC5.Theta,POW.FC5.Alpha,POW.FC5.BetaL,POW.FC5.BetaH,POW.FC5.Gamma,POW.T7.Theta,POW.T7.Alpha,POW.T7.BetaL,POW.T7.BetaH,POW.T7.Gamma,POW.P7.Theta,POW.P7.Alpha,POW.P7.BetaL,POW.P7.BetaH,POW.P7.Gamma,POW.O1.Theta,POW.O1.Alpha,POW.O1.BetaL,POW.O1.BetaH,POW.O1.Gamma,POW.O2.Theta,POW.O2.Alpha,POW.O2.BetaL,POW.O2.BetaH,POW.O2.Gamma,POW.P8.Theta,POW.P8.Alpha,POW.P8.BetaL,POW.P8.BetaH,POW.P8.Gamma,POW.T8.Theta,POW.T8.Alpha,POW.T8.BetaL,POW.T8.BetaH,POW.T8.Gamma,POW.FC6.Theta,POW.FC6.Alpha,POW.FC6.BetaL,POW.FC6.BetaH,POW.FC6.Gamma,POW.F4.Theta,POW.F4.Alpha,POW.F4.BetaL,POW.F4.BetaH,POW.F4.Gamma,POW.F8.Theta,POW.F8.Alpha,POW.F8.BetaL,POW.F8.BetaH,POW.F8.Gamma,POW.AF4.Theta,POW.AF4.Alpha,POW.AF4.BetaL,POW.AF4.BetaH,POW.AF4.Gamma
1738755581.758262,1738755581.759020,102.000000,0.000000,4320.384766,4350.000000,4249.743652,4299.102539,4349.871582,4360.512695,4363.846191,4547.436035,4540.128418,4559.615234,4494.871582,5660.000000,4309.615234,4256.282227,0.000000,3.000000,74.000000,,,,0.000000,0.000000,0.000000,0.000000,0.000000,0.000000,0.000000,0.000000,0.000000,0.000000,0.000000,0.000000,0.000000,0.000000,0.000000,0.000000,,,,,,,,,,,,,,,,,,,,,,,,,,,,,,,,,,,,,,,,,,,,,,,,,,,,,,,,,,,,,,,,,,,,,,,,,,,,,,,,,,,,,,,,,,,,,,,,,,,,,,,,,,,,,,,,,,,,,,,,,,,,,,,,,
1738755581.766070,1738755581.766728,103.000000,0.000000,4319.358887,4346.794922,4252.436035,4301.410156,4352.948730,4361.282227,4362.948730,4546.025879,4539.743652,4559.358887,4493.205078,5660.641113,4309.102539,4257.179688,0.000000,3.000000,74.000000,,,,0.000000,0.000000,0.000000,0.000000,0.000000,0.000000,0.000000,0.000000,0.000000,0.000000,0.000000,0.000000,0.000000,0.000000,0.000000,0.000000,,,,,,,,,,,,,,,,,,,,,,,,,,,,,,,,,,,,,,,,,,,,,,,,,,,,,,,,,,,,,,,,,,,,,,,,,,,,,,,,,,,,,,,,,,,,,,,,,,,,,,,,,,,,,,,,,,,,,,,,,,,,,,,,,
1738755581.773878,1738755581.774536,104.000000,0.000000,4320.256348,4346.025879,4253.333496,4302.307617,4353.077148,4360.769043,4363.589844,4550.128418,4538.589844,4560.128418,4493.589844,5659.230957,4311.666504,4257.436035,0.000000,3.000000,74.000000,,,,0.000000,0.000000,0.000000,0.000000,0.000000,0.000000,0.000000,0.000000,0.000000,0.000000,0.000000,0.000000,0.000000,0.000000,0.000000,0.000000,,,,,,,,,,,,,,,,,26.000000,0.000000,0.785181,-0.615784,-0.060913,0.024292,0.068368,-0.971798,0.235869,4.382565,-15.243276,22.641840,,,,,,,,,,,,,,,,,,,,,,,,,,,,,,,,,,,,,,,,,,,,,,,,,,,,,,,,,,,,,,,,,,,,,,,,,,,,,,,,,,,,,,,,,,,,,,,,,,,,,
1738755581.781686,1738755581.782244,105.000000,0.000000,4323.846191,4350.000000,4250.641113,4299.743652,4351.025879,4358.846191,4364.358887,4552.563965,4538.333496,4561.538574,4493.205078,5658.717773,4308.846191,4254.743652,0.000000,3.000000,74.000000,,,,0.000000,0.000000,0.000000,0.000000,0.000000,0.000000,0.000000,0.000000,0.000000,0.000000,0.000000,0.000000,0.000000,0.000000,0.000000,0.000000,,,,,,,,,,,,,,,,,,,,,,,,,,,,,,,,,,,,,,,,,,,,,,,,,,,,,,,,,,,,,,,,,,,,,,,,,,,,,,,,,,,,,,,,,,,,,,,,,,,,,,,,,,,,,,,,,,,,,,,,,,,,,,,,,
1738755581.789494,1738755581.790152,106.000000,0.000000,4324.230957,4351.538574,4250.512695,4300.512695,4351.794922,4359.743652,4362.179688,4551.794922,4539.615234,4559.743652,4492.948730,5660.384766,4307.051270,4255.000000,0.000000,3.000000,74.000000,,,,0.000000,0.000000,0.000000,0.000000,0.000000,0.000000,0.000000,0.000000,0.000000,0.000000,0.000000,0.000000,0.000000,0.000000,0.000000,0.000000,,,,,,,,,,,,,,,,,,,,,,,,,,,,,,,,,,,,,,,,,,,,,,,,,,,,,,,,,,,,,,,,,,,,,,,,,,,,,,,,,,,,,,,,,,,,,,,,,,,,,,,,,,,,,,,,,,,,,,,,,,,,,,,,,
1738755581.797303,1738755581.797961,107.000000,0.000000,4322.436035,4351.282227,4253.846191,4304.871582,4350.897461,4362.307617,4361.922852,4551.794922,4542.179688,4558.205078,4494.615234,5660.641113,4311.666504,4255.256348,0.000000,3.000000,74.000000,,,,0.000000,0.000000,0.000000,0.000000,0.000000,0.000000,0.000000,0.000000,0.000000,0.000000,0.000000,0.000000,0.000000,0.000000,0.000000,0.000000,,,,,,,,,,,,,,,,,,,,,,,,,,,,,,,,,,,,,,,,,,,,,,,,,,,,,,,,,,,,,,,,,,,,,,,,,,,,,,,,,,,,,,,,,,,,,,,,,,,,,,,,,,,,,,,,,,,,,,,,,,,,,,,,,
1738755581.805111,1738755581.805869,108.000000,0.000000,4323.846191,4350.384766,4253.589844,4305.128418,4350.000000,4362.051270,4365.256348,4552.051270,4540.641113,4559.871582,4494.487305,5662.692383,4310.000000,4253.333496,0.000000,3.000000,74.000000,,,,0.000000,0.000000,0.000000,0.000000,0.000000,0.000000,0.000000,0.000000,0.000000,0.000000,0.000000,0.000000,0.000000,0.000000,0.000000,0.000000,,,,,,,,,,,,,,,,,27.000000,0.000000,0.785174,-0.615784,-0.061035,0.024231,0.061531,-0.979612,0.238799,4.344308,-15.318948,22.594324,,,,,,,,,,,,,,,,,,,,,,,,,,,,,,,,,,,,,,,,,,,,,,,,,,,,,,,,,,,,,,,,,,,,,,,,,,,,,,,,,,,,,,,,,,,,,,,,,,,,,
1738755581.812919,1738755581.813677,109.000000,0.000000,4323.205078,4348.589844,4251.922852,4300.128418,4351.794922,4358.461426,4363.333496,4549.230957,4540.769043,4560.384766,4496.538574,5661.025879,4310.897461,4258.589844,0.000000,3.000000,74.000000,,,,0.000000,0.000000,0.000000,0.000000,0.000000,0.000000,0.000000,0.000000,0.000000,0.000000,0.000000,0.000000,0.000000,0.000000,0.000000,0.000000,,,,,,,,,,,,,,,,,,,,,,,,,,,,,,,,,,,,,,,,,,,,,,,,,,,,,,,,,,,,,,,,,,,,,,,,,,,,,,,,,,,,,,,,,,,,,,,,,,,,,,,,,,,,,,,,,,,,,,,,,,,,,,,,,
1738755581.820727,1738755581.821585,110.000000,0.000000,4321.666504,4349.102539,4253.974121,4303.205078,4352.948730,4358.974121,4362.948730,4550.256348,4541.794922,4559.615234,4495.128418,5661.922852,4309.871582,4257.692383,0.000000,3.000000,74.000000,,,,0.000000,0.000000,0.000000,0.000000,0.000000,0.000000,0.000000,0.000000,0.000000,0.000000,0.000000,0.000000,0.000000,0.000000,0.000000,0.000000,,,,,,,,,,,,,,,,,,,,,,,,,,,,,,,,,,,,,,,,,,,,,,,,,,,,,,,,,,,,0.189752,0.234579,0.108656,0.023345,0.023775,0.151313,0.088330,0.054106,0.029689,0.021549,0.965136,0.479953,0.489979,0.115755,0.025434,0.209325,0.076806,0.108376,0.034484,0.027740,0.080177,0.034247,0.028642,0.020045,0.027133,0.048436,0.025323,0.038911,0.035621,0.027404,0.126854,0.053455,0.119133,0.029894,0.028687,0.042980,0.031036,0.032469,0.030993,0.031202,0.095475,0.126312,0.066255,0.024882,0.032569,0.021260,0.015349,0.089344,0.019576,0.017439,0.046696,0.044106,0.035795,0.019527,0.024126,0.550959,0.322674,0.140676,0.032210,0.027363,0.231185,0.151518,0.147456,0.053027,0.039936,0.407538,0.267467,0.136424,0.047322,0.025380
1738755581.828535,1738755581.829393,111.000000,0.000000,4321.025879,4352.563965,4256.153809,4307.179688,4351.922852,4360.641113,4365.384766,4553.205078,4540.000000,4561.282227,4491.666504,5663.846191,4307.307617,4253.077148,0.000000,3.000000,74.000000,,,,0.000000,0.000000,0.000000,0.000000,0.000000,0.000000,0.000000,0.000000,0.000000,0.000000,0.000000,0.000000,0.000000,0.000000,0.000000,0.000000,,,,,,,,,,,,,,,,,,,,,,,,,,,,,,,,,,,,,,,,,,,,,,,,,,,,,,,,,,,,,,,,,,,,,,,,,,,,,,,,,,,,,,,,,,,,,,,,,,,,,,,,,,,,,,,,,,,,,,,,,,,,,,,,,
1738755581.836343,1738755581.837301,112.000000,0.000000,4320.897461,4350.128418,4255.128418,4302.051270,4350.641113,4358.717773,4364.102539,4551.282227,4540.256348,4562.436035,4494.487305,5659.358887,4310.128418,4256.794922,0.000000,3.000000,74.000000,,,,0.000000,0.000000,0.000000,0.000000,0.000000,0.000000,0.000000,0.000000,0.000000,0.000000,0.000000,0.000000,0.000000,0.000000,0.000000,0.000000,,,,,,,,,,,,,,,,,28.000000,0.000000,0.785177,-0.615784,-0.060974,0.024292,0.070321,-0.968868,0.233915,4.359878,-15.370386,22.584890,,,,,,,,,,,,,,,,,,,,,,,,,,,,,,,,,,,,,,,,,,,,,,,,,,,,,,,,,,,,,,,,,,,,,,,,,,,,,,,,,,,,,,,,,,,,,,,,,,,,,
1738755581.844151,1738755581.845110,113.000000,0.000000,4321.025879,4345.128418,4252.307617,4301.922852,4350.384766,4358.717773,4367.051270,4549.487305,4541.282227,4560.512695,4494.743652,5659.871582,4306.538574,4252.948730,0.000000,3.000000,74.000000,,,,0.000000,0.000000,0.000000,0.000000,0.000000,0.000000,0.000000,0.000000,0.000000,0.000000,0.000000,0.000000,0.000000,0.000000,0.000000,0.000000,,,,,,,,,,,,,,,,,,,,,,,,,,,,,,,,,,,,,,,,,,,,,,,,,,,,,,,,,,,,,,,,,,,,,,,,,,,,,,,,,,,,,,,,,,,,,,,,,,,,,,,,,,,,,,,,,,,,,,,,,,,,,,,,,
1738755581.851959,1738755581.853018,114.000000,0.000000,4319.358887,4349.102539,4252.307617,4305.000000,4350.512695,4362.051270,4368.974121,4548.717773,4539.358887,4561.025879,4489.615234,5662.179688,4305.769043,4249.102539,0.000000,3.000000,74.000000,,,,0.000000,0.000000,0.000000,0.000000,0.000000,0.000000,0.000000,0.000000,0.000000,0.000000,0.000000,0.000000,0.000000,0.000000,0.000000,0.000000,,,,,,,,,,,,,,,,,,,,,,,,,,,,,,,,,,,,,,,,,,,,,,,,,,,,,,,,,,,,,,,,,,,,,,,,,,,,,,,,,,,,,,,,,,,,,,,,,,,,,,,,,,,,,,,,,,,,,,,,,,,,,,,,,
1738755581.859767,1738755581.860826,115.000000,0.000000,4321.922852,4350.128418,4256.282227,4303.077148,4348.974121,4363.077148,4364.102539,4549.230957,4538.077148,4561.666504,4490.769043,5660.000000,4307.179688,4251.538574,0.000000,3.000000,74.000000,,,,0.000000,0.000000,0.000000,0.000000,0.000000,0.000000,0.000000,0.000000,0.000000,0.000000,0.000000,0.000000,0.000000,0.000000,0.000000,0.000000,,,,,,,,,,,,,,,,,,,,,,,,,,,,,,,,,,,,,,,,,,,,,,,,,,,,,,,,,,,,,,,,,,,,,,,,,,,,,,,,,,,,,,,,,,,,,,,,,,,,,,,,,,,,,,,,,,,,,,,,,,,,,,,,,
1738755581.867576,1738755581.868534,116.000000,0.000000,4325.641113,4346.153809,4257.307617,4302.436035,4348.333496,4360.897461,4362.051270,4551.025879,4538.846191,4559.230957,4496.153809,5658.461426,4306.666504,4251.922852,0.000000,3.000000,74.000000,,,,0.000000,0.000000,0.000000,0.000000,0.000000,0.000000,0.000000,0.000000,0.000000,0.000000,0.000000,0.000000,0.000000,0.000000,0.000000,0.000000,,,,,,,,,,,,,,,,,29.000000,0.000000,0.785172,-0.615784,-0.061035,0.024292,0.065438,-0.963497,0.236357,4.373890,-15.316681,22.693069,,,,,,,,,,,,,,,,,,,,,,,,,,,,,,,,,,,,,,,,,,,,,,,,,,,,,,,,,,,,,,,,,,,,,,,,,,,,,,,,,,,,,,,,,,,,,,,,,,,,,
1738755581.875384,1738755581.876342,117.000000,0.000000,4322.948730,4349.230957,4252.563965,4302.820313,4351.538574,4358.974121,4365.256348,4550.384766,4538.077148,4559.358887,4493.717773,5658.846191,4311.666504,4253.205078,0.000000,3.000000,74.000000,,,,0.000000,0.000000,0.000000,0.000000,0.000000,0.000000,0.000000,0.000000,0.000000,0.000000,0.000000,0.000000,0.000000,0.000000,0.000000,0.000000,,,,,,,,,,,,,,,,,,,,,,,,,,,,,,,,,,,,,,,,,,,,,,,,,,,,,,,,,,,,,,,,,,,,,,,,,,,,,,,,,,,,,,,,,,,,,,,,,,,,,,,,,,,,,,,,,,,,,,,,,,,,,,,,,
1738755581.883192,1738755581.884051,118.000000,0.000000,4322.307617,4351.153809,4251.282227,4301.282227,4351.538574,4357.436035,4369.230957,4549.615234,4539.102539,4561.282227,4488.461426,5661.153809,4309.615234,4252.820313,0.000000,3.000000,74.000000,,,,0.000000,0.000000,0.000000,0.000000,0.000000,0.000000,0.000000,0.000000,0.000000,0.000000,0.000000,0.000000,0.000000,0.000000,0.000000,0.000000,,,,,,,,,,,,,,,,,,,,,,,,,,,,,,,,,,,,,,,,,,,,,,,,,,,,,,,,,,,,,,,,,,,,,,,,,,,,,,,,,,,,,,,,,,,,,,,,,,,,,,,,,,,,,,,,,,,,,,,,,,,,,,,,,
1738755581.891000,1738755581.891859,119.000000,0.000000,4325.000000,4348.717773,4254.358887,4301.153809,4348.717773,4357.307617,4367.436035,4550.641113,4543.589844,4561.794922,4494.871582,5660.128418,4307.179688,4251.922852,0.000000,3.000000,74.000000,,,,0.000000,0.000000,0.000000,0.000000,0.000000,0.000000,0.000000,0.000000,0.000000,0.000000,0.000000,0.000000,0.000000,0.000000,0.000000,0.000000,,,,,,,,,,,,,,,,,,,,,,,,,,,,,,,,,,,,,,,,,,,,,,,,,,,,,,,,,,,,,,,,,,,,,,,,,,,,,,,,,,,,,,,,,,,,,,,,,,,,,,,,,,,,,,,,,,,,,,,,,,,,,,,,,
1738755581.898808,1738755581.899567,120.000000,0.000000,4324.743652,4348.333496,4253.974121,4304.487305,4351.794922,4359.743652,4364.743652,4551.025879,4543.205078,4560.128418,4498.717773,5660.897461,4311.282227,4253.461426,0.000000,3.000000,74.000000,,,,0.000000,0.000000,0.000000,0.000000,0.000000,0.000000,0.000000,0.000000,0.000000,0.000000,0.000000,0.000000,0.000000,0.000000,0.000000,0.000000,,,,,,,,,,,,,,,,,30.000000,0.000000,0.785172,-0.615784,-0.061035,0.024292,0.061043,-0.974728,0.241240,4.353168,-15.235013,22.757095,,,,,,,,,,,,,,,,,,,,,,,,,,,,,,,,,,,,,,,,,,,,,,,,,,,,,,,,,,,,,,,,,,,,,,,,,,,,,,,,,,,,,,,,,,,,,,,,,,,,,
1738755581.906616,1738755581.907375,121.000000,0.000000,4321.282227,4350.384766,4250.512695,4305.641113,4353.974121,4361.666504,4365.384766,4549.743652,4539.743652,4558.974121,4495.256348,5662.436035,4310.641113,4255.128418,0.000000,3.000000,74.000000,,,,0.000000,0.000000,0.000000,0.000000,0.000000,0.000000,0.000000,0.000000,0.000000,0.000000,0.000000,0.000000,0.000000,0.000000,0.000000,0.000000,,,,,,,,,,,,,,,,,,,,,,,,,,,,,,,,,,,,,,,,,,,,,,,,,,,,,,,,,,,,,,,,,,,,,,,,,,,,,,,,,,,,,,,,,,,,,,,,,,,,,,,,,,,,,,,,,,,,,,,,,,,,,,,,,
1738755581.914424,1738755581.915083,122.000000,0.000000,4319.358887,4352.692383,4251.410156,4301.153809,4350.000000,4361.153809,4363.717773,4550.000000,4540.128418,4560.256348,4496.282227,5661.025879,4311.282227,4255.641113,0.000000,3.000000,74.000000,,,,0.000000,0.000000,0.000000,0.000000,0.000000,0.000000,0.000000,0.000000,0.000000,0.000000,0.000000,0.000000,0.000000,0.000000,0.000000,0.000000,,,,,,,,,,,,,,,,,,,,,,,,,,,,,,,,,,,,,,,,,,,,,,,,,,,,,,,,,,,,,,,,,,,,,,,,,,,,,,,,,,,,,,,,,,,,,,,,,,,,,,,,,,,,,,,,,,,,,,,,,,,,,,,,,
1738755581.922232,1738755581.922891,123.000000,0.000000,4322.179688,4350.897461,4253.846191,4300.641113,4348.974121,4360.769043,4363.717773,4552.563965,4541.410156,4560.897461,4495.128418,5664.102539,4311.410156,4255.000000,0.000000,3.000000,74.000000,,,,0.000000,0.000000,0.000000,0.000000,0.000000,0.000000,0.000000,0.000000,0.000000,0.000000,0.000000,0.000000,0.000000,0.000000,0.000000,0.000000,,,,,,,,,,,,,,,,,,,,,,,,,,,,,,,,,,,,,,,,,,,,,,,,,,,,,,,,,,,,,,,,,,,,,,,,,,,,,,,,,,,,,,,,,,,,,,,,,,,,,,,,,,,,,,,,,,,,,,,,,,,,,,,,,
1738755581.930040,1738755581.930599,124.000000,0.000000,4324.871582,4349.230957,4253.205078,4303.077148,4353.589844,4362.692383,4363.717773,4551.153809,4542.820313,4559.102539,4492.307617,5664.230957,4309.615234,4256.153809,0.000000,3.000000,74.000000,,,,0.000000,0.000000,0.000000,0.000000,0.000000,0.000000,0.000000,0.000000,0.000000,0.000000,0.000000,0.000000,0.000000,0.000000,0.000000,0.000000,,,,,,,,,,,,,,,,,31.000000,0.000000,0.785165,-0.615784,-0.061096,0.024353,0.070321,-0.979123,0.240752,4.401184,-15.128179,22.831387,,,,,,,,,,,,,,,,,,,,,,,,,,,,,,,,,,,,,,,,,,,,,,,,,,,,,,,,,,,,,,,,,,,,,,,,,,,,,,,,,,,,,,,,,,,,,,,,,,,,,
1738755581.937848,1738755581.938407,125.000000,0.000000,4322.436035,4352.820313,4252.051270,4304.743652,4354.487305,4362.692383,4363.205078,4549.615234,4542.692383,4558.846191,4493.589844,5660.256348,4308.974121,4255.384766,0.000000,3.000000,74.000000,,,,0.000000,0.000000,0.000000,0.000000,0.000000,0.000000,0.000000,0.000000,0.000000,0.000000,0.000000,0.000000,0.000000,0.000000,0.000000,0.000000,,,,,,,,,,,,,,,,,,,,,,,,,,,,,,,,,,,,,,,,,,,,,,,,,,,,,,,,,,,,,,,,,,,,,,,,,,,,,,,,,,,,,,,,,,,,,,,,,,,,,,,,,,,,,,,,,,,,,,,,,,,,,,,,,
1738755581.945656,1738755581.946115,126.000000,0.000000,4323.205078,4352.692383,4252.692383,4305.641113,4351.153809,4360.384766,4366.153809,4551.025879,4539.615234,4560.897461,4493.974121,5661.922852,4309.615234,4253.974121,0.000000,3.000000,74.000000,,,,0.000000,0.000000,0.000000,0.000000,0.000000,0.000000,0.000000,0.000000,0.000000,0.000000,0.000000,0.000000,0.000000,0.000000,0.000000,0.000000,,,,,,,,,,,,,,,,,,,,,,,,,,,,,,,,,,,,,,,,,,,,,,,,,,,,,,,,,,,,0.191997,0.244834,0.111611,0.028569,0.023549,0.136673,0.080636,0.047844,0.027471,0.022501,0.826240,0.413851,0.421770,0.098020,0.025898,0.223613,0.073432,0.100685,0.032894,0.027715,0.078897,0.036729,0.022095,0.022297,0.029311,0.050264,0.028236,0.037953,0.033749,0.025376,0.137937,0.055035,0.128860,0.031414,0.031296,0.047182,0.028863,0.028122,0.031838,0.033065,0.101951,0.123942,0.073283,0.023543,0.029670,0.020656,0.014635,0.076146,0.021999,0.018646,0.039487,0.040795,0.041693,0.017637,0.024222,0.536032,0.321269,0.150490,0.033755,0.026652,0.234217,0.154980,0.143134,0.052162,0.037970,0.377355,0.237742,0.133638,0.044638,0.027461
1738755581.953465,1738755581.953923,127.000000,0.000000,4326.410156,4347.692383,4254.102539,4302.179688,4351.538574,4362.179688,4367.436035,4549.102539,4540.000000,4560.256348,4494.230957,5662.948730,4312.307617,4255.897461,74.000000,3.000000,74.000000,,,,0.000000,0.000000,0.000000,0.000000,0.000000,0.000000,0.000000,0.000000,0.000000,0.000000,0.000000,0.000000,0.000000,0.000000,0.000000,0.000000,,,,,,,,,,,,,,,,,,,,,,,,,,,,,,,,,,,,,,,,,,,,,,,,,,,,,,,,,,,,,,,,,,,,,,,,,,,,,,,,,,,,,,,,,,,,,,,,,,,,,,,,,,,,,,,,,,,,,,,,,,,,,,,,,
1738755581.961273,1738755581.961631,0.000000,0.000000,4324.871582,4345.641113,4254.871582,4301.282227,4355.128418,4364.615234,4367.051270,4548.589844,4540.256348,4558.974121,4494.743652,5662.563965,4307.563965,4253.077148,0.000000,3.000000,74.000000,,,,0.000000,0.000000,0.000000,0.000000,0.000000,0.000000,0.000000,0.000000,0.000000,0.000000,0.000000,0.000000,0.000000,0.000000,0.000000,0.000000,,,,,,,,,,,,,,,,,0.000000,0.000000,0.785163,-0.615784,-0.061096,0.024414,0.070321,-0.979612,0.234404,4.411066,-15.065360,22.914913,,,,,,,,,,,,,,,,,,,,,,,,,,,,,,,,,,,,,,,,,,,,,,,,,,,,,,,,,,,,,,,,,,,,,,,,,,,,,,,,,,,,,,,,,,,,,,,,,,,,,
1738755581.969081,1738755581.969539,1.000000,0.000000,4322.948730,4347.820313,4255.897461,4302.179688,4354.743652,4360.384766,4365.512695,4550.256348,4541.794922,4561.410156,4494.102539,5664.230957,4308.333496,4253.205078,0.000000,3.000000,74.000000,,,,0.000000,0.000000,0.000000,0.000000,0.000000,0.000000,0.000000,0.000000,0.000000,0.000000,0.000000,0.000000,0.000000,0.000000,0.000000,0.000000,,,,,,,,,,,,,,,,,,,,,,,,,,,,,,,,,,,,,,,,,,,,,,,,,,,,,,,,,,,,,,,,,,,,,,,,,,,,,,,,,,,,,,,,,,,,,,,,,,,,,,,,,,,,,,,,,,,,,,,,,,,,,,,,,
1738755581.976889,1738755581.977347,2.000000,0.000000,4324.358887,4349.102539,4256.538574,4300.512695,4350.641113,4357.051270,4365.000000,4550.000000,4543.205078,4562.051270,4494.230957,5662.436035,4314.743652,4259.487305,0.000000,3.000000,74.000000,,,,0.000000,0.000000,0.000000,0.000000,0.000000,0.000000,0.000000,0.000000,0.000000,0.000000,0.000000,0.000000,0.000000,0.000000,0.000000,0.000000,,,,,,,,,,,,,,,,,,,,,,,,,,,,,,,,,,,,,,,,,,,,,,,,,,,,,,,,,,,,,,,,,,,,,,,,,,,,,,,,,,,,,,,,,,,,,,,,,,,,,,,,,,,,,,,,,,,,,,,,,,,,,,,,,
1738755581.984697,1738755581.985256,3.000000,0.000000,4323.974121,4347.307617,4254.487305,4302.179688,4349.230957,4359.743652,4365.512695,4551.025879,4538.589844,4560.384766,4495.641113,5661.666504,4312.436035,4257.820313,0.000000,3.000000,74.000000,,,,0.000000,0.000000,0.000000,0.000000,0.000000,0.000000,0.000000,0.000000,0.000000,0.000000,0.000000,0.000000,0.000000,0.000000,0.000000,0.000000,,,,,,,,,,,,,,,,,,,,,,,,,,,,,,,,,,,,,,,,,,,,,,,,,,,,,,,,,,,,,,,,,,,,,,,,,,,,,,,,,,,,,,,,,,,,,,,,,,,,,,,,,,,,,,,,,,,,,,,,,,,,,,,,,
1738755581.992505,1738755581.993064,4.000000,0.000000,4322.051270,4348.717773,4253.461426,4304.230957,4351.282227,4360.384766,4362.820313,4550.512695,4539.230957,4561.282227,4495.384766,5662.692383,4311.922852,4254.102539,0.000000,3.000000,74.000000,,,,0.000000,0.000000,0.000000,0.000000,0.000000,0.000000,0.000000,0.000000,0.000000,0.000000,0.000000,0.000000,0.000000,0.000000,0.000000,0.000000,,,,,,,,,,,,,,,,,1.000000,0.000000,0.785259,-0.615662,-0.061096,0.024414,0.072763,-0.968380,0.238799,4.386626,-14.958824,22.740089,,,,,,,,,,,,,,,,,,,,,,,,,,,,,,,,,,,,,,,,,,,,,,,,,,,,,,,,,,,,,,,,,,,,,,,,,,,,,,,,,,,,,,,,,,,,,,,,,,,,,
1738755582.000313,1738755582.000972,5.000000,0.000000,4322.563965,4350.641113,4254.358887,4302.948730,4352.820313,4360.256348,4365.384766,4551.538574,4541.794922,4560.512695,4493.589844,5665.128418,4309.102539,4252.948730,0.000000,3.000000,74.000000,,,,0.000000,0.000000,0.000000,0.000000,0.000000,0.000000,0.000000,0.000000,0.000000,0.000000,0.000000,0.000000,0.000000,0.000000,0.000000,0.000000,,,,,,,,,,,,,,,,,,,,,,,,,,,,,,,,,,,,,,,,,,,,,,,,,,,,,,,,,,,,,,,,,,,,,,,,,,,,,,,,,,,,,,,,,,,,,,,,,,,,,,,,,,,,,,,,,,,,,,,,,,,,,,,,,
1738755582.008121,1738755582.008780,6.000000,0.000000,4322.436035,4349.230957,4252.820313,4302.051270,4350.641113,4361.153809,4369.358887,4552.948730,4538.974121,4559.487305,4493.589844,5666.666504,4307.692383,4253.205078,0.000000,3.000000,74.000000,,,,0.000000,0.000000,0.000000,0.000000,0.000000,0.000000,0.000000,0.000000,0.000000,0.000000,0.000000,0.000000,0.000000,0.000000,0.000000,0.000000,,,,,,,,,,,,,,,,,,,,,,,,,,,,,,,,,,,,,,,,,,,,,,,,,,,,,,,,,,,,,,,,,,,,,,,,,,,,,,,,,,,,,,,,,,,,,,,,,,,,,,,,,,,,,,,,,,,,,,,,,,,,,,,,,
1738755582.015929,1738755582.016688,7.000000,0.000000,4321.922852,4348.846191,4253.333496,4302.179688,4348.846191,4359.230957,4367.692383,4549.358887,4538.333496,4561.922852,4495.256348,5663.461426,4312.692383,4256.153809,0.000000,3.000000,74.000000,,,,0.000000,0.000000,0.000000,0.000000,0.000000,0.000000,0.000000,0.000000,0.000000,0.000000,0.000000,0.000000,0.000000,0.000000,0.000000,0.000000,,,,,,,,,,,,,,,,,,,,,,,,,,,,,,,,,,,,,,,,,,,,,,,,,,,,,,,,,,,,,,,,,,,,,,,,,,,,,,,,,,,,,,,,,,,,,,,,,,,,,,,,,,,,,,,,,,,,,,,,,,,,,,,,,
1738755582.023738,1738755582.024496,8.000000,0.000000,4323.333496,4351.025879,4255.769043,4301.794922,4351.666504,4358.589844,4367.307617,4549.230957,4539.487305,4560.641113,4495.256348,5664.615234,4311.282227,4256.025879,0.000000,3.000000,74.000000,,,,0.000000,0.000000,0.000000,0.000000,0.000000,0.000000,0.000000,0.000000,0.000000,0.000000,0.000000,0.000000,0.000000,0.000000,0.000000,0.000000,,,,,,,,,,,,,,,,,2.000000,0.000000,0.785309,-0.615601,-0.061096,0.024353,0.054694,-0.966915,0.233427,4.364630,-14.946276,22.716080,,,,,,,,,,,,,,,,,,,,,,,,,,,,,,,,,,,,,,,,,,,,,,,,,,,,,,,,,,,,,,,,,,,,,,,,,,,,,,,,,,,,,,,,,,,,,,,,,,,,,
1738755582.031546,1738755582.032404,9.000000,0.000000,4325.128418,4354.871582,4254.871582,4302.179688,4354.358887,4359.743652,4368.846191,4551.410156,4540.512695,4558.589844,4495.000000,5664.358887,4315.897461,4256.922852,0.000000,3.000000,74.000000,,,,0.000000,0.000000,0.000000,0.000000,0.000000,0.000000,0.000000,0.000000,0.000000,0.000000,0.000000,0.000000,0.000000,0.000000,0.000000,0.000000,,,,,,,,,,,,,,,,,,,,,,,,,,,,,,,,,,,,,,,,,,,,,,,,,,,,,,,,,,,,,,,,,,,,,,,,,,,,,,,,,,,,,,,,,,,,,,,,,,,,,,,,,,,,,,,,,,,,,,,,,,,,,,,,,
1738755582.039354,1738755582.040213,10.000000,0.000000,4327.436035,4354.487305,4252.948730,4303.333496,4352.563965,4359.743652,4370.384766,4549.102539,4542.179688,4561.153809,4496.666504,5664.487305,4319.102539,4257.051270,0.000000,3.000000,74.000000,,,,0.000000,0.000000,0.000000,0.000000,0.000000,0.000000,0.000000,0.000000,0.000000,0.000000,0.000000,0.000000,0.000000,0.000000,0.000000,0.000000,,,,,,,,,,,,,,,,,,,,,,,,,,,,,,,,,,,,,,,,,,,,,,,,,,,,,,,,,,,,,,,,,,,,,,,,,,,,,,,,,,,,,,,,,,,,,,,,,,,,,,,,,,,,,,,,,,,,,,,,,,,,,,,,,
1738755582.047162,1738755582.047921,11.000000,0.000000,4326.410156,4348.589844,4252.051270,4301.794922,4351.410156,4359.487305,4371.025879,4546.538574,4541.282227,4562.051270,4496.922852,5663.717773,4312.948730,4255.256348,0.000000,3.000000,74.000000,,,,0.000000,0.000000,0.000000,0.000000,0.000000,0.000000,0.000000,0.000000,0.000000,0.000000,0.000000,0.000000,0.000000,0.000000,0.000000,0.000000,,,,,,,,,,,,,,,,,,,,,,,,,,,,,,,,,,,,,,,,,,,,,,,,,,,,,,,,,,,,,,,,,,,,,,,,,,,,,,,,,,,,,,,,,,,,,,,,,,,,,,,,,,,,,,,,,,,,,,,,,,,,,,,,,
1738755582.054970,1738755582.055729,12.000000,0.000000,4320.128418,4346.410156,4252.436035,4299.358887,4350.512695,4360.769043,4369.615234,4546.410156,4538.846191,4559.487305,4496.922852,5659.871582,4315.128418,4257.179688,0.000000,3.000000,74.000000,,,,0.000000,0.000000,0.000000,0.000000,0.000000,0.000000,0.000000,0.000000,0.000000,0.000000,0.000000,0.000000,0.000000,0.000000,0.000000,0.000000,,,,,,,,,,,,,,,,,3.000000,0.000000,0.785314,-0.615601,-0.061035,0.024353,0.066414,-0.983518,0.237334,4.428167,-15.118315,22.727806,,,,,,,,,,,,,,,,,,,,,,,,,,,,,,,,,,,,,,,,,,,,,,,,,,,,,,,,,,,,,,,,,,,,,,,,,,,,,,,,,,,,,,,,,,,,,,,,,,,,,
1738755582.062778,1738755582.063438,13.000000,0.000000,4317.948730,4349.358887,4254.358887,4301.025879,4348.333496,4360.641113,4369.615234,4549.230957,4539.615234,4558.846191,4497.692383,5663.974121,4314.102539,4257.820313,0.000000,3.000000,74.000000,,,,0.000000,0.000000,0.000000,0.000000,0.000000,0.000000,0.000000,0.000000,0.000000,0.000000,0.000000,0.000000,0.000000,0.000000,0.000000,0.000000,,,,,,,,,,,,,,,,,,,,,,,,,,,,,,,,,,,,,,,,,,,,,,,,,,,,,,,,,,,,,,,,,,,,,,,,,,,,,,,,,,,,,,,,,,,,,,,,,,,,,,,,,,,,,,,,,,,,,,,,,,,,,,,,,
1738755582.070586,1738755582.071346,14.000000,0.000000,4322.179688,4351.794922,4254.615234,4301.666504,4350.512695,4361.025879,4366.153809,4549.871582,4539.871582,4560.769043,4496.410156,5665.641113,4309.487305,4258.205078,0.000000,3.000000,74.000000,,,,0.000000,0.000000,0.000000,0.000000,0.000000,0.000000,0.000000,0.000000,0.000000,0.000000,0.000000,0.000000,0.000000,0.000000,0.000000,0.000000,,,,,,,,,,,,,,,,,,,,,,,,,,,,,,,,,,,,,,,,,,,,,,,,,,,,,,,,,,,,0.170570,0.223998,0.102865,0.033547,0.023820,0.115978,0.068631,0.040878,0.025963,0.023339,0.647069,0.327190,0.318596,0.074782,0.026162,0.209039,0.062293,0.084618,0.028875,0.026716,0.071028,0.037338,0.016685,0.023590,0.030105,0.051095,0.033794,0.035121,0.030773,0.024404,0.133707,0.051090,0.128357,0.032592,0.034055,0.048959,0.026864,0.023084,0.031733,0.033723,0.104963,0.113838,0.075041,0.022488,0.025900,0.018704,0.014502,0.058645,0.023059,0.020309,0.030562,0.038591,0.048391,0.015883,0.023974,0.456834,0.282142,0.148139,0.032376,0.025702,0.212527,0.142343,0.125605,0.048420,0.037016,0.321899,0.196553,0.116572,0.039807,0.029014
1738755582.078394,1738755582.079154,15.000000,0.000000,4323.205078,4350.512695,4252.820313,4300.641113,4351.666504,4361.153809,4365.128418,4549.102539,4538.333496,4561.282227,4495.512695,5663.333496,4309.487305,4255.256348,0.000000,3.000000,74.000000,,,,0.000000,0.000000,0.000000,0.000000,0.000000,0.000000,0.000000,0.000000,0.000000,0.000000,0.000000,0.000000,0.000000,0.000000,0.000000,0.000000,,,,,,,,,,,,,,,,,,,,,,,,,,,,,,,,,,,,,,,,,,,,,,,,,,,,,,,,,,,,,,,,,,,,,,,,,,,,,,,,,,,,,,,,,,,,,,,,,,,,,,,,,,,,,,,,,,,,,,,,,,,,,,,,,
1738755582.086202,1738755582.086962,16.000000,0.000000,4320.897461,4350.641113,4253.205078,4302.436035,4349.615234,4361.025879,4368.461426,4550.769043,4538.205078,4561.025879,4497.563965,5664.871582,4309.102539,4252.051270,0.000000,3.000000,74.000000,,,,0.000000,0.000000,0.000000,0.000000,0.000000,0.000000,0.000000,0.000000,0.000000,0.000000,0.000000,0.000000,0.000000,0.000000,0.000000,0.000000,,,,,,,,,,,,,,,,,4.000000,0.000000,0.785316,-0.615601,-0.061035,0.024292,0.062996,-0.980100,0.230985,4.468684,-15.073150,22.638359,,,,,,,,,,,,,,,,,,,,,,,,,,,,,,,,,,,,,,,,,,,,,,,,,,,,,,,,,,,,,,,,,,,,,,,,,,,,,,,,,,,,,,,,,,,,,,,,,,,,,
1738755582.094010,1738755582.094770,17.000000,0.000000,4319.487305,4353.717773,4254.871582,4302.436035,4351.025879,4363.717773,4367.307617,4550.256348,4539.871582,4562.307617,4498.205078,5663.205078,4312.436035,4257.563965,0.000000,3.000000,74.000000,,,,0.000000,0.000000,0.000000,0.000000,0.000000,0.000000,0.000000,0.000000,0.000000,0.000000,0.000000,0.000000,0.000000,0.000000,0.000000,0.000000,,,,,,,,,,,,,,,,,,,,,,,,,,,,,,,,,,,,,,,,,,,,,,,,,,,,,,,,,,,,,,,,,,,,,,,,,,,,,,,,,,,,,,,,,,,,,,,,,,,,,,,,,,,,,,,,,,,,,,,,,,,,,,,,,
1738755582.101818,1738755582.102578,18.000000,0.000000,4319.358887,4351.666504,4254.358887,4300.641113,4354.230957,4362.692383,4365.897461,4548.205078,4538.846191,4562.692383,4495.769043,5662.436035,4311.538574,4260.256348,0.000000,3.000000,74.000000,,,,0.000000,0.000000,0.000000,0.000000,0.000000,0.000000,0.000000,0.000000,0.000000,0.000000,0.000000,0.000000,0.000000,0.000000,0.000000,0.000000,,,,,,,,,,,,,,,,,,,,,,,,,,,,,,,,,,,,,,,,,,,,,,,,,,,,,,,,,,,,,,,,,,,,,,,,,,,,,,,,,,,,,,,,,,,,,,,,,,,,,,,,,,,,,,,,,,,,,,,,,,,,,,,,,
1738755582.109627,1738755582.110287,19.000000,0.000000,4320.897461,4349.615234,4252.436035,4301.922852,4353.333496,4359.358887,4366.153809,4547.051270,4538.077148,4563.974121,4495.256348,5663.846191,4310.256348,4257.436035,0.000000,3.000000,74.000000,,,,0.000000,0.000000,0.000000,0.000000,0.000000,0.000000,0.000000,0.000000,0.000000,0.000000,0.000000,0.000000,0.000000,0.000000,0.000000,0.000000,,,,,,,,,,,,,,,,,,,,,,,,,,,,,,,,,,,,,,,,,,,,,,,,,,,,,,,,,,,,,,,,,,,,,,,,,,,,,,,,,,,,,,,,,,,,,,,,,,,,,,,,,,,,,,,,,,,,,,,,,,,,,,,,,
1738755582.117435,1738755582.118094,20.000000,0.000000,4322.948730,4350.897461,4251.410156,4303.077148,4351.794922,4361.538574,4366.666504,4547.820313,4539.743652,4562.820313,4497.179688,5663.974121,4312.563965,4255.384766,0.000000,3.000000,74.000000,,,,0.000000,0.000000,0.000000,0.000000,0.000000,0.000000,0.000000,0.000000,0.000000,0.000000,0.000000,0.000000,0.000000,0.000000,0.000000,0.000000,,,,,,,,,,,,,,,,,5.000000,0.000000,0.785271,-0.615662,-0.060974,0.024353,0.065926,-0.976193,0.229520,4.455149,-15.082501,22.807856,,,,,,,,,,,,,,,,,,,,,,,,,,,,,,,,,,,,,,,,,,,,,,,,,,,,,,,,,,,,,,,,,,,,,,,,,,,,,,,,,,,,,,,,,,,,,,,,,,,,,
1738755582.125243,1738755582.125803,21.000000,0.000000,4321.794922,4350.641113,4250.897461,4300.769043,4353.589844,4361.153809,4367.948730,4549.871582,4539.615234,4557.820313,4496.922852,5664.743652,4309.102539,4255.128418,0.000000,3.000000,74.000000,,,,0.000000,0.000000,0.000000,0.000000,0.000000,0.000000,0.000000,0.000000,0.000000,0.000000,0.000000,0.000000,0.000000,0.000000,0.000000,0.000000,,,,,,,,,,,,,,,,,,,,,,,,,,,,,,,,,,,,,,,,,,,,,,,,,,,,,,,,,,,,,,,,,,,,,,,,,,,,,,,,,,,,,,,,,,,,,,,,,,,,,,,,,,,,,,,,,,,,,,,,,,,,,,,,,
1738755582.133051,1738755582.133611,22.000000,0.000000,4320.256348,4351.282227,4253.717773,4300.128418,4353.974121,4357.051270,4366.666504,4549.230957,4539.871582,4559.230957,4494.230957,5664.102539,4311.282227,4257.436035,0.000000,3.000000,74.000000,,,,0.000000,0.000000,0.000000,0.000000,0.000000,0.000000,0.000000,0.000000,0.000000,0.000000,0.000000,0.000000,0.000000,0.000000,0.000000,0.000000,,,,,,,,,,,,,,,,,,,,,,,,,,,,,,,,,,,,,,,,,,,,,,,,,,,,,,,,,,,,,,,,,,,,,,,,,,,,,,,,,,,,,,,,,,,,,,,,,,,,,,,,,,,,,,,,,,,,,,,,,,,,,,,,,
1738755582.140859,1738755582.141319,23.000000,0.000000,4322.436035,4350.769043,4258.333496,4305.641113,4352.051270,4360.000000,4366.282227,4550.769043,4538.205078,4562.563965,4495.769043,5665.512695,4314.487305,4255.384766,0.000000,3.000000,74.000000,,,,0.000000,0.000000,0.000000,0.000000,0.000000,0.000000,0.000000,0.000000,0.000000,0.000000,0.000000,0.000000,0.000000,0.000000,0.000000,0.000000,,,,,,,,,,,,,,,,,,,,,,,,,,,,,,,,,,,,,,,,,,,,,,,,,,,,,,,,,,,,,,,,,,,,,,,,,,,,,,,,,,,,,,,,,,,,,,,,,,,,,,,,,,,,,,,,,,,,,,,,,,,,,,,,,
1738755582.148667,1738755582.149127,24.000000,0.000000,4322.948730,4349.358887,4255.256348,4304.871582,4352.948730,4362.563965,4366.538574,4550.641113,4537.563965,4558.589844,4497.948730,5665.384766,4312.563965,4253.205078,0.000000,3.000000,74.000000,,,,0.000000,0.000000,0.000000,0.000000,0.000000,0.000000,0.000000,0.000000,0.000000,0.000000,0.000000,0.000000,0.000000,0.000000,0.000000,0.000000,,,,,,,,,,,,,,,,,6.000000,0.000000,0.785271,-0.615662,-0.060974,0.024353,0.068856,-0.971798,0.235869,4.459634,-14.974251,22.810404,,,,,,,,,,,,,,,,,,,,,,,,,,,,,,,,,,,,,,,,,,,,,,,,,,,,,,,,,,,,,,,,,,,,,,,,,,,,,,,,,,,,,,,,,,,,,,,,,,,,,
1738755582.156475,1738755582.156835,25.000000,0.000000,4323.974121,4349.615234,4251.922852,4300.128418,4354.230957,4359.230957,4364.743652,4549.871582,4539.743652,4557.051270,4495.256348,5661.025879,4310.897461,4256.538574,0.000000,3.000000,74.000000,,,,0.000000,0.000000,0.000000,0.000000,0.000000,0.000000,0.000000,0.000000,0.000000,0.000000,0.000000,0.000000,0.000000,0.000000,0.000000,0.000000,,,,,,,,,,,,,,,,,,,,,,,,,,,,,,,,,,,,,,,,,,,,,,,,,,,,,,,,,,,,,,,,,,,,,,,,,,,,,,,,,,,,,,,,,,,,,,,,,,,,,,,,,,,,,,,,,,,,,,,,,,,,,,,,,
1738755582.164283,1738755582.164743,26.000000,0.000000,4326.794922,4349.358887,4255.256348,4303.205078,4352.692383,4359.487305,4365.256348,4553.846191,4538.974121,4562.179688,4494.230957,5663.333496,4309.743652,4258.205078,0.000000,3.000000,74.000000,,,,0.000000,0.000000,0.000000,0.000000,0.000000,0.000000,0.000000,0.000000,0.000000,0.000000,0.000000,0.000000,0.000000,0.000000,0.000000,0.000000,,,,,,,,,,,,,,,,,,,,,,,,,,,,,,,,,,,,,,,,,,,,,,,,,,,,,,,,,,,,,,,,,,,,,,,,,,,,,,,,,,,,,,,,,,,,,,,,,,,,,,,,,,,,,,,,,,,,,,,,,,,,,,,,,
1738755582.172091,1738755582.172551,27.000000,0.000000,4323.589844,4348.846191,4255.128418,4303.461426,4351.538574,4359.871582,4366.538574,4551.922852,4539.230957,4563.589844,4498.974121,5662.051270,4314.487305,4259.230957,0.000000,3.000000,74.000000,,,,0.000000,0.000000,0.000000,0.000000,0.000000,0.000000,0.000000,0.000000,0.000000,0.000000,0.000000,0.000000,0.000000,0.000000,0.000000,0.000000,,,,,,,,,,,,,,,,,,,,,,,,,,,,,,,,,,,,,,,,,,,,,,,,,,,,,,,,,,,,,,,,,,,,,,,,,,,,,,,,,,,,,,,,,,,,,,,,,,,,,,,,,,,,,,,,,,,,,,,,,,,,,,,,,
1738755582.179900,1738755582.180459,28.000000,0.000000,4320.256348,4349.230957,4252.051270,4303.077148,4352.436035,4358.717773,4366.922852,4548.846191,4540.000000,4560.512695,4498.461426,5660.000000,4311.922852,4258.333496,0.000000,3.000000,74.000000,,,,0.000000,0.000000,0.000000,0.000000,0.000000,0.000000,0.000000,0.000000,0.000000,0.000000,0.000000,0.000000,0.000000,0.000000,0.000000,0.000000,,,,,,,,,,,,,,,,,7.000000,0.000000,0.785264,-0.615662,-0.061035,0.024414,0.054206,-0.967403,0.229520,4.530337,-15.076826,22.712696,,,,,,,,,,,,,,,,,,,,,,,,,,,,,,,,,,,,,,,,,,,,,,,,,,,,,,,,,,,,,,,,,,,,,,,,,,,,,,,,,,,,,,,,,,,,,,,,,,,,,
1738755582.187708,1738755582.188267,29.000000,0.000000,4322.948730,4348.589844,4254.230957,4305.769043,4352.692383,4360.384766,4368.205078,4550.256348,4540.256348,4559.871582,4492.179688,5665.384766,4308.077148,4254.871582,0.000000,3.000000,74.000000,,,,0.000000,0.000000,0.000000,0.000000,0.000000,0.000000,0.000000,0.000000,0.000000,0.000000,0.000000,0.000000,0.000000,0.000000,0.000000,0.000000,,,,,,,,,,,,,,,,,,,,,,,,,,,,,,,,,,,,,,,,,,,,,,,,,,,,,,,,,,,,,,,,,,,,,,,,,,,,,,,,,,,,,,,,,,,,,,,,,,,,,,,,,,,,,,,,,,,,,,,,,,,,,,,,,
1738755582.195516,1738755582.196175,30.000000,0.000000,4324.871582,4347.563965,4256.153809,4304.487305,4352.692383,4359.358887,4367.307617,4548.333496,4541.538574,4560.769043,4491.538574,5664.743652,4312.179688,4255.128418,0.000000,3.000000,74.000000,,,,0.000000,0.000000,0.000000,0.000000,0.000000,0.000000,0.000000,0.000000,0.000000,0.000000,0.000000,0.000000,0.000000,0.000000,0.000000,0.000000,1.000000,0.000000,0.000000,0.000000,0.000000,0.000000,0.000000,0.000000,0.000000,0.000000,0.000000,0.000000,0.000000,0.000000,0.000000,0.000000,,,,,,,,,,,,,,,,,,,,,,,,,,,,,,,,,,,,,,,,,,,,0.131596,0.178389,0.086177,0.037197,0.024443,0.097974,0.056602,0.034838,0.025970,0.024115,0.469470,0.237994,0.209756,0.051905,0.026071,0.170963,0.046960,0.064705,0.023573,0.025090,0.060217,0.036282,0.013301,0.023412,0.029687,0.053053,0.041088,0.031201,0.028050,0.024574,0.116230,0.042835,0.119020,0.032917,0.036088,0.047512,0.024921,0.017425,0.030381,0.033167,0.103986,0.101920,0.070230,0.022151,0.021953,0.015993,0.014897,0.041565,0.022506,0.022023,0.021726,0.038076,0.055012,0.014336,0.023879,0.338101,0.220063,0.134197,0.028712,0.024703,0.174841,0.119279,0.103504,0.043204,0.037080,0.258478,0.155210,0.090535,0.034139,0.029267
1738755582.203324,1738755582.203984,31.000000,0.000000,4323.589844,4347.820313,4253.461426,4305.512695,4353.974121,4357.179688,4365.512695,4548.589844,4539.102539,4561.153809,4493.077148,5660.000000,4311.153809,4255.256348,0.000000,3.000000,74.000000,,,,0.000000,0.000000,0.000000,0.000000,0.000000,0.000000,0.000000,0.000000,0.000000,0.000000,0.000000,0.000000,0.000000,0.000000,0.000000,0.000000,,,,,,,,,,,,,,,,,,,,,,,,,,,,,,,,,,,,,,,,,,,,,,,,,,,,,,,,,,,,,,,,,,,,,,,,,,,,,,,,,,,,,,,,,,,,,,,,,,,,,,,,,,,,,,,,,,,,,,,,,,,,,,,,,
1738755582.211132,1738755582.211892,32.000000,0.000000,4321.538574,4349.487305,4251.410156,4304.230957,4352.692383,4361.666504,4362.820313,4550.256348,4537.436035,4561.666504,4493.205078,5659.871582,4312.436035,4256.666504,0.000000,3.000000,74.000000,,,,0.000000,0.000000,0.000000,0.000000,0.000000,0.000000,0.000000,0.000000,0.000000,0.000000,0.000000,0.000000,0.000000,0.000000,0.000000,0.000000,,,,,,,,,,,,,,,,,8.000000,0.000000,0.785218,-0.615723,-0.061035,0.024353,0.076670,-0.969845,0.235869,4.493970,-15.185810,22.691427,,,,,,,,,,,,,,,,,,,,,,,,,,,,,,,,,,,,,,,,,,,,,,,,,,,,,,,,,,,,,,,,,,,,,,,,,,,,,,,,,,,,,,,,,,,,,,,,,,,,,
1738755582.218940,1738755582.219700,33.000000,0.000000,4323.205078,4350.000000,4251.794922,4299.102539,4351.153809,4363.077148,4364.615234,4550.641113,4540.384766,4561.922852,4494.358887,5661.794922,4313.589844,4257.820313,0.000000,3.000000,74.000000,,,,0.000000,0.000000,0.000000,0.000000,0.000000,0.000000,0.000000,0.000000,0.000000,0.000000,0.000000,0.000000,0.000000,0.000000,0.000000,0.000000,,,,,,,,,,,,,,,,,,,,,,,,,,,,,,,,,,,,,,,,,,,,,,,,,,,,,,,,,,,,,,,,,,,,,,,,,,,,,,,,,,,,,,,,,,,,,,,,,,,,,,,,,,,,,,,,,,,,,,,,,,,,,,,,,
1738755582.226748,1738755582.227608,34.000000,0.000000,4325.384766,4349.615234,4252.436035,4298.846191,4353.077148,4358.589844,4369.358887,4549.743652,4538.846191,4560.897461,4494.487305,5663.077148,4307.820313,4256.410156,0.000000,3.000000,74.000000,,,,0.000000,0.000000,0.000000,0.000000,0.000000,0.000000,0.000000,0.000000,0.000000,0.000000,0.000000,0.000000,0.000000,0.000000,0.000000,0.000000,,,,,,,,,,,,,,,,,,,,,,,,,,,,,,,,,,,,,,,,,,,,,,,,,,,,,,,,,,,,,,,,,,,,,,,,,,,,,,,,,,,,,,,,,,,,,,,,,,,,,,,,,,,,,,,,,,,,,,,,,,,,,,,,,
1738755582.234556,1738755582.235416,35.000000,0.000000,4322.948730,4348.461426,4253.205078,4301.538574,4353.974121,4359.743652,4367.051270,4547.436035,4537.563965,4559.230957,4492.436035,5662.692383,4309.230957,4257.307617,0.000000,3.000000,74.000000,,,,0.000000,0.000000,0.000000,0.000000,0.000000,0.000000,0.000000,0.000000,0.000000,0.000000,0.000000,0.000000,0.000000,0.000000,0.000000,0.000000,,,,,,,,,,,,,,,,,,,,,,,,,,,,,,,,,,,,,,,,,,,,,,,,,,,,,,,,,,,,,,,,,,,,,,,,,,,,,,,,,,,,,,,,,,,,,,,,,,,,,,,,,,,,,,,,,,,,,,,,,,,,,,,,,
1738755582.242364,1738755582.243125,36.000000,0.000000,4322.051270,4348.717773,4252.563965,4303.717773,4352.563965,4362.692383,4364.615234,4548.333496,4540.256348,4558.974121,4491.410156,5665.128418,4308.974121,4255.769043,0.000000,3.000000,74.000000,,,,0.000000,0.000000,0.000000,0.000000,0.000000,0.000000,0.000000,0.000000,0.000000,0.000000,0.000000,0.000000,0.000000,0.000000,0.000000,0.000000,,,,,,,,,,,,,,,,,9.000000,0.000000,0.785266,-0.615662,-0.061035,0.024353,0.060066,-0.971310,0.239287,4.494573,-15.333896,22.838951,,,,,,,,,,,,,,,,,,,,,,,,,,,,,,,,,,,,,,,,,,,,,,,,,,,,,,,,,,,,,,,,,,,,,,,,,,,,,,,,,,,,,,,,,,,,,,,,,,,,,
1738755582.250173,1738755582.250933,37.000000,0.000000,4322.436035,4352.436035,4250.769043,4303.077148,4351.282227,4359.871582,4366.410156,4550.512695,4542.692383,4560.641113,4496.666504,5662.820313,4307.820313,4254.743652,0.000000,3.000000,74.000000,,,,0.000000,0.000000,0.000000,0.000000,0.000000,0.000000,0.000000,0.000000,0.000000,0.000000,0.000000,0.000000,0.000000,0.000000,0.000000,0.000000,,,,,,,,,,,,,,,,,,,,,,,,,,,,,,,,,,,,,,,,,,,,,,,,,,,,,,,,,,,,,,,,,,,,,,,,,,,,,,,,,,,,,,,,,,,,,,,,,,,,,,,,,,,,,,,,,,,,,,,,,,,,,,,,,
1738755582.257980,1738755582.258641,38.000000,0.000000,4322.820313,4351.794922,4251.282227,4302.179688,4352.948730,4357.179688,4367.051270,4549.743652,4543.077148,4560.641113,4499.615234,5658.333496,4308.717773,4255.512695,0.000000,3.000000,74.000000,,,,0.000000,0.000000,0.000000,0.000000,0.000000,0.000000,0.000000,0.000000,0.000000,0.000000,0.000000,0.000000,0.000000,0.000000,0.000000,0.000000,,,,,,,,,,,,,,,,,,,,,,,,,,,,,,,,,,,,,,,,,,,,,,,,,,,,,,,,,,,,,,,,,,,,,,,,,,,,,,,,,,,,,,,,,,,,,,,,,,,,,,,,,,,,,,,,,,,,,,,,,,,,,,,,,
1738755582.265789,1738755582.266449,39.000000,0.000000,4323.205078,4347.948730,4250.769043,4303.333496,4354.102539,4359.487305,4366.282227,4548.589844,4540.641113,4557.179688,4496.666504,5661.282227,4306.538574,4254.102539,0.000000,3.000000,74.000000,,,,0.000000,0.000000,0.000000,0.000000,0.000000,0.000000,0.000000,0.000000,0.000000,0.000000,0.000000,0.000000,0.000000,0.000000,0.000000,0.000000,,,,,,,,,,,,,,,,,,,,,,,,,,,,,,,,,,,,,,,,,,,,,,,,,,,,,,,,,,,,,,,,,,,,,,,,,,,,,,,,,,,,,,,,,,,,,,,,,,,,,,,,,,,,,,,,,,,,,,,,,,,,,,,,,
1738755582.273597,1738755582.274157,40.000000,0.000000,4322.051270,4350.000000,4248.333496,4300.897461,4352.307617,4360.897461,4365.641113,4548.589844,4541.538574,4558.717773,4496.538574,5661.282227,4310.769043,4255.512695,0.000000,3.000000,74.000000,,,,0.000000,0.000000,0.000000,0.000000,0.000000,0.000000,0.000000,0.000000,0.000000,0.000000,0.000000,0.000000,0.000000,0.000000,0.000000,0.000000,,,,,,,,,,,,,,,,,10.000000,0.000000,0.785266,-0.615662,-0.061035,0.024353,0.068856,-0.970333,0.236357,4.345116,-15.450506,22.855055,,,,,,,,,,,,,,,,,,,,,,,,,,,,,,,,,,,,,,,,,,,,,,,,,,,,,,,,,,,,,,,,,,,,,,,,,,,,,,,,,,,,,,,,,,,,,,,,,,,,,
1738755582.281405,1738755582.281965,41.000000,0.000000,4322.820313,4352.820313,4248.717773,4300.641113,4350.641113,4359.615234,4368.461426,4549.487305,4542.563965,4561.282227,4494.871582,5662.820313,4311.282227,4255.641113,0.000000,3.000000,74.000000,,,,0.000000,0.000000,0.000000,0.000000,0.000000,0.000000,0.000000,0.000000,0.000000,0.000000,0.000000,0.000000,0.000000,0.000000,0.000000,0.000000,,,,,,,,,,,,,,,,,,,,,,,,,,,,,,,,,,,,,,,,,,,,,,,,,,,,,,,,,,,,,,,,,,,,,,,,,,,,,,,,,,,,,,,,,,,,,,,,,,,,,,,,,,,,,,,,,,,,,,,,,,,,,,,,,
1738755582.289213,1738755582.289673,42.000000,0.000000,4323.974121,4352.051270,4250.128418,4303.205078,4351.666504,4360.512695,4367.948730,4548.846191,4539.615234,4559.358887,4492.051270,5663.974121,4307.179688,4257.051270,0.000000,3.000000,74.000000,,,,0.000000,0.000000,0.000000,0.000000,0.000000,0.000000,0.000000,0.000000,0.000000,0.000000,0.000000,0.000000,0.000000,0.000000,0.000000,0.000000,,,,,,,,,,,,,,,,,,,,,,,,,,,,,,,,,,,,,,,,,,,,,,,,,,,,,,,,,,,,,,,,,,,,,,,,,,,,,,,,,,,,,,,,,,,,,,,,,,,,,,,,,,,,,,,,,,,,,,,,,,,,,,,,,
1738755582.297021,1738755582.297581,43.000000,0.000000,4322.820313,4351.025879,4249.487305,4302.948730,4352.948730,4361.153809,4362.692383,4549.102539,4538.205078,4560.641113,4495.256348,5662.820313,4310.384766,4259.743652,0.000000,3.000000,74.000000,,,,0.000000,0.000000,0.000000,0.000000,0.000000,0.000000,0.000000,0.000000,0.000000,0.000000,0.000000,0.000000,0.000000,0.000000,0.000000,0.000000,,,,,,,,,,,,,,,,,,,,,,,,,,,,,,,,,,,,,,,,,,,,,,,,,,,,,,,,,,,,,,,,,,,,,,,,,,,,,,,,,,,,,,,,,,,,,,,,,,,,,,,,,,,,,,,,,,,,,,,,,,,,,,,,,
1738755582.304829,1738755582.305390,44.000000,0.000000,4323.077148,4352.307617,4246.410156,4301.666504,4351.410156,4359.615234,4364.871582,4551.153809,4538.205078,4560.897461,4498.717773,5666.794922,4312.948730,4257.436035,0.000000,3.000000,74.000000,,,,0.000000,0.000000,0.000000,0.000000,0.000000,0.000000,0.000000,0.000000,0.000000,0.000000,0.000000,0.000000,0.000000,0.000000,0.000000,0.000000,,,,,,,,,,,,,,,,,11.000000,0.000000,0.785266,-0.615662,-0.061035,0.024353,0.067879,-0.979123,0.245635,4.327271,-15.305455,22.819550,,,,,,,,,,,,,,,,,,,,,,,,,,,,,,,,,,,,,,,,,,,,,,,,,,,,,,,,,,,,,,,,,,,,,,,,,,,,,,,,,,,,,,,,,,,,,,,,,,,,,
1738755582.312637,1738755582.313298,45.000000,0.000000,4324.743652,4353.461426,4246.666504,4301.538574,4350.897461,4358.717773,4366.282227,4549.743652,4538.333496,4556.282227,4499.615234,5664.102539,4314.487305,4256.282227,0.000000,3.000000,74.000000,,,,0.000000,0.000000,0.000000,0.000000,0.000000,0.000000,0.000000,0.000000,0.000000,0.000000,0.000000,0.000000,0.000000,0.000000,0.000000,0.000000,,,,,,,,,,,,,,,,,,,,,,,,,,,,,,,,,,,,,,,,,,,,,,,,,,,,,,,,,,,,,,,,,,,,,,,,,,,,,,,,,,,,,,,,,,,,,,,,,,,,,,,,,,,,,,,,,,,,,,,,,,,,,,,,,
1738755582.320445,1738755582.321106,46.000000,0.000000,4325.641113,4350.384766,4250.128418,4302.820313,4351.794922,4360.128418,4364.743652,4548.846191,4537.692383,4554.615234,4495.769043,5660.769043,4310.512695,4254.230957,0.000000,3.000000,74.000000,,,,0.000000,0.000000,0.000000,0.000000,0.000000,0.000000,0.000000,0.000000,0.000000,0.000000,0.000000,0.000000,0.000000,0.000000,0.000000,0.000000,,,,,,,,,,,,,,,,,,,,,,,,,,,,,,,,,,,,,,,,,,,,,,,,,,,,,,,,,,,,0.087119,0.123434,0.068533,0.038634,0.025234,0.087522,0.048293,0.031000,0.027612,0.025107,0.330235,0.167351,0.124043,0.034466,0.025902,0.122410,0.032239,0.045662,0.018458,0.023566,0.050461,0.034167,0.012206,0.021570,0.028869,0.056691,0.047711,0.027399,0.026485,0.025493,0.093544,0.032890,0.104041,0.032072,0.036697,0.042989,0.023155,0.012180,0.028065,0.031540,0.098359,0.093414,0.060032,0.022654,0.018621,0.013292,0.015884,0.028523,0.020674,0.023242,0.014623,0.039415,0.060488,0.013076,0.024323,0.214596,0.155855,0.112281,0.023948,0.023663,0.135121,0.094526,0.086030,0.038280,0.037664,0.202697,0.123529,0.063634,0.029191,0.028185
1738755582.328253,1738755582.328914,47.000000,0.000000,4323.846191,4348.974121,4248.077148,4301.538574,4351.153809,4360.769043,4365.128418,4549.615234,4538.333496,4558.717773,4491.282227,5663.461426,4308.846191,4253.077148,0.000000,3.000000,74.000000,,,,0.000000,0.000000,0.000000,0.000000,0.000000,0.000000,0.000000,0.000000,0.000000,0.000000,0.000000,0.000000,0.000000,0.000000,0.000000,0.000000,,,,,,,,,,,,,,,,,,,,,,,,,,,,,,,,,,,,,,,,,,,,,,,,,,,,,,,,,,,,,,,,,,,,,,,,,,,,,,,,,,,,,,,,,,,,,,,,,,,,,,,,,,,,,,,,,,,,,,,,,,,,,,,,,
1738755582.336062,1738755582.336622,48.000000,0.000000,4321.153809,4354.102539,4247.692383,4300.769043,4351.282227,4360.128418,4365.000000,4548.205078,4539.743652,4560.897461,4493.333496,5662.436035,4314.743652,4254.871582,0.000000,3.000000,74.000000,,,,0.000000,0.000000,0.000000,0.000000,0.000000,0.000000,0.000000,0.000000,0.000000,0.000000,0.000000,0.000000,0.000000,0.000000,0.000000,0.000000,,,,,,,,,,,,,,,,,12.000000,0.000000,0.785266,-0.615662,-0.061035,0.024353,0.048834,-0.965938,0.226102,4.344543,-15.308244,22.870928,,,,,,,,,,,,,,,,,,,,,,,,,,,,,,,,,,,,,,,,,,,,,,,,,,,,,,,,,,,,,,,,,,,,,,,,,,,,,,,,,,,,,,,,,,,,,,,,,,,,,
1738755582.343870,1738755582.344430,49.000000,0.000000,4322.563965,4354.487305,4252.948730,4302.692383,4353.333496,4361.153809,4363.846191,4547.820313,4540.769043,4560.000000,4495.641113,5659.230957,4313.461426,4253.717773,0.000000,3.000000,74.000000,,,,0.000000,0.000000,0.000000,0.000000,0.000000,0.000000,0.000000,0.000000,0.000000,0.000000,0.000000,0.000000,0.000000,0.000000,0.000000,0.000000,,,,,,,,,,,,,,,,,,,,,,,,,,,,,,,,,,,,,,,,,,,,,,,,,,,,,,,,,,,,,,,,,,,,,,,,,,,,,,,,,,,,,,,,,,,,,,,,,,,,,,,,,,,,,,,,,,,,,,,,,,,,,,,,,
1738755582.351678,1738755582.352138,50.000000,0.000000,4321.410156,4351.538574,4250.897461,4300.384766,4354.487305,4363.077148,4361.666504,4548.846191,4544.230957,4558.846191,4496.025879,5660.512695,4311.410156,4253.333496,0.000000,3.000000,74.000000,,,,0.000000,0.000000,0.000000,0.000000,0.000000,0.000000,0.000000,0.000000,0.000000,0.000000,0.000000,0.000000,0.000000,0.000000,0.000000,0.000000,,,,,,,,,,,,,,,,,,,,,,,,,,,,,,,,,,,,,,,,,,,,,,,,,,,,,,,,,,,,,,,,,,,,,,,,,,,,,,,,,,,,,,,,,,,,,,,,,,,,,,,,,,,,,,,,,,,,,,,,,,,,,,,,,
1738755582.359486,1738755582.360046,51.000000,0.000000,4319.230957,4350.512695,4246.410156,4300.256348,4354.230957,4363.333496,4364.230957,4551.025879,4543.333496,4558.461426,4494.487305,5664.615234,4309.615234,4253.077148,0.000000,3.000000,74.000000,,,,0.000000,0.000000,0.000000,0.000000,0.000000,0.000000,0.000000,0.000000,0.000000,0.000000,0.000000,0.000000,0.000000,0.000000,0.000000,0.000000,,,,,,,,,,,,,,,,,,,,,,,,,,,,,,,,,,,,,,,,,,,,,,,,,,,,,,,,,,,,,,,,,,,,,,,,,,,,,,,,,,,,,,,,,,,,,,,,,,,,,,,,,,,,,,,,,,,,,,,,,,,,,,,,,
1738755582.367294,1738755582.367855,52.000000,0.000000,4320.512695,4349.615234,4248.205078,4301.666504,4354.743652,4361.025879,4367.563965,4552.051270,4537.179688,4561.538574,4495.769043,5662.563965,4310.256348,4255.641113,0.000000,3.000000,74.000000,,,,0.000000,0.000000,0.000000,0.000000,0.000000,0.000000,0.000000,0.000000,0.000000,0.000000,0.000000,0.000000,0.000000,0.000000,0.000000,0.000000,,,,,,,,,,,,,,,,,13.000000,0.000000,0.785264,-0.615662,-0.061035,0.024414,0.062019,-0.972775,0.244170,4.276756,-15.360752,22.950502,,,,,,,,,,,,,,,,,,,,,,,,,,,,,,,,,,,,,,,,,,,,,,,,,,,,,,,,,,,,,,,,,,,,,,,,,,,,,,,,,,,,,,,,,,,,,,,,,,,,,
1738755582.375102,1738755582.375763,53.000000,0.000000,4320.128418,4351.666504,4251.538574,4299.358887,4354.487305,4359.871582,4365.000000,4549.615234,4537.307617,4561.153809,4497.948730,5658.717773,4313.333496,4262.307617,0.000000,3.000000,74.000000,,,,0.000000,0.000000,0.000000,0.000000,0.000000,0.000000,0.000000,0.000000,0.000000,0.000000,0.000000,0.000000,0.000000,0.000000,0.000000,0.000000,,,,,,,,,,,,,,,,,,,,,,,,,,,,,,,,,,,,,,,,,,,,,,,,,,,,,,,,,,,,,,,,,,,,,,,,,,,,,,,,,,,,,,,,,,,,,,,,,,,,,,,,,,,,,,,,,,,,,,,,,,,,,,,,,
1738755582.382910,1738755582.383571,54.000000,0.000000,4318.717773,4353.077148,4249.358887,4300.256348,4352.948730,4360.769043,4365.512695,4549.487305,4540.000000,4560.769043,4493.589844,5664.102539,4309.358887,4260.384766,0.000000,3.000000,74.000000,,,,0.000000,0.000000,0.000000,0.000000,0.000000,0.000000,0.000000,0.000000,0.000000,0.000000,0.000000,0.000000,0.000000,0.000000,0.000000,0.000000,,,,,,,,,,,,,,,,,,,,,,,,,,,,,,,,,,,,,,,,,,,,,,,,,,,,,,,,,,,,,,,,,,,,,,,,,,,,,,,,,,,,,,,,,,,,,,,,,,,,,,,,,,,,,,,,,,,,,,,,,,,,,,,,,
1738755582.390718,1738755582.391479,55.000000,0.000000,4320.256348,4351.282227,4248.205078,4302.692383,4352.820313,4362.307617,4369.743652,4549.743652,4538.717773,4564.102539,4493.717773,5667.692383,4312.820313,4256.666504,0.000000,3.000000,74.000000,,,,0.000000,0.000000,0.000000,0.000000,0.000000,0.000000,0.000000,0.000000,0.000000,0.000000,0.000000,0.000000,0.000000,0.000000,0.000000,0.000000,,,,,,,,,,,,,,,,,,,,,,,,,,,,,,,,,,,,,,,,,,,,,,,,,,,,,,,,,,,,,,,,,,,,,,,,,,,,,,,,,,,,,,,,,,,,,,,,,,,,,,,,,,,,,,,,,,,,,,,,,,,,,,,,,
1738755582.398526,1738755582.399287,56.000000,0.000000,4321.794922,4349.102539,4251.538574,4303.717773,4353.974121,4362.307617,4370.128418,4548.846191,4537.307617,4561.153809,4498.333496,5663.846191,4315.641113,4259.743652,0.000000,3.000000,74.000000,,,,0.000000,0.000000,0.000000,0.000000,0.000000,0.000000,0.000000,0.000000,0.000000,0.000000,0.000000,0.000000,0.000000,0.000000,0.000000,0.000000,,,,,,,,,,,,,,,,,14.000000,0.000000,0.785262,-0.615662,-0.061035,0.024475,0.071786,-0.977658,0.230009,4.382414,-15.358010,23.022120,,,,,,,,,,,,,,,,,,,,,,,,,,,,,,,,,,,,,,,,,,,,,,,,,,,,,,,,,,,,,,,,,,,,,,,,,,,,,,,,,,,,,,,,,,,,,,,,,,,,,
1738755582.406335,1738755582.407195,57.000000,0.000000,4321.410156,4348.333496,4251.794922,4303.974121,4351.153809,4360.384766,4366.922852,4551.153809,4540.769043,4556.153809,4496.025879,5663.461426,4311.282227,4261.538574,0.000000,3.000000,74.000000,,,,0.000000,0.000000,0.000000,0.000000,0.000000,0.000000,0.000000,0.000000,0.000000,0.000000,0.000000,0.000000,0.000000,0.000000,0.000000,0.000000,,,,,,,,,,,,,,,,,,,,,,,,,,,,,,,,,,,,,,,,,,,,,,,,,,,,,,,,,,,,,,,,,,,,,,,,,,,,,,,,,,,,,,,,,,,,,,,,,,,,,,,,,,,,,,,,,,,,,,,,,,,,,,,,,
1738755582.414142,1738755582.415004,58.000000,0.000000,4321.666504,4348.846191,4250.897461,4301.538574,4348.333496,4358.974121,4365.384766,4552.820313,4542.436035,4559.615234,4495.128418,5662.820313,4314.102539,4259.487305,0.000000,3.000000,74.000000,,,,0.000000,0.000000,0.000000,0.000000,0.000000,0.000000,0.000000,0.000000,0.000000,0.000000,0.000000,0.000000,0.000000,0.000000,0.000000,0.000000,,,,,,,,,,,,,,,,,,,,,,,,,,,,,,,,,,,,,,,,,,,,,,,,,,,,,,,,,,,,,,,,,,,,,,,,,,,,,,,,,,,,,,,,,,,,,,,,,,,,,,,,,,,,,,,,,,,,,,,,,,,,,,,,,
1738755582.421951,1738755582.422812,59.000000,0.000000,4323.333496,4349.487305,4253.077148,4302.436035,4352.307617,4360.769043,4366.666504,4551.153809,4537.692383,4561.025879,4498.846191,5662.948730,4311.922852,4256.794922,0.000000,3.000000,74.000000,,,,0.000000,0.000000,0.000000,0.000000,0.000000,0.000000,0.000000,0.000000,0.000000,0.000000,0.000000,0.000000,0.000000,0.000000,0.000000,0.000000,,,,,,,,,,,,,,,,,,,,,,,,,,,,,,,,,,,,,,,,,,,,,,,,,,,,,,,,,,,,,,,,,,,,,,,,,,,,,,,,,,,,,,,,,,,,,,,,,,,,,,,,,,,,,,,,,,,,,,,,,,,,,,,,,
1738755582.429759,1738755582.430620,60.000000,0.000000,4323.846191,4352.179688,4253.846191,4303.077148,4353.846191,4362.179688,4363.205078,4550.384766,4538.717773,4557.051270,4498.717773,5662.948730,4311.794922,4258.717773,0.000000,3.000000,74.000000,,,,0.000000,0.000000,0.000000,0.000000,0.000000,0.000000,0.000000,0.000000,0.000000,0.000000,0.000000,0.000000,0.000000,0.000000,0.000000,0.000000,,,,,,,,,,,,,,,,,15.000000,0.000000,0.785257,-0.615662,-0.061096,0.024475,0.065438,-0.972287,0.230985,4.360839,-15.172210,22.969908,,,,,,,,,,,,,,,,,,,,,,,,,,,,,,,,,,,,,,,,,,,,,,,,,,,,,,,,,,,,,,,,,,,,,,,,,,,,,,,,,,,,,,,,,,,,,,,,,,,,,
1738755582.437567,1738755582.438328,61.000000,0.000000,4322.948730,4352.820313,4251.922852,4298.846191,4349.871582,4360.384766,4361.666504,4552.179688,4542.563965,4558.974121,4495.256348,5661.666504,4316.153809,4257.692383,0.000000,3.000000,74.000000,,,,0.000000,0.000000,0.000000,0.000000,0.000000,0.000000,0.000000,0.000000,0.000000,0.000000,0.000000,0.000000,0.000000,0.000000,0.000000,0.000000,,,,,,,,,,,,,,,,,,,,,,,,,,,,,,,,,,,,,,,,,,,,,,,,,,,,,,,,,,,,,,,,,,,,,,,,,,,,,,,,,,,,,,,,,,,,,,,,,,,,,,,,,,,,,,,,,,,,,,,,,,,,,,,,,
1738755582.445375,1738755582.446137,62.000000,0.000000,4324.358887,4351.025879,4250.256348,4300.256348,4349.871582,4359.615234,4365.128418,4552.307617,4538.717773,4558.974121,4495.128418,5665.897461,4310.512695,4253.205078,0.000000,3.000000,74.000000,,,,0.000000,0.000000,0.000000,0.000000,0.000000,0.000000,0.000000,0.000000,0.000000,0.000000,0.000000,0.000000,0.000000,0.000000,0.000000,0.000000,,,,,,,,,,,,,,,,,,,,,,,,,,,,,,,,,,,,,,,,,,,,,,,,,,,,,,,,,,,,0.049361,0.075937,0.055747,0.037727,0.026013,0.084038,0.045277,0.029319,0.030085,0.026568,0.244168,0.124348,0.073565,0.024559,0.025909,0.077757,0.022017,0.030678,0.014850,0.022834,0.044388,0.031548,0.013056,0.018363,0.028460,0.061046,0.050888,0.024693,0.026077,0.026564,0.073719,0.024054,0.087113,0.030230,0.035705,0.036630,0.022024,0.008826,0.025397,0.029099,0.087783,0.089884,0.047295,0.023410,0.016385,0.011446,0.017815,0.020737,0.018266,0.023655,0.010426,0.041537,0.063059,0.012396,0.025453,0.116183,0.106683,0.087305,0.019447,0.022583,0.104431,0.075021,0.077892,0.034806,0.038029,0.163716,0.104644,0.043008,0.026073,0.026371
1738755582.453183,1738755582.453845,63.000000,0.000000,4324.230957,4353.589844,4251.282227,4301.922852,4353.589844,4361.410156,4365.256348,4548.717773,4536.282227,4556.538574,4496.666504,5667.820313,4309.615234,4257.436035,0.000000,3.000000,74.000000,,,,0.000000,0.000000,0.000000,0.000000,0.000000,0.000000,0.000000,0.000000,0.000000,0.000000,0.000000,0.000000,0.000000,0.000000,0.000000,0.000000,,,,,,,,,,,,,,,,,,,,,,,,,,,,,,,,,,,,,,,,,,,,,,,,,,,,,,,,,,,,,,,,,,,,,,,,,,,,,,,,,,,,,,,,,,,,,,,,,,,,,,,,,,,,,,,,,,,,,,,,,,,,,,,,,
1738755582.460991,1738755582.461653,64.000000,0.000000,4320.897461,4352.948730,4253.205078,4298.205078,4353.461426,4361.282227,4363.846191,4551.282227,4538.205078,4559.358887,4495.641113,5666.153809,4310.641113,4259.102539,0.000000,3.000000,74.000000,,,,0.000000,0.000000,0.000000,0.000000,0.000000,0.000000,0.000000,0.000000,0.000000,0.000000,0.000000,0.000000,0.000000,0.000000,0.000000,0.000000,,,,,,,,,,,,,,,,,16.000000,0.000000,0.785223,-0.615723,-0.060974,0.024353,0.056159,-0.979612,0.239287,4.541422,-15.238322,22.872915,,,,,,,,,,,,,,,,,,,,,,,,,,,,,,,,,,,,,,,,,,,,,,,,,,,,,,,,,,,,,,,,,,,,,,,,,,,,,,,,,,,,,,,,,,,,,,,,,,,,,
1738755582.468799,1738755582.469361,65.000000,0.000000,4320.512695,4348.974121,4253.461426,4300.128418,4350.769043,4357.948730,4363.461426,4553.077148,4540.256348,4561.666504,4494.743652,5663.589844,4312.051270,4257.179688,0.000000,3.000000,74.000000,,,,0.000000,0.000000,0.000000,0.000000,0.000000,0.000000,0.000000,0.000000,0.000000,0.000000,0.000000,0.000000,0.000000,0.000000,0.000000,0.000000,,,,,,,,,,,,,,,,,,,,,,,,,,,,,,,,,,,,,,,,,,,,,,,,,,,,,,,,,,,,,,,,,,,,,,,,,,,,,,,,,,,,,,,,,,,,,,,,,,,,,,,,,,,,,,,,,,,,,,,,,,,,,,,,,
1738755582.476607,1738755582.477169,66.000000,0.000000,4321.282227,4349.615234,4252.436035,4304.871582,4351.153809,4357.692383,4364.871582,4547.307617,4539.487305,4558.717773,4496.666504,5662.436035,4316.538574,4259.230957,0.000000,3.000000,74.000000,,,,0.000000,0.000000,0.000000,0.000000,0.000000,0.000000,0.000000,0.000000,0.000000,0.000000,0.000000,0.000000,0.000000,0.000000,0.000000,0.000000,,,,,,,,,,,,,,,,,,,,,,,,,,,,,,,,,,,,,,,,,,,,,,,,,,,,,,,,,,,,,,,,,,,,,,,,,,,,,,,,,,,,,,,,,,,,,,,,,,,,,,,,,,,,,,,,,,,,,,,,,,,,,,,,,
1738755582.484415,1738755582.484877,67.000000,0.000000,4321.922852,4352.051270,4254.743652,4305.000000,4353.077148,4362.692383,4366.410156,4547.820313,4538.589844,4557.051270,4496.025879,5663.461426,4311.538574,4258.974121,0.000000,3.000000,74.000000,,,,0.000000,0.000000,0.000000,0.000000,0.000000,0.000000,0.000000,0.000000,0.000000,0.000000,0.000000,0.000000,0.000000,0.000000,0.000000,0.000000,,,,,,,,,,,,,,,,,,,,,,,,,,,,,,,,,,,,,,,,,,,,,,,,,,,,,,,,,,,,,,,,,,,,,,,,,,,,,,,,,,,,,,,,,,,,,,,,,,,,,,,,,,,,,,,,,,,,,,,,,,,,,,,,,
1738755582.492224,1738755582.492685,68.000000,0.000000,4323.205078,4353.461426,4255.256348,4301.922852,4354.358887,4365.769043,4364.487305,4550.384766,4540.897461,4559.358887,4495.128418,5660.897461,4310.512695,4260.512695,0.000000,3.000000,74.000000,,,,0.000000,0.000000,0.000000,0.000000,0.000000,0.000000,0.000000,0.000000,0.000000,0.000000,0.000000,0.000000,0.000000,0.000000,0.000000,0.000000,,,,,,,,,,,,,,,,,17.000000,0.000000,0.785272,-0.615662,-0.060974,0.024292,0.061531,-0.975217,0.221707,4.570613,-15.314489,22.885624,,,,,,,,,,,,,,,,,,,,,,,,,,,,,,,,,,,,,,,,,,,,,,,,,,,,,,,,,,,,,,,,,,,,,,,,,,,,,,,,,,,,,,,,,,,,,,,,,,,,,
1738755582.500032,1738755582.500393,69.000000,0.000000,4323.077148,4352.563965,4249.743652,4300.384766,4353.205078,4363.205078,4366.538574,4551.025879,4541.025879,4559.487305,4498.717773,5662.436035,4314.102539,4262.563965,0.000000,3.000000,74.000000,,,,0.000000,0.000000,0.000000,0.000000,0.000000,0.000000,0.000000,0.000000,0.000000,0.000000,0.000000,0.000000,0.000000,0.000000,0.000000,0.000000,,,,,,,,,,,,,,,,,,,,,,,,,,,,,,,,,,,,,,,,,,,,,,,,,,,,,,,,,,,,,,,,,,,,,,,,,,,,,,,,,,,,,,,,,,,,,,,,,,,,,,,,,,,,,,,,,,,,,,,,,,,,,,,,,
1738755582.507840,1738755582.508201,70.000000,0.000000,4321.025879,4352.307617,4252.051270,4301.410156,4352.692383,4360.000000,4368.974121,4551.025879,4539.230957,4558.461426,4499.871582,5664.230957,4313.077148,4259.487305,0.000000,3.000000,74.000000,,,,0.000000,0.000000,0.000000,0.000000,0.000000,0.000000,0.000000,0.000000,0.000000,0.000000,0.000000,0.000000,0.000000,0.000000,0.000000,0.000000,,,,,,,,,,,,,,,,,,,,,,,,,,,,,,,,,,,,,,,,,,,,,,,,,,,,,,,,,,,,,,,,,,,,,,,,,,,,,,,,,,,,,,,,,,,,,,,,,,,,,,,,,,,,,,,,,,,,,,,,,,,,,,,,,
1738755582.515648,1738755582.515909,71.000000,0.000000,4321.538574,4354.230957,4259.871582,4303.974121,4353.461426,4359.743652,4365.897461,4549.102539,4540.512695,4559.615234,4495.641113,5662.051270,4312.179688,4256.410156,0.000000,3.000000,74.000000,,,,0.000000,0.000000,0.000000,0.000000,0.000000,0.000000,0.000000,0.000000,0.000000,0.000000,0.000000,0.000000,0.000000,0.000000,0.000000,0.000000,,,,,,,,,,,,,,,,,,,,,,,,,,,,,,,,,,,,,,,,,,,,,,,,,,,,,,,,,,,,,,,,,,,,,,,,,,,,,,,,,,,,,,,,,,,,,,,,,,,,,,,,,,,,,,,,,,,,,,,,,,,,,,,,,
1738755582.523456,1738755582.523717,72.000000,0.000000,4320.641113,4350.897461,4257.051270,4305.897461,4353.333496,4359.743652,4367.051270,4550.000000,4540.769043,4560.128418,4495.512695,5665.128418,4309.487305,4257.436035,0.000000,3.000000,74.000000,,,,0.000000,0.000000,0.000000,0.000000,0.000000,0.000000,0.000000,0.000000,0.000000,0.000000,0.000000,0.000000,0.000000,0.000000,0.000000,0.000000,,,,,,,,,,,,,,,,,18.000000,0.000000,0.785266,-0.615662,-0.061035,0.024353,0.065438,-0.972287,0.226102,4.546885,-15.166374,22.863729,,,,,,,,,,,,,,,,,,,,,,,,,,,,,,,,,,,,,,,,,,,,,,,,,,,,,,,,,,,,,,,,,,,,,,,,,,,,,,,,,,,,,,,,,,,,,,,,,,,,,
1738755582.531264,1738755582.531425,73.000000,0.000000,4320.000000,4348.333496,4252.307617,4303.589844,4352.692383,4361.025879,4370.128418,4551.794922,4537.307617,4560.384766,4496.922852,5665.000000,4313.205078,4261.666504,0.000000,3.000000,74.000000,,,,0.000000,0.000000,0.000000,0.000000,0.000000,0.000000,0.000000,0.000000,0.000000,0.000000,0.000000,0.000000,0.000000,0.000000,0.000000,0.000000,,,,,,,,,,,,,,,,,,,,,,,,,,,,,,,,,,,,,,,,,,,,,,,,,,,,,,,,,,,,,,,,,,,,,,,,,,,,,,,,,,,,,,,,,,,,,,,,,,,,,,,,,,,,,,,,,,,,,,,,,,,,,,,,,
1738755582.539072,1738755582.539333,74.000000,0.000000,4324.487305,4351.794922,4256.282227,4303.589844,4352.307617,4361.794922,4367.179688,4551.922852,4535.256348,4560.384766,4494.743652,5663.846191,4316.153809,4260.128418,0.000000,3.000000,74.000000,,,,0.000000,0.000000,0.000000,0.000000,0.000000,0.000000,0.000000,0.000000,0.000000,0.000000,0.000000,0.000000,0.000000,0.000000,0.000000,0.000000,,,,,,,,,,,,,,,,,,,,,,,,,,,,,,,,,,,,,,,,,,,,,,,,,,,,,,,,,,,,,,,,,,,,,,,,,,,,,,,,,,,,,,,,,,,,,,,,,,,,,,,,,,,,,,,,,,,,,,,,,,,,,,,,,
1738755582.546880,1738755582.547142,75.000000,0.000000,4324.102539,4353.333496,4258.846191,4304.615234,4352.179688,4359.615234,4364.230957,4550.512695,4537.692383,4558.077148,4494.102539,5664.871582,4311.153809,4255.128418,0.000000,3.000000,74.000000,,,,0.000000,0.000000,0.000000,0.000000,0.000000,0.000000,0.000000,0.000000,0.000000,0.000000,0.000000,0.000000,0.000000,0.000000,0.000000,0.000000,,,,,,,,,,,,,,,,,,,,,,,,,,,,,,,,,,,,,,,,,,,,,,,,,,,,,,,,,,,,,,,,,,,,,,,,,,,,,,,,,,,,,,,,,,,,,,,,,,,,,,,,,,,,,,,,,,,,,,,,,,,,,,,,,
1738755582.554688,1738755582.555050,76.000000,0.000000,4321.410156,4350.384766,4256.025879,4303.717773,4351.794922,4357.948730,4365.384766,4548.974121,4539.871582,4556.282227,4497.307617,5662.307617,4310.769043,4258.077148,0.000000,3.000000,74.000000,,,,0.000000,0.000000,0.000000,0.000000,0.000000,0.000000,0.000000,0.000000,0.000000,0.000000,0.000000,0.000000,0.000000,0.000000,0.000000,0.000000,,,,,,,,,,,,,,,,,19.000000,0.000000,0.785168,-0.615784,-0.061035,0.024414,0.059578,-0.965450,0.223172,4.392197,-15.033070,22.877356,,,,,,,,,,,,,,,,,,,,,,,,,,,,,,,,,,,,,,,,,,,,,,,,,,,,,,,,,,,,,,,,,,,,,,,,,,,,,,,,,,,,,,,,,,,,,,,,,,,,,
1738755582.562497,1738755582.562858,77.000000,0.000000,4325.000000,4348.461426,4258.333496,4303.846191,4352.820313,4358.717773,4367.820313,4548.077148,4538.077148,4560.000000,4498.461426,5665.000000,4310.641113,4259.102539,0.000000,3.000000,74.000000,,,,0.000000,0.000000,0.000000,0.000000,0.000000,0.000000,0.000000,0.000000,0.000000,0.000000,0.000000,0.000000,0.000000,0.000000,0.000000,0.000000,,,,,,,,,,,,,,,,,,,,,,,,,,,,,,,,,,,,,,,,,,,,,,,,,,,,,,,,,,,,,,,,,,,,,,,,,,,,,,,,,,,,,,,,,,,,,,,,,,,,,,,,,,,,,,,,,,,,,,,,,,,,,,,,,
1738755582.570305,1738755582.570766,78.000000,0.000000,4325.769043,4349.230957,4265.256348,4300.769043,4351.922852,4358.333496,4366.538574,4548.077148,4541.282227,4564.358887,4496.153809,5665.897461,4309.102539,4253.846191,0.000000,3.000000,74.000000,,,,0.000000,0.000000,0.000000,0.000000,0.000000,0.000000,0.000000,0.000000,0.000000,0.000000,0.000000,0.000000,0.000000,0.000000,0.000000,0.000000,,,,,,,,,,,,,,,,,,,,,,,,,,,,,,,,,,,,,,,,,,,,,,,,,,,,,,,,,,,,0.026316,0.046252,0.049490,0.035071,0.026585,0.082992,0.046266,0.028470,0.032163,0.028484,0.198699,0.102834,0.051933,0.020772,0.026118,0.046574,0.017530,0.020958,0.013553,0.023068,0.042040,0.028918,0.015243,0.014492,0.028742,0.064212,0.048980,0.023586,0.026096,0.027298,0.061775,0.018545,0.071055,0.027978,0.033439,0.030135,0.021688,0.008323,0.022851,0.026166,0.073190,0.088630,0.035533,0.023532,0.015378,0.010898,0.020625,0.017233,0.016181,0.023363,0.009587,0.043101,0.061408,0.013055,0.027091,0.056092,0.077805,0.063936,0.016470,0.021655,0.086938,0.063036,0.077253,0.032920,0.037683,0.140004,0.094521,0.031883,0.024899,0.024671
1738755582.578113,1738755582.578574,79.000000,0.000000,4322.307617,4347.179688,4268.589844,4299.615234,4351.025879,4357.436035,4363.846191,4549.743652,4546.538574,4561.794922,4496.538574,5657.692383,4307.179688,4249.487305,0.000000,3.000000,74.000000,,,,0.000000,0.000000,0.000000,0.000000,0.000000,0.000000,0.000000,0.000000,0.000000,0.000000,0.000000,0.000000,0.000000,0.000000,0.000000,0.000000,,,,,,,,,,,,,,,,,,,,,,,,,,,,,,,,,,,,,,,,,,,,,,,,,,,,,,,,,,,,,,,,,,,,,,,,,,,,,,,,,,,,,,,,,,,,,,,,,,,,,,,,,,,,,,,,,,,,,,,,,,,,,,,,,
1738755582.585921,1738755582.586482,80.000000,0.000000,4322.436035,4343.461426,4266.538574,4303.077148,4353.333496,4359.358887,4363.717773,4550.769043,4541.922852,4558.077148,4498.205078,5656.153809,4308.205078,4250.512695,0.000000,3.000000,74.000000,,,,0.000000,0.000000,0.000000,0.000000,0.000000,0.000000,0.000000,0.000000,0.000000,0.000000,0.000000,0.000000,0.000000,0.000000,0.000000,0.000000,,,,,,,,,,,,,,,,,20.000000,0.000000,0.785207,-0.615723,-0.061157,0.024414,0.064461,-0.970333,0.234404,4.369644,-15.013096,22.789619,,,,,,,,,,,,,,,,,,,,,,,,,,,,,,,,,,,,,,,,,,,,,,,,,,,,,,,,,,,,,,,,,,,,,,,,,,,,,,,,,,,,,,,,,,,,,,,,,,,,,
1738755582.593729,1738755582.594291,81.000000,0.000000,4322.948730,4346.025879,4262.563965,4303.461426,4353.589844,4359.871582,4364.871582,4548.974121,4538.974121,4561.282227,4498.846191,5657.820313,4312.820313,4256.538574,0.000000,3.000000,74.000000,,,,0.000000,0.000000,0.000000,0.000000,0.000000,0.000000,0.000000,0.000000,0.000000,0.000000,0.000000,0.000000,0.000000,0.000000,0.000000,0.000000,,,,,,,,,,,,,,,,,,,,,,,,,,,,,,,,,,,,,,,,,,,,,,,,,,,,,,,,,,,,,,,,,,,,,,,,,,,,,,,,,,,,,,,,,,,,,,,,,,,,,,,,,,,,,,,,,,,,,,,,,,,,,,,,,
1738755582.601537,1738755582.602199,82.000000,0.000000,4321.410156,4350.512695,4259.743652,4303.846191,4352.436035,4358.589844,4366.666504,4548.717773,4541.410156,4562.436035,4498.846191,5660.384766,4308.461426,4256.922852,0.000000,3.000000,74.000000,,,,0.000000,0.000000,0.000000,0.000000,0.000000,0.000000,0.000000,0.000000,0.000000,0.000000,0.000000,0.000000,0.000000,0.000000,0.000000,0.000000,,,,,,,,,,,,,,,,,,,,,,,,,,,,,,,,,,,,,,,,,,,,,,,,,,,,,,,,,,,,,,,,,,,,,,,,,,,,,,,,,,,,,,,,,,,,,,,,,,,,,,,,,,,,,,,,,,,,,,,,,,,,,,,,,
1738755582.609345,1738755582.610007,83.000000,0.000000,4320.512695,4349.230957,4259.230957,4302.820313,4350.897461,4358.717773,4365.384766,4548.333496,4541.410156,4558.589844,4501.922852,5664.487305,4305.769043,4255.384766,0.000000,3.000000,74.000000,,,,0.000000,0.000000,0.000000,0.000000,0.000000,0.000000,0.000000,0.000000,0.000000,0.000000,0.000000,0.000000,0.000000,0.000000,0.000000,0.000000,,,,,,,,,,,,,,,,,,,,,,,,,,,,,,,,,,,,,,,,,,,,,,,,,,,,,,,,,,,,,,,,,,,,,,,,,,,,,,,,,,,,,,,,,,,,,,,,,,,,,,,,,,,,,,,,,,,,,,,,,,,,,,,,,
1738755582.617153,1738755582.617715,84.000000,0.000000,4319.743652,4345.384766,4261.410156,4300.000000,4349.230957,4358.846191,4365.256348,4549.358887,4541.153809,4557.563965,4502.307617,5663.333496,4308.461426,4256.538574,0.000000,3.000000,74.000000,,,,0.000000,0.000000,0.000000,0.000000,0.000000,0.000000,0.000000,0.000000,0.000000,0.000000,0.000000,0.000000,0.000000,0.000000,0.000000,0.000000,,,,,,,,,,,,,,,,,21.000000,0.000000,0.785168,-0.615784,-0.061035,0.024414,0.061531,-0.977170,0.237334,4.266013,-14.961786,22.710659,,,,,,,,,,,,,,,,,,,,,,,,,,,,,,,,,,,,,,,,,,,,,,,,,,,,,,,,,,,,,,,,,,,,,,,,,,,,,,,,,,,,,,,,,,,,,,,,,,,,,
1738755582.624961,1738755582.625523,85.000000,0.000000,4321.666504,4344.871582,4261.282227,4303.077148,4350.897461,4357.692383,4366.538574,4552.820313,4543.205078,4560.128418,4495.256348,5662.436035,4306.794922,4255.256348,0.000000,3.000000,74.000000,,,,0.000000,0.000000,0.000000,0.000000,0.000000,0.000000,0.000000,0.000000,0.000000,0.000000,0.000000,0.000000,0.000000,0.000000,0.000000,0.000000,,,,,,,,,,,,,,,,,,,,,,,,,,,,,,,,,,,,,,,,,,,,,,,,,,,,,,,,,,,,,,,,,,,,,,,,,,,,,,,,,,,,,,,,,,,,,,,,,,,,,,,,,,,,,,,,,,,,,,,,,,,,,,,,,
1738755582.632769,1738755582.633232,86.000000,0.000000,4324.871582,4346.153809,4260.897461,4304.871582,4352.820313,4356.410156,4361.153809,4550.000000,4545.769043,4562.436035,4495.769043,5662.436035,4308.846191,4255.641113,0.000000,3.000000,74.000000,,,,0.000000,0.000000,0.000000,0.000000,0.000000,0.000000,0.000000,0.000000,0.000000,0.000000,0.000000,0.000000,0.000000,0.000000,0.000000,0.000000,,,,,,,,,,,,,,,,,,,,,,,,,,,,,,,,,,,,,,,,,,,,,,,,,,,,,,,,,,,,,,,,,,,,,,,,,,,,,,,,,,,,,,,,,,,,,,,,,,,,,,,,,,,,,,,,,,,,,,,,,,,,,,,,,
1738755582.640577,1738755582.641040,87.000000,0.000000,4326.153809,4346.922852,4262.692383,4302.563965,4351.410156,4358.077148,4360.897461,4547.820313,4542.948730,4561.666504,4499.487305,5660.256348,4307.307617,4254.230957,0.000000,3.000000,74.000000,,,,0.000000,0.000000,0.000000,0.000000,0.000000,0.000000,0.000000,0.000000,0.000000,0.000000,0.000000,0.000000,0.000000,0.000000,0.000000,0.000000,,,,,,,,,,,,,,,,,,,,,,,,,,,,,,,,,,,,,,,,,,,,,,,,,,,,,,,,,,,,,,,,,,,,,,,,,,,,,,,,,,,,,,,,,,,,,,,,,,,,,,,,,,,,,,,,,,,,,,,,,,,,,,,,,
1738755582.648386,1738755582.648748,88.000000,0.000000,4324.358887,4347.948730,4260.512695,4302.563965,4350.384766,4359.615234,4366.922852,4550.512695,4539.743652,4559.487305,4497.948730,5660.256348,4303.974121,4251.922852,0.000000,3.000000,74.000000,,,,0.000000,0.000000,0.000000,0.000000,0.000000,0.000000,0.000000,0.000000,0.000000,0.000000,0.000000,0.000000,0.000000,0.000000,0.000000,0.000000,,,,,,,,,,,,,,,,,22.000000,0.000000,0.785163,-0.615784,-0.061096,0.024414,0.051764,-0.967892,0.239287,4.372745,-14.998941,22.772926,,,,,,,,,,,,,,,,,,,,,,,,,,,,,,,,,,,,,,,,,,,,,,,,,,,,,,,,,,,,,,,,,,,,,,,,,,,,,,,,,,,,,,,,,,,,,,,,,,,,,
1738755582.656194,1738755582.656556,89.000000,0.000000,4321.538574,4347.563965,4257.051270,4304.487305,4351.025879,4359.615234,4367.179688,4549.615234,4541.410156,4559.358887,4496.666504,5662.307617,4309.102539,4252.436035,0.000000,3.000000,74.000000,,,,0.000000,0.000000,0.000000,0.000000,0.000000,0.000000,0.000000,0.000000,0.000000,0.000000,0.000000,0.000000,0.000000,0.000000,0.000000,0.000000,,,,,,,,,,,,,,,,,,,,,,,,,,,,,,,,,,,,,,,,,,,,,,,,,,,,,,,,,,,,,,,,,,,,,,,,,,,,,,,,,,,,,,,,,,,,,,,,,,,,,,,,,,,,,,,,,,,,,,,,,,,,,,,,,
1738755582.664002,1738755582.664264,90.000000,0.000000,4321.538574,4346.410156,4258.205078,4303.461426,4351.025879,4358.333496,4364.358887,4549.230957,4541.922852,4559.487305,4497.179688,5662.692383,4310.897461,4251.794922,0.000000,3.000000,74.000000,,,,0.000000,0.000000,0.000000,0.000000,0.000000,0.000000,0.000000,0.000000,0.000000,0.000000,0.000000,0.000000,0.000000,0.000000,0.000000,0.000000,,,,,,,,,,,,,,,,,,,,,,,,,,,,,,,,,,,,,,,,,,,,,,,,,,,,,,,,,,,,,,,,,,,,,,,,,,,,,,,,,,,,,,,,,,,,,,,,,,,,,,,,,,,,,,,,,,,,,,,,,,,,,,,,,
1738755582.671810,1738755582.672072,91.000000,0.000000,4321.666504,4346.282227,4261.025879,4300.512695,4353.717773,4357.692383,4361.538574,4551.794922,4543.589844,4558.205078,4496.538574,5661.282227,4311.922852,4254.230957,0.000000,3.000000,74.000000,,,,0.000000,0.000000,0.000000,0.000000,0.000000,0.000000,0.000000,0.000000,0.000000,0.000000,0.000000,0.000000,0.000000,0.000000,0.000000,0.000000,,,,,,,,,,,,,,,,,,,,,,,,,,,,,,,,,,,,,,,,,,,,,,,,,,,,,,,,,,,,,,,,,,,,,,,,,,,,,,,,,,,,,,,,,,,,,,,,,,,,,,,,,,,,,,,,,,,,,,,,,,,,,,,,,
1738755582.679618,1738755582.679781,92.000000,0.000000,4323.461426,4345.256348,4258.589844,4302.563965,4355.769043,4360.000000,4363.077148,4552.307617,4544.230957,4557.692383,4494.743652,5663.205078,4311.282227,4257.563965,0.000000,3.000000,74.000000,,,,0.000000,0.000000,0.000000,0.000000,0.000000,0.000000,0.000000,0.000000,0.000000,0.000000,0.000000,0.000000,0.000000,0.000000,0.000000,0.000000,,,,,,,,,,,,,,,,,23.000000,0.000000,0.785171,-0.615784,-0.060974,0.024475,0.066414,-0.970822,0.243682,4.335470,-15.049047,22.795633,,,,,,,,,,,,,,,,,,,,,,,,,,,,,,,,,,,,,,,,,,,,,,,,,,,,,,,,,,,,,,,,,,,,,,,,,,,,,,,,,,,,,,,,,,,,,,,,,,,,,
1738755582.687426,1738755582.687589,93.000000,0.000000,4325.256348,4347.179688,4256.025879,4305.641113,4352.692383,4360.256348,4367.436035,4551.410156,4539.230957,4558.461426,4495.897461,5661.666504,4308.717773,4257.051270,0.000000,3.000000,74.000000,,,,0.000000,0.000000,0.000000,0.000000,0.000000,0.000000,0.000000,0.000000,0.000000,0.000000,0.000000,0.000000,0.000000,0.000000,0.000000,0.000000,,,,,,,,,,,,,,,,,,,,,,,,,,,,,,,,,,,,,,,,,,,,,,,,,,,,,,,,,,,,,,,,,,,,,,,,,,,,,,,,,,,,,,,,,,,,,,,,,,,,,,,,,,,,,,,,,,,,,,,,,,,,,,,,,
1738755582.695234,1738755582.695297,94.000000,0.000000,4325.000000,4352.051270,4257.692383,4304.102539,4349.743652,4358.461426,4366.025879,4551.922852,4537.948730,4558.974121,4497.179688,5657.820313,4310.384766,4257.307617,0.000000,3.000000,74.000000,,,,0.000000,0.000000,0.000000,0.000000,0.000000,0.000000,0.000000,0.000000,0.000000,0.000000,0.000000,0.000000,0.000000,0.000000,0.000000,0.000000,1.000000,0.000000,0.000000,0.000000,0.000000,0.000000,0.000000,0.000000,0.000000,0.000000,0.000000,0.000000,0.000000,0.000000,0.000000,0.000000,,,,,,,,,,,,,,,,,,,,,,,,,,,,,,,,,,,,,,,,,,,,0.020011,0.035172,0.046955,0.031595,0.026745,0.079814,0.048280,0.026931,0.033138,0.030423,0.170781,0.089277,0.043766,0.020165,0.026520,0.030699,0.017247,0.015957,0.014593,0.023839,0.041726,0.026507,0.017867,0.010745,0.029385,0.064552,0.042293,0.023804,0.025644,0.027473,0.057487,0.017372,0.057231,0.026012,0.030520,0.024966,0.021842,0.010549,0.020674,0.023010,0.056216,0.084981,0.028106,0.022542,0.015510,0.011667,0.023897,0.015990,0.015349,0.022915,0.011725,0.043380,0.055296,0.015953,0.028857,0.029844,0.063655,0.045664,0.015652,0.021227,0.079505,0.057211,0.078727,0.032063,0.036623,0.122262,0.086784,0.029459,0.025081,0.023819
1738755582.703042,1738755582.703105,95.000000,0.000000,4325.128418,4350.512695,4259.358887,4303.077148,4350.000000,4358.461426,4364.230957,4553.461426,4538.974121,4559.743652,4496.025879,5661.538574,4307.436035,4256.922852,0.000000,3.000000,74.000000,,,,0.000000,0.000000,0.000000,0.000000,0.000000,0.000000,0.000000,0.000000,0.000000,0.000000,0.000000,0.000000,0.000000,0.000000,0.000000,0.000000,,,,,,,,,,,,,,,,,,,,,,,,,,,,,,,,,,,,,,,,,,,,,,,,,,,,,,,,,,,,,,,,,,,,,,,,,,,,,,,,,,,,,,,,,,,,,,,,,,,,,,,,,,,,,,,,,,,,,,,,,,,,,,,,,
1738755582.710850,1738755582.710813,96.000000,0.000000,4323.333496,4347.436035,4259.358887,4302.307617,4353.205078,4359.871582,4361.922852,4552.307617,4538.717773,4559.615234,4496.282227,5661.410156,4310.512695,4258.461426,0.000000,3.000000,74.000000,,,,0.000000,0.000000,0.000000,0.000000,0.000000,0.000000,0.000000,0.000000,0.000000,0.000000,0.000000,0.000000,0.000000,0.000000,0.000000,0.000000,,,,,,,,,,,,,,,,,24.000000,0.000000,0.785174,-0.615784,-0.060913,0.024536,0.067391,-0.974728,0.233427,4.551923,-15.227476,22.699404,,,,,,,,,,,,,,,,,,,,,,,,,,,,,,,,,,,,,,,,,,,,,,,,,,,,,,,,,,,,,,,,,,,,,,,,,,,,,,,,,,,,,,,,,,,,,,,,,,,,,
1738755582.718659,1738755582.718621,97.000000,0.000000,4323.205078,4348.589844,4256.666504,4301.410156,4354.230957,4359.743652,4360.641113,4550.769043,4539.358887,4557.948730,4495.256348,5661.282227,4313.077148,4256.922852,0.000000,3.000000,74.000000,,,,0.000000,0.000000,0.000000,0.000000,0.000000,0.000000,0.000000,0.000000,0.000000,0.000000,0.000000,0.000000,0.000000,0.000000,0.000000,0.000000,,,,,,,,,,,,,,,,,,,,,,,,,,,,,,,,,,,,,,,,,,,,,,,,,,,,,,,,,,,,,,,,,,,,,,,,,,,,,,,,,,,,,,,,,,,,,,,,,,,,,,,,,,,,,,,,,,,,,,,,,,,,,,,,,
1738755582.726467,1738755582.726329,98.000000,0.000000,4327.051270,4349.102539,4254.102539,4303.077148,4352.307617,4358.846191,4364.358887,4551.025879,4539.487305,4557.692383,4495.769043,5665.000000,4307.179688,4254.358887,0.000000,3.000000,74.000000,,,,0.000000,0.000000,0.000000,0.000000,0.000000,0.000000,0.000000,0.000000,0.000000,0.000000,0.000000,0.000000,0.000000,0.000000,0.000000,0.000000,,,,,,,,,,,,,,,,,,,,,,,,,,,,,,,,,,,,,,,,,,,,,,,,,,,,,,,,,,,,,,,,,,,,,,,,,,,,,,,,,,,,,,,,,,,,,,,,,,,,,,,,,,,,,,,,,,,,,,,,,,,,,,,,,
1738755582.734275,1738755582.734237,99.000000,0.000000,4326.410156,4349.871582,4256.538574,4302.436035,4353.077148,4358.205078,4364.358887,4549.230957,4539.358887,4559.358887,4500.128418,5661.153809,4307.820313,4258.717773,0.000000,3.000000,74.000000,,,,0.000000,0.000000,0.000000,0.000000,0.000000,0.000000,0.000000,0.000000,0.000000,0.000000,0.000000,0.000000,0.000000,0.000000,0.000000,0.000000,,,,,,,,,,,,,,,,,,,,,,,,,,,,,,,,,,,,,,,,,,,,,,,,,,,,,,,,,,,,,,,,,,,,,,,,,,,,,,,,,,,,,,,,,,,,,,,,,,,,,,,,,,,,,,,,,,,,,,,,,,,,,,,,,
1738755582.742083,1738755582.742045,100.000000,0.000000,4321.794922,4350.641113,4259.230957,4303.461426,4354.230957,4357.692383,4363.846191,4548.461426,4539.743652,4558.717773,4498.333496,5661.282227,4307.692383,4256.794922,0.000000,3.000000,74.000000,,,,0.000000,0.000000,0.000000,0.000000,0.000000,0.000000,0.000000,0.000000,0.000000,0.000000,0.000000,0.000000,0.000000,0.000000,0.000000,0.000000,,,,,,,,,,,,,,,,,25.000000,0.000000,0.785118,-0.615845,-0.061035,0.024475,0.059578,-0.980588,0.238799,4.613398,-15.254728,22.729464,,,,,,,,,,,,,,,,,,,,,,,,,,,,,,,,,,,,,,,,,,,,,,,,,,,,,,,,,,,,,,,,,,,,,,,,,,,,,,,,,,,,,,,,,,,,,,,,,,,,,
1738755582.749891,1738755582.749953,101.000000,0.000000,4322.051270,4350.384766,4256.025879,4304.487305,4352.692383,4360.769043,4366.153809,4548.589844,4541.153809,4558.461426,4494.487305,5662.307617,4308.205078,4252.820313,0.000000,3.000000,74.000000,,,,0.000000,0.000000,0.000000,0.000000,0.000000,0.000000,0.000000,0.000000,0.000000,0.000000,0.000000,0.000000,0.000000,0.000000,0.000000,0.000000,,,,,,,,,,,,,,,,,,,,,,,,,,,,,,,,,,,,,,,,,,,,,,,,,,,,,,,,,,,,,,,,,,,,,,,,,,,,,,,,,,,,,,,,,,,,,,,,,,,,,,,,,,,,,,,,,,,,,,,,,,,,,,,,,
1738755582.757699,1738755582.757761,102.000000,0.000000,4324.487305,4349.743652,4255.128418,4305.384766,4352.307617,4362.051270,4368.077148,4550.384766,4540.384766,4560.384766,4497.307617,5662.820313,4310.384766,4256.153809,0.000000,3.000000,74.000000,,,,0.000000,0.000000,0.000000,0.000000,0.000000,0.000000,0.000000,0.000000,0.000000,0.000000,0.000000,0.000000,0.000000,0.000000,0.000000,0.000000,,,,,,,,,,,,,,,,,,,,,,,,,,,,,,,,,,,,,,,,,,,,,,,,,,,,,,,,,,,,,,,,,,,,,,,,,,,,,,,,,,,,,,,,,,,,,,,,,,,,,,,,,,,,,,,,,,,,,,,,,,,,,,,,,
1738755582.765507,1738755582.765669,103.000000,0.000000,4323.717773,4350.128418,4259.615234,4306.538574,4352.051270,4358.205078,4366.153809,4553.205078,4540.897461,4561.794922,4500.769043,5666.538574,4307.820313,4259.230957,0.000000,3.000000,74.000000,,,,0.000000,0.000000,0.000000,0.000000,0.000000,0.000000,0.000000,0.000000,0.000000,0.000000,0.000000,0.000000,0.000000,0.000000,0.000000,0.000000,,,,,,,,,,,,,,,,,,,,,,,,,,,,,,,,,,,,,,,,,,,,,,,,,,,,,,,,,,,,,,,,,,,,,,,,,,,,,,,,,,,,,,,,,,,,,,,,,,,,,,,,,,,,,,,,,,,,,,,,,,,,,,,,,
1738755582.773315,1738755582.773478,104.000000,0.000000,4323.333496,4350.897461,4257.820313,4302.307617,4350.769043,4357.307617,4363.589844,4551.282227,4544.358887,4561.794922,4500.512695,5663.205078,4308.846191,4258.974121,0.000000,3.000000,74.000000,,,,0.000000,0.000000,0.000000,0.000000,0.000000,0.000000,0.000000,0.000000,0.000000,0.000000,0.000000,0.000000,0.000000,0.000000,0.000000,0.000000,,,,,,,,,,,,,,,,,26.000000,0.000000,0.785071,-0.615906,-0.061035,0.024475,0.068368,-0.973752,0.237334,4.435391,-15.212588,22.789850,,,,,,,,,,,,,,,,,,,,,,,,,,,,,,,,,,,,,,,,,,,,,,,,,,,,,,,,,,,,,,,,,,,,,,,,,,,,,,,,,,,,,,,,,,,,,,,,,,,,,
1738755582.781123,1738755582.781386,105.000000,0.000000,4323.717773,4348.077148,4253.205078,4300.256348,4353.077148,4360.000000,4368.333496,4550.000000,4541.153809,4561.282227,4497.307617,5661.794922,4309.487305,4254.871582,0.000000,3.000000,74.000000,,,,0.000000,0.000000,0.000000,0.000000,0.000000,0.000000,0.000000,0.000000,0.000000,0.000000,0.000000,0.000000,0.000000,0.000000,0.000000,0.000000,,,,,,,,,,,,,,,,,,,,,,,,,,,,,,,,,,,,,,,,,,,,,,,,,,,,,,,,,,,,,,,,,,,,,,,,,,,,,,,,,,,,,,,,,,,,,,,,,,,,,,,,,,,,,,,,,,,,,,,,,,,,,,,,,
1738755582.788931,1738755582.789194,106.000000,0.000000,4321.794922,4348.077148,4254.871582,4302.307617,4353.589844,4361.794922,4371.666504,4550.641113,4539.615234,4562.307617,4495.641113,5663.205078,4310.256348,4253.077148,0.000000,3.000000,74.000000,,,,0.000000,0.000000,0.000000,0.000000,0.000000,0.000000,0.000000,0.000000,0.000000,0.000000,0.000000,0.000000,0.000000,0.000000,0.000000,0.000000,,,,,,,,,,,,,,,,,,,,,,,,,,,,,,,,,,,,,,,,,,,,,,,,,,,,,,,,,,,,,,,,,,,,,,,,,,,,,,,,,,,,,,,,,,,,,,,,,,,,,,,,,,,,,,,,,,,,,,,,,,,,,,,,,
