title:breaddd1747914415677, start timestamp:1747914417.153880, stop timestamp:1747914582.244266, headset type:EPOCX, headset serial:E50208A5, headset firmware:720, channels:107, sampling rate:eeg_256;mot_32;pm_0.1;mc_8;fe_32, samples:42288     , version:2.2, 
Timestamp,OriginalTimestamp,EEG.Counter,EEG.Interpolated,EEG.AF3,EEG.F7,EEG.F3,EEG.FC5,EEG.T7,EEG.P7,EEG.O1,EEG.O2,EEG.P8,EEG.T8,EEG.FC6,EEG.F4,EEG.F8,EEG.AF4,EEG.RawCq,EEG.Battery,EEG.BatteryPercent,MarkerIndex,MarkerType,MarkerValueInt,EEG.MarkerHardware,CQ.AF3,CQ.F7,CQ.F3,CQ.FC5,CQ.T7,CQ.P7,CQ.O1,CQ.O2,CQ.P8,CQ.T8,CQ.FC6,CQ.F4,CQ.F8,CQ.AF4,CQ.Overall,EQ.SampleRateQuality,EQ.OVERALL,EQ.AF3,EQ.F7,EQ.F3,EQ.FC5,EQ.T7,EQ.P7,EQ.O1,EQ.O2,EQ.P8,EQ.T8,EQ.FC6,EQ.F4,EQ.F8,EQ.AF4,MOT.CounterMems,MOT.InterpolatedMems,MOT.Q0,MOT.Q1,MOT.Q2,MOT.Q3,MOT.AccX,MOT.AccY,MOT.AccZ,MOT.MagX,MOT.MagY,MOT.MagZ,PM.Attention.IsActive,PM.Attention.Scaled,PM.Attention.Raw,PM.Attention.Min,PM.Attention.Max,PM.Engagement.IsActive,PM.Engagement.Scaled,PM.Engagement.Raw,PM.Engagement.Min,PM.Engagement.Max,PM.Excitement.IsActive,PM.Excitement.Scaled,PM.Excitement.Raw,PM.Excitement.Min,PM.Excitement.Max,PM.LongTermExcitement,PM.Stress.IsActive,PM.Stress.Scaled,PM.Stress.Raw,PM.Stress.Min,PM.Stress.Max,PM.Relaxation.IsActive,PM.Relaxation.Scaled,PM.Relaxation.Raw,PM.Relaxation.Min,PM.Relaxation.Max,PM.Interest.IsActive,PM.Interest.Scaled,PM.Interest.Raw,PM.Interest.Min,PM.Interest.Max,MC.Action,MC.ActionPower,MC.IsActive,FE.BlinkWink,FE.HorizontalEyesDirection,FE.UpperFaceAction,FE.UpperFaceActionPower,FE.LowerFaceAction,FE.LowerFaceActionPower
1747914417.153880,1747914417.154757,93.000000,0.000000,4229.615234,4330.641113,4256.922852,4318.461426,4349.743652,4366.282227,4248.717773,4570.128418,4544.615234,4561.538574,4502.307617,5564.487305,4202.820313,4260.769043,0.000000,1.000000,18.000000,,,,0.000000,0.000000,0.000000,0.000000,0.000000,0.000000,0.000000,0.000000,0.000000,0.000000,0.000000,0.000000,0.000000,0.000000,0.000000,0.000000,,,,,,,,,,,,,,,,,,,,,,,,,,,,,,,,,,,,,,,,,,,,,,,,,,,,,,,,,,,,,,,,,,,,
1747914417.157784,1747914417.158761,94.000000,0.000000,4228.974121,4333.717773,4257.179688,4317.307617,4348.717773,4360.897461,4244.743652,4569.230957,4544.871582,4561.538574,4503.333496,5567.692383,4217.692383,4265.384766,0.000000,1.000000,18.000000,,,,0.000000,0.000000,0.000000,0.000000,0.000000,0.000000,0.000000,0.000000,0.000000,0.000000,0.000000,0.000000,0.000000,0.000000,0.000000,0.000000,,,,,,,,,,,,,,,,,,,,,,,,,,,,,,,,,,,,,,,,,,,,,,,,,,,,,,,,,,,,,,,0.000000,0.000000,32.000000,0.011276,1.000000,0.000000
1747914417.161688,1747914417.162665,95.000000,0.000000,4233.974121,4339.358887,4256.794922,4315.512695,4347.051270,4351.666504,4237.307617,4569.230957,4546.153809,4562.179688,4508.589844,5575.512695,4234.487305,4275.128418,0.000000,1.000000,18.000000,,,,0.000000,0.000000,0.000000,0.000000,0.000000,0.000000,0.000000,0.000000,0.000000,0.000000,0.000000,0.000000,0.000000,0.000000,0.000000,0.000000,,,,,,,,,,,,,,,,,,,,,,,,,,,,,,,,,,,,,,,,,,,,,,,,,,,,,,,,,,,,,,,,,,,,
1747914417.165592,1747914417.166569,96.000000,0.000000,4234.102539,4340.128418,4256.025879,4315.000000,4347.436035,4349.230957,4242.307617,4570.384766,4546.666504,4561.794922,4511.153809,5578.589844,4235.128418,4276.922852,0.000000,1.000000,18.000000,,,,0.000000,0.000000,0.000000,0.000000,0.000000,0.000000,0.000000,0.000000,0.000000,0.000000,0.000000,0.000000,0.000000,0.000000,0.000000,0.000000,,,,,,,,,,,,,,,,,12.000000,0.000000,0.726563,-0.681702,0.062317,0.059204,-0.169943,-0.987425,0.073739,0.427409,-16.312386,34.938732,,,,,,,,,,,,,,,,,,,,,,,,,,,,,,,,,,,,,,,,
1747914417.169496,1747914417.170473,97.000000,0.000000,4228.461426,4335.641113,4255.769043,4316.410156,4350.000000,4356.153809,4260.769043,4571.282227,4545.641113,4560.256348,4507.692383,5572.820313,4218.717773,4267.820313,0.000000,1.000000,18.000000,,,,0.000000,0.000000,0.000000,0.000000,0.000000,0.000000,0.000000,0.000000,0.000000,0.000000,0.000000,0.000000,0.000000,0.000000,0.000000,0.000000,,,,,,,,,,,,,,,,,,,,,,,,,,,,,,,,,,,,,,,,,,,,,,,,,,,,,,,,,,,,,,,,,,,,
1747914417.173400,1747914417.174278,98.000000,0.000000,4228.974121,4332.948730,4256.153809,4318.205078,4351.922852,4363.333496,4274.615234,4571.282227,4544.615234,4558.846191,4502.436035,5565.769043,4204.358887,4258.717773,0.000000,1.000000,18.000000,,,,0.000000,0.000000,0.000000,0.000000,0.000000,0.000000,0.000000,0.000000,0.000000,0.000000,0.000000,0.000000,0.000000,0.000000,0.000000,0.000000,,,,,,,,,,,,,,,,,,,,,,,,,,,,,,,,,,,,,,,,,,,,,,,,,,,,,,,,,,,,,,,,,,,,
1747914417.177304,1747914417.178182,99.000000,0.000000,4244.230957,4336.794922,4257.179688,4318.717773,4350.769043,4362.307617,4270.128418,4570.769043,4545.384766,4559.102539,4501.666504,5565.897461,4210.000000,4260.641113,0.000000,1.000000,18.000000,,,,0.000000,0.000000,0.000000,0.000000,0.000000,0.000000,0.000000,0.000000,0.000000,0.000000,0.000000,0.000000,0.000000,0.000000,0.000000,0.000000,,,,,,,,,,,,,,,,,,,,,,,,,,,,,,,,,,,,,,,,,,,,,,,,,,,,,,,,,,,,,,,,,,,,
1747914417.181208,1747914417.182086,100.000000,0.000000,4263.717773,4343.077148,4257.820313,4317.820313,4347.948730,4355.128418,4252.179688,4570.641113,4547.436035,4560.641113,4505.256348,5572.436035,4229.487305,4270.256348,0.000000,1.000000,18.000000,,,,0.000000,0.000000,0.000000,0.000000,0.000000,0.000000,0.000000,0.000000,0.000000,0.000000,0.000000,0.000000,0.000000,0.000000,0.000000,0.000000,,,,,,,,,,,,,,,,,,,,,,,,,,,,,,,,,,,,,,,,,,,,,,,,,,,,,,,,,,,,,,,,,,,,
1747914417.185112,1747914417.185990,101.000000,0.000000,4268.333496,4343.974121,4257.948730,4317.436035,4346.922852,4351.666504,4240.512695,4570.641113,4548.589844,4561.794922,4506.794922,5576.025879,4241.025879,4274.871582,0.000000,1.000000,18.000000,,,,0.000000,0.000000,0.000000,0.000000,0.000000,0.000000,0.000000,0.000000,0.000000,0.000000,0.000000,0.000000,0.000000,0.000000,0.000000,0.000000,,,,,,,,,,,,,,,,,,,,,,,,,,,,,,,,,,,,,,,,,,,,,,,,,,,,,,,,,,,,,,,,,,,,
1747914417.189016,1747914417.189794,102.000000,0.000000,4254.358887,4338.589844,4257.307617,4318.974121,4348.974121,4356.153809,4245.128418,4570.256348,4547.307617,4561.538574,4503.205078,5571.538574,4233.589844,4269.102539,0.000000,1.000000,18.000000,,,,0.000000,0.000000,0.000000,0.000000,0.000000,0.000000,0.000000,0.000000,0.000000,0.000000,0.000000,0.000000,0.000000,0.000000,0.000000,0.000000,,,,,,,,,,,,,,,,,,,,,,,,,,,,,,,,,,,,,,,,,,,,,,,,,,,,,,,,,,,,1.000000,0.000000,0.000000,0.000000,0.000000,32.000000,0.021593,1.000000,0.000000
1747914417.192920,1747914417.193698,103.000000,0.000000,4237.692383,4334.358887,4256.025879,4320.897461,4352.179688,4362.179688,4255.128418,4569.487305,4545.000000,4560.512695,4499.102539,5564.743652,4217.563965,4261.153809,0.000000,1.000000,18.000000,,,,0.000000,0.000000,0.000000,0.000000,0.000000,0.000000,0.000000,0.000000,0.000000,0.000000,0.000000,0.000000,0.000000,0.000000,0.000000,0.000000,,,,,,,,,,,,,,,,,,,,,,,,,,,,,,,,,,,,,,,,,,,,,,,,,,,,,,,,,,,,,,,,,,,,
1747914417.196824,1747914417.197602,104.000000,0.000000,4234.358887,4337.436035,4254.743652,4320.512695,4353.589844,4361.538574,4256.153809,4569.102539,4544.230957,4559.487305,4500.512695,5564.487305,4209.743652,4261.922852,0.000000,1.000000,18.000000,,,,0.000000,0.000000,0.000000,0.000000,0.000000,0.000000,0.000000,0.000000,0.000000,0.000000,0.000000,0.000000,0.000000,0.000000,0.000000,0.000000,,,,,,,,,,,,,,,,,13.000000,0.000000,0.726444,-0.681824,0.062378,0.059204,-0.180686,-0.974728,0.055183,0.434668,-16.364481,34.994862,,,,,,,,,,,,,,,,,,,,,,,,,,,,,,,,,,,,,,,,
1747914417.200728,1747914417.201506,105.000000,0.000000,4241.282227,4344.743652,4253.974121,4317.820313,4352.179688,4355.256348,4247.436035,4569.743652,4545.128418,4558.974121,4506.794922,5571.025879,4209.102539,4270.000000,0.000000,1.000000,18.000000,,,,0.000000,0.000000,0.000000,0.000000,0.000000,0.000000,0.000000,0.000000,0.000000,0.000000,0.000000,0.000000,0.000000,0.000000,0.000000,0.000000,,,,,,,,,,,,,,,,,,,,,,,,,,,,,,,,,,,,,,,,,,,,,,,,,,,,,,,,,,,,,,,,,,,,
1747914417.204632,1747914417.205311,106.000000,0.000000,4243.205078,4348.333496,4254.230957,4315.384766,4349.615234,4351.538574,4242.948730,4570.769043,4546.282227,4558.333496,4510.512695,5575.641113,4206.538574,4273.846191,0.000000,1.000000,18.000000,,,,0.000000,0.000000,0.000000,0.000000,0.000000,0.000000,0.000000,0.000000,0.000000,0.000000,0.000000,0.000000,0.000000,0.000000,0.000000,0.000000,,,,,,,,,,,,,,,,,,,,,,,,,,,,,,,,,,,,,,,,,,,,,,,,,,,,,,,,,,,,,,,,,,,,
1747914417.208537,1747914417.209215,107.000000,0.000000,4233.333496,4344.871582,4255.384766,4315.897461,4347.692383,4355.128418,4250.000000,4570.897461,4545.897461,4557.692383,4507.179688,5571.794922,4198.461426,4267.436035,0.000000,1.000000,18.000000,,,,0.000000,0.000000,0.000000,0.000000,0.000000,0.000000,0.000000,0.000000,0.000000,0.000000,0.000000,0.000000,0.000000,0.000000,0.000000,0.000000,,,,,,,,,,,,,,,,,,,,,,,,,,,,,,,,,,,,,,,,,,,,,,,,,,,,,,,,,,,,,,,,,,,,
1747914417.212440,1747914417.213119,108.000000,0.000000,4222.820313,4339.487305,4256.538574,4318.461426,4346.666504,4360.769043,4257.051270,4570.128418,4544.743652,4558.077148,4501.153809,5564.102539,4194.871582,4258.589844,0.000000,1.000000,18.000000,,,,0.000000,0.000000,0.000000,0.000000,0.000000,0.000000,0.000000,0.000000,0.000000,0.000000,0.000000,0.000000,0.000000,0.000000,0.000000,0.000000,,,,,,,,,,,,,,,,,,,,,,,,,,,,,,,,,,,,,,,,,,,,,,,,,,,,,,,,,,,,,,,,,,,,
1747914417.216344,1747914417.217023,109.000000,0.000000,4229.615234,4338.333496,4257.563965,4320.128418,4345.384766,4360.641113,4252.948730,4569.615234,4544.743652,4560.000000,4500.000000,5561.922852,4210.256348,4258.974121,0.000000,1.000000,18.000000,,,,0.000000,0.000000,0.000000,0.000000,0.000000,0.000000,0.000000,0.000000,0.000000,0.000000,0.000000,0.000000,0.000000,0.000000,0.000000,0.000000,,,,,,,,,,,,,,,,,,,,,,,,,,,,,,,,,,,,,,,,,,,,,,,,,,,,,,,,,,,,,,,,,,,,
1747914417.220249,1747914417.220827,110.000000,0.000000,4251.025879,4340.897461,4257.692383,4318.717773,4344.743652,4355.000000,4241.410156,4570.512695,4546.794922,4562.051270,4505.128418,5567.051270,4239.230957,4268.461426,0.000000,1.000000,18.000000,,,,0.000000,0.000000,0.000000,0.000000,0.000000,0.000000,0.000000,0.000000,0.000000,0.000000,0.000000,0.000000,0.000000,0.000000,0.000000,0.000000,,,,,,,,,,,,,,,,,,,,,,,,,,,,,,,,,,,,,,,,,,,,,,,,,,,,,,,,,,,,,,,0.000000,0.000000,32.000000,0.021593,1.000000,0.000000
1747914417.224153,1747914417.224731,111.000000,0.000000,4265.897461,4341.153809,4256.922852,4315.641113,4346.025879,4351.666504,4239.358887,4572.051270,4549.102539,4562.051270,4509.871582,5571.922852,4258.077148,4274.615234,0.000000,1.000000,18.000000,,,,0.000000,0.000000,0.000000,0.000000,0.000000,0.000000,0.000000,0.000000,0.000000,0.000000,0.000000,0.000000,0.000000,0.000000,0.000000,0.000000,,,,,,,,,,,,,,,,,,,,,,,,,,,,,,,,,,,,,,,,,,,,,,,,,,,,,,,,,,,,,,,,,,,,
1747914417.228057,1747914417.228635,112.000000,0.000000,4260.000000,4337.051270,4255.512695,4313.974121,4349.230957,4355.641113,4256.410156,4572.563965,4549.615234,4559.615234,4508.846191,5569.615234,4251.922852,4269.358887,0.000000,1.000000,18.000000,,,,0.000000,0.000000,0.000000,0.000000,0.000000,0.000000,0.000000,0.000000,0.000000,0.000000,0.000000,0.000000,0.000000,0.000000,0.000000,0.000000,,,,,,,,,,,,,,,,,14.000000,0.000000,0.726506,-0.681763,0.062256,0.059265,-0.174826,-0.983518,0.069344,0.474535,-16.528032,34.995373,,,,,,,,,,,,,,,,,,,,,,,,,,,,,,,,,,,,,,,,
1747914417.231961,1747914417.232639,113.000000,0.000000,4242.692383,4333.461426,4254.102539,4315.128418,4351.538574,4361.153809,4277.820313,4570.897461,4547.948730,4556.922852,4504.358887,5564.102539,4229.230957,4259.743652,0.000000,1.000000,18.000000,,,,0.000000,0.000000,0.000000,0.000000,0.000000,0.000000,0.000000,0.000000,0.000000,0.000000,0.000000,0.000000,0.000000,0.000000,0.000000,0.000000,,,,,,,,,,,,,,,,,,,,,,,,,,,,,,,,,,,,,,,,,,,,,,,,,,,,,,,,,,,,,,,,,,,,
1747914417.235865,1747914417.236543,114.000000,0.000000,4232.307617,4336.410156,4253.717773,4317.692383,4350.256348,4360.000000,4282.948730,4568.205078,4546.025879,4556.922852,4503.461426,5563.974121,4209.615234,4258.846191,0.000000,1.000000,18.000000,,,,0.000000,0.000000,0.000000,0.000000,0.000000,0.000000,0.000000,0.000000,0.000000,0.000000,0.000000,0.000000,0.000000,0.000000,0.000000,0.000000,,,,,,,,,,,,,,,,,,,,,,,,,,,,,,,,,,,,,,,,,,,,,,,,,,,,,,,,,,,,,,,,,,,,
1747914417.239769,1747914417.240448,115.000000,0.000000,4234.230957,4344.230957,4254.743652,4319.615234,4346.153809,4352.051270,4267.179688,4566.794922,4545.128418,4560.384766,4507.948730,5571.153809,4199.230957,4268.461426,0.000000,1.000000,18.000000,,,,0.000000,0.000000,0.000000,0.000000,0.000000,0.000000,0.000000,0.000000,0.000000,0.000000,0.000000,0.000000,0.000000,0.000000,0.000000,0.000000,,,,,,,,,,,,,,,,,,,,,,,,,,,,,,,,,,,,,,,,,,,,,,,,,,,,,,,,,,,,,,,,,,,,
1747914417.243673,1747914417.244352,116.000000,0.000000,4238.077148,4348.205078,4256.410156,4320.384766,4343.077148,4346.538574,4246.922852,4567.563965,4545.128418,4564.358887,4512.436035,5576.794922,4192.692383,4276.410156,0.000000,1.000000,18.000000,,,,0.000000,0.000000,0.000000,0.000000,0.000000,0.000000,0.000000,0.000000,0.000000,0.000000,0.000000,0.000000,0.000000,0.000000,0.000000,0.000000,,,,,,,,,,,,,,,,,,,,,,,,,,,,,,,,,,,,,,,,,,,,,,,,,,,,,,,,,,,,,,,,,,,,
1747914417.247577,1747914417.248356,117.000000,0.000000,4235.256348,4343.589844,4257.820313,4320.512695,4344.102539,4350.384766,4240.641113,4569.615234,4545.128418,4565.512695,4510.769043,5572.948730,4186.666504,4271.794922,0.000000,1.000000,18.000000,,,,0.000000,0.000000,0.000000,0.000000,0.000000,0.000000,0.000000,0.000000,0.000000,0.000000,0.000000,0.000000,0.000000,0.000000,0.000000,0.000000,,,,,,,,,,,,,,,,,,,,,,,,,,,,,,,,,,,,,,,,,,,,,,,,,,,,,,,,,,,,,,,,,,,,
1747914417.251481,1747914417.252260,118.000000,0.000000,4231.153809,4335.769043,4258.205078,4320.128418,4348.077148,4359.615234,4245.000000,4571.153809,4545.000000,4563.333496,4504.615234,5563.717773,4187.820313,4259.743652,0.000000,1.000000,18.000000,,,,0.000000,0.000000,0.000000,0.000000,0.000000,0.000000,0.000000,0.000000,0.000000,0.000000,0.000000,0.000000,0.000000,0.000000,0.000000,0.000000,,,,,,,,,,,,,,,,,,,,,,,,,,,,,,,,,,,,,,,,,,,,,,,,,,,,,,,,,,,,,,,0.000000,0.000000,32.000000,0.021593,1.000000,0.000000
1747914417.255385,1747914417.256164,119.000000,0.000000,4238.461426,4333.846191,4257.307617,4318.461426,4351.410156,4363.717773,4247.436035,4571.666504,4545.512695,4560.512695,4501.153809,5560.384766,4208.846191,4255.128418,0.000000,1.000000,18.000000,,,,0.000000,0.000000,0.000000,0.000000,0.000000,0.000000,0.000000,0.000000,0.000000,0.000000,0.000000,0.000000,0.000000,0.000000,0.000000,0.000000,,,,,,,,,,,,,,,,,,,,,,,,,,,,,,,,,,,,,,,,,,,,,,,,,,,,,,,,,,,,,,,,,,,,
1747914417.259289,1747914417.260068,120.000000,0.000000,4256.153809,4339.102539,4255.641113,4315.641113,4351.794922,4359.358887,4241.922852,4571.153809,4547.307617,4559.615234,4503.974121,5567.307617,4245.384766,4263.333496,0.000000,1.000000,18.000000,,,,0.000000,0.000000,0.000000,0.000000,0.000000,0.000000,0.000000,0.000000,0.000000,0.000000,0.000000,0.000000,0.000000,0.000000,0.000000,0.000000,,,,,,,,,,,,,,,,,15.000000,0.000000,0.726454,-0.681824,0.062256,0.059204,-0.178244,-0.984495,0.068856,0.343748,-16.458563,34.945839,,,,,,,,,,,,,,,,,,,,,,,,,,,,,,,,,,,,,,,,
1747914417.263193,1747914417.263872,121.000000,0.000000,4266.922852,4343.974121,4253.974121,4313.333496,4350.384766,4353.333496,4237.820313,4570.512695,4548.974121,4560.769043,4508.717773,5576.282227,4269.871582,4274.230957,0.000000,1.000000,18.000000,,,,0.000000,0.000000,0.000000,0.000000,0.000000,0.000000,0.000000,0.000000,0.000000,0.000000,0.000000,0.000000,0.000000,0.000000,0.000000,0.000000,,,,,,,,,,,,,,,,,,,,,,,,,,,,,,,,,,,,,,,,,,,,,,,,,,,,,,,,,,,,,,,,,,,,
1747914417.267097,1747914417.267776,122.000000,0.000000,4258.589844,4341.794922,4253.333496,4313.974121,4349.487305,4354.102539,4248.846191,4570.000000,4549.102539,4562.820313,4509.358887,5576.666504,4262.436035,4275.128418,0.000000,1.000000,18.000000,,,,0.000000,0.000000,0.000000,0.000000,0.000000,0.000000,0.000000,0.000000,0.000000,0.000000,0.000000,0.000000,0.000000,0.000000,0.000000,0.000000,,,,,,,,,,,,,,,,,,,,,,,,,,,,,,,,,,,,,,,,,,,,,,,,,,,,,,,,,,,,,,,,,,,,
1747914417.271001,1747914417.271680,123.000000,0.000000,4238.717773,4335.256348,4254.230957,4316.794922,4350.000000,4360.769043,4267.948730,4569.871582,4547.436035,4564.102539,4505.897461,5568.846191,4231.666504,4267.179688,0.000000,1.000000,18.000000,,,,0.000000,0.000000,0.000000,0.000000,0.000000,0.000000,0.000000,0.000000,0.000000,0.000000,0.000000,0.000000,0.000000,0.000000,0.000000,0.000000,,,,,,,,,,,,,,,,,,,,,,,,,,,,,,,,,,,,,,,,,,,,,,,,,,,,,,,,,,,,,,,,,,,,
1747914417.274905,1747914417.275585,124.000000,0.000000,4227.436035,4332.563965,4255.897461,4319.102539,4350.641113,4364.743652,4276.153809,4570.128418,4546.153809,4564.487305,4503.589844,5563.589844,4204.358887,4262.563965,0.000000,1.000000,18.000000,,,,0.000000,0.000000,0.000000,0.000000,0.000000,0.000000,0.000000,0.000000,0.000000,0.000000,0.000000,0.000000,0.000000,0.000000,0.000000,0.000000,,,,,,,,,,,,,,,,,,,,,,,,,,,,,,,,,,,,,,,,,,,,,,,,,,,,,,,,,,,,,,,,,,,,
1747914417.278809,1747914417.279389,125.000000,0.000000,4234.871582,4336.922852,4256.922852,4318.589844,4350.256348,4361.794922,4266.282227,4571.025879,4546.922852,4564.230957,4505.256348,5567.820313,4195.641113,4267.563965,0.000000,1.000000,18.000000,,,,0.000000,0.000000,0.000000,0.000000,0.000000,0.000000,0.000000,0.000000,0.000000,0.000000,0.000000,0.000000,0.000000,0.000000,0.000000,0.000000,,,,,,,,,,,,,,,,,,,,,,,,,,,,,,,,,,,,,,,,,,,,,,,,,,,,,,,,,,,,,,,,,,,,
1747914417.282713,1747914417.283293,126.000000,0.000000,4249.615234,4342.563965,4256.538574,4316.538574,4349.487305,4356.666504,4250.641113,4571.794922,4548.717773,4563.589844,4507.563965,5575.641113,4198.077148,4274.615234,0.000000,1.000000,18.000000,,,,0.000000,0.000000,0.000000,0.000000,0.000000,0.000000,0.000000,0.000000,0.000000,0.000000,0.000000,0.000000,0.000000,0.000000,0.000000,0.000000,,,,,,,,,,,,,,,,,,,,,,,,,,,,,,,,,,,,,,,,,,,,,,,,,,,,,,,,,,,,,,,0.000000,0.000000,32.000000,0.021593,1.000000,0.000000
1747914417.286617,1747914417.287197,127.000000,0.000000,4254.230957,4342.307617,4255.000000,4315.384766,4349.487305,4357.179688,4245.384766,4571.410156,4549.487305,4562.436035,4505.769043,5576.025879,4198.717773,4273.205078,0.000000,1.000000,18.000000,,,,0.000000,0.000000,0.000000,0.000000,0.000000,0.000000,0.000000,0.000000,0.000000,0.000000,0.000000,0.000000,0.000000,0.000000,0.000000,0.000000,,,,,,,,,,,,,,,,,,,,,,,,,,,,,,,,,,,,,,,,,,,,,,,,,,,,,,,,,,,,,,,,,,,,
1747914417.290521,1747914417.291101,128.000000,0.000000,4244.871582,4336.538574,4253.077148,4316.153809,4350.384766,4362.948730,4248.717773,4569.615234,4548.333496,4561.025879,4500.897461,5567.179688,4196.410156,4264.358887,0.000000,1.000000,18.000000,,,,0.000000,0.000000,0.000000,0.000000,0.000000,0.000000,0.000000,0.000000,0.000000,0.000000,0.000000,0.000000,0.000000,0.000000,0.000000,0.000000,,,,,,,,,,,,,,,,,16.000000,0.000000,0.726402,-0.681885,0.062195,0.059204,-0.168966,-0.994750,0.054206,0.492706,-16.496040,34.917919,,,,,,,,,,,,,,,,,,,,,,,,,,,,,,,,,,,,,,,,
1747914417.294425,1747914417.294905,129.000000,0.000000,4235.000000,4332.820313,4252.307617,4317.436035,4350.769043,4366.025879,4247.948730,4567.436035,4546.282227,4560.256348,4499.358887,5559.487305,4204.487305,4260.000000,0.000000,1.000000,18.000000,,,,0.000000,0.000000,0.000000,0.000000,0.000000,0.000000,0.000000,0.000000,0.000000,0.000000,0.000000,0.000000,0.000000,0.000000,0.000000,0.000000,,,,,,,,,,,,,,,,,,,,,,,,,,,,,,,,,,,,,,,,,,,,,,,,,,,,,,,,,,,,,,,,,,,,
1747914417.298329,1747914417.298809,130.000000,0.000000,4235.769043,4335.256348,4253.205078,4317.307617,4350.000000,4361.153809,4238.589844,4566.922852,4545.256348,4560.897461,4504.487305,5561.538574,4229.358887,4266.794922,0.000000,1.000000,18.000000,,,,0.000000,0.000000,0.000000,0.000000,0.000000,0.000000,0.000000,0.000000,0.000000,0.000000,0.000000,0.000000,0.000000,0.000000,0.000000,0.000000,,,,,,,,,,,,,,,,,,,,,,,,,,,,,,,,,,,,,,,,,,,,,,,,,,,,,,,,,,,,,,,,,,,,
1747914417.302234,1747914417.302713,131.000000,0.000000,4241.538574,4340.000000,4255.512695,4316.282227,4348.974121,4353.589844,4230.897461,4568.846191,4545.384766,4562.179688,4511.410156,5569.871582,4251.666504,4276.410156,0.000000,1.000000,18.000000,,,,0.000000,0.000000,0.000000,0.000000,0.000000,0.000000,0.000000,0.000000,0.000000,0.000000,0.000000,0.000000,0.000000,0.000000,0.000000,0.000000,,,,,,,,,,,,,,,,,,,,,,,,,,,,,,,,,,,,,,,,,,,,,,,,,,,,,,,,,,,,,,,,,,,,
1747914417.306138,1747914417.306618,132.000000,0.000000,4241.794922,4340.512695,4258.077148,4316.282227,4348.846191,4351.666504,4241.282227,4571.410156,4545.256348,4562.563965,4512.179688,5573.205078,4250.512695,4276.410156,0.000000,1.000000,18.000000,,,,0.000000,0.000000,0.000000,0.000000,0.000000,0.000000,0.000000,0.000000,0.000000,0.000000,0.000000,0.000000,0.000000,0.000000,0.000000,0.000000,,,,,,,,,,,,,,,,,,,,,,,,,,,,,,,,,,,,,,,,,,,,,,,,,,,,,,,,,,,,,,,,,,,,
1747914417.310042,1747914417.310422,133.000000,0.000000,4236.153809,4336.794922,4259.102539,4318.205078,4349.487305,4356.666504,4266.538574,4572.436035,4544.358887,4561.666504,4505.641113,5567.436035,4227.563965,4266.538574,0.000000,1.000000,18.000000,,,,0.000000,0.000000,0.000000,0.000000,0.000000,0.000000,0.000000,0.000000,0.000000,0.000000,0.000000,0.000000,0.000000,0.000000,0.000000,0.000000,,,,,,,,,,,,,,,,,,,,,,,,,,,,,,,,,,,,,,,,,,,,,,,,,,,,,,,,,,,,,,,,,,,,
1747914417.313946,1747914417.314326,134.000000,0.000000,4236.282227,4335.128418,4257.820313,4320.128418,4348.846191,4361.282227,4284.358887,4571.794922,4543.589844,4560.512695,4498.974121,5560.512695,4206.025879,4259.230957,0.000000,1.000000,18.000000,,,,0.000000,0.000000,0.000000,0.000000,0.000000,0.000000,0.000000,0.000000,0.000000,0.000000,0.000000,0.000000,0.000000,0.000000,0.000000,0.000000,1.000000,0.000000,0.000000,0.000000,0.000000,0.000000,0.000000,0.000000,0.000000,0.000000,0.000000,0.000000,0.000000,0.000000,0.000000,0.000000,,,,,,,,,,,,,,,,,,,,,,,,,,,,,,,,,,,,,,,,,,,,1.000000,0.000000,0.000000,0.000000,0.000000,1.000000,0.000000,2048.000000,0.000786
1747914417.317850,1747914417.318230,135.000000,0.000000,4248.461426,4339.358887,4255.256348,4319.871582,4346.282227,4359.871582,4278.974121,4570.897461,4544.102539,4559.871582,4498.974121,5561.153809,4203.974121,4263.333496,0.000000,1.000000,18.000000,,,,0.000000,0.000000,0.000000,0.000000,0.000000,0.000000,0.000000,0.000000,0.000000,0.000000,0.000000,0.000000,0.000000,0.000000,0.000000,0.000000,,,,,,,,,,,,,,,,,,,,,,,,,,,,,,,,,,,,,,,,,,,,,,,,,,,,,,,,,,,,,,,,,,,,
1747914417.321754,1747914417.322234,136.000000,0.000000,4262.436035,4345.128418,4253.205078,4317.948730,4344.102539,4355.256348,4256.666504,4571.410156,4545.769043,4559.487305,4503.846191,5568.205078,4216.922852,4272.563965,0.000000,1.000000,18.000000,,,,0.000000,0.000000,0.000000,0.000000,0.000000,0.000000,0.000000,0.000000,0.000000,0.000000,0.000000,0.000000,0.000000,0.000000,0.000000,0.000000,,,,,,,,,,,,,,,,,17.000000,0.000000,0.726459,-0.681824,0.062195,0.059204,-0.157246,-0.991332,0.062019,0.576769,-16.613102,35.059460,,,,,,,,,,,,,,,,,,,,,,,,,,,,,,,,,,,,,,,,
1747914417.325658,1747914417.326138,137.000000,0.000000,4262.948730,4345.384766,4253.205078,4316.410156,4344.487305,4354.871582,4239.230957,4572.563965,4546.922852,4558.461426,4506.153809,5572.307617,4227.179688,4273.846191,0.000000,1.000000,18.000000,,,,0.000000,0.000000,0.000000,0.000000,0.000000,0.000000,0.000000,0.000000,0.000000,0.000000,0.000000,0.000000,0.000000,0.000000,0.000000,0.000000,,,,,,,,,,,,,,,,,,,,,,,,,,,,,,,,,,,,,,,,,,,,,,,,,,,,,,,,,,,,,,,,,,,,
1747914417.329562,1747914417.330042,138.000000,0.000000,4249.102539,4339.615234,4255.128418,4317.179688,4347.179688,4359.615234,4238.077148,4572.436035,4546.666504,4556.538574,4502.436035,5568.974121,4223.846191,4265.000000,0.000000,1.000000,18.000000,,,,0.000000,0.000000,0.000000,0.000000,0.000000,0.000000,0.000000,0.000000,0.000000,0.000000,0.000000,0.000000,0.000000,0.000000,0.000000,0.000000,,,,,,,,,,,,,,,,,,,,,,,,,,,,,,,,,,,,,,,,,,,,,,,,,,,,,,,,,,,,,,,,,,,,
1747914417.333466,1747914417.333946,139.000000,0.000000,4236.282227,4334.743652,4257.307617,4318.974121,4349.358887,4362.692383,4244.230957,4570.384766,4545.769043,4555.512695,4498.333496,5564.230957,4215.128418,4257.820313,0.000000,1.000000,18.000000,,,,0.000000,0.000000,0.000000,0.000000,0.000000,0.000000,0.000000,0.000000,0.000000,0.000000,0.000000,0.000000,0.000000,0.000000,0.000000,0.000000,,,,,,,,,,,,,,,,,,,,,,,,,,,,,,,,,,,,,,,,,,,,,,,,,,,,,,,,,,,,,,,,,,,,
1747914417.337370,1747914417.337850,140.000000,0.000000,4237.051270,4336.282227,4258.077148,4319.358887,4348.717773,4358.461426,4245.769043,4567.563965,4545.641113,4556.794922,4500.384766,5565.769043,4216.794922,4261.922852,0.000000,1.000000,18.000000,,,,0.000000,0.000000,0.000000,0.000000,0.000000,0.000000,0.000000,0.000000,0.000000,0.000000,0.000000,0.000000,0.000000,0.000000,0.000000,0.000000,,,,,,,,,,,,,,,,,,,,,,,,,,,,,,,,,,,,,,,,,,,,,,,,,,,,,,,,,,,,,,,,,,,,
1747914417.341274,1747914417.341655,141.000000,0.000000,4245.384766,4341.666504,4257.051270,4317.820313,4346.922852,4350.769043,4242.563965,4566.025879,4546.153809,4559.615234,4507.179688,5572.436035,4225.384766,4272.436035,0.000000,1.000000,18.000000,,,,0.000000,0.000000,0.000000,0.000000,0.000000,0.000000,0.000000,0.000000,0.000000,0.000000,0.000000,0.000000,0.000000,0.000000,0.000000,0.000000,,,,,,,,,,,,,,,,,,,,,,,,,,,,,,,,,,,,,,,,,,,,,,,,,,,,,,,,,,,,,,,,,,,,
1747914417.345178,1747914417.345559,142.000000,0.000000,4246.410156,4344.102539,4255.256348,4316.538574,4347.051270,4348.717773,4245.897461,4566.410156,4546.282227,4561.666504,4511.025879,5575.256348,4227.179688,4275.128418,0.000000,1.000000,18.000000,,,,0.000000,0.000000,0.000000,0.000000,0.000000,0.000000,0.000000,0.000000,0.000000,0.000000,0.000000,0.000000,0.000000,0.000000,0.000000,0.000000,,,,,,,,,,,,,,,,,,,,,,,,,,,,,,,,,,,,,,,,,,,,,,,,,,,,,,,,,,,,,,,0.000000,0.000000,1.000000,0.000000,2048.000000,0.000786
1747914417.349082,1747914417.349463,143.000000,0.000000,4236.410156,4341.538574,4254.358887,4317.179688,4349.743652,4355.000000,4257.948730,4567.436035,4545.384766,4561.538574,4507.307617,5569.487305,4217.820313,4266.153809,0.000000,1.000000,18.000000,,,,0.000000,0.000000,0.000000,0.000000,0.000000,0.000000,0.000000,0.000000,0.000000,0.000000,0.000000,0.000000,0.000000,0.000000,0.000000,0.000000,,,,,,,,,,,,,,,,,,,,,,,,,,,,,,,,,,,,,,,,,,,,,,,,,,,,,,,,,,,,,,,,,,,,
1747914417.352986,1747914417.353467,144.000000,0.000000,4228.333496,4338.974121,4255.000000,4318.974121,4352.179688,4362.051270,4264.871582,4568.205078,4544.743652,4560.256348,4500.384766,5561.410156,4209.102539,4256.538574,0.000000,1.000000,18.000000,,,,0.000000,0.000000,0.000000,0.000000,0.000000,0.000000,0.000000,0.000000,0.000000,0.000000,0.000000,0.000000,0.000000,0.000000,0.000000,0.000000,,,,,,,,,,,,,,,,,18.000000,0.000000,0.726522,-0.681763,0.062195,0.059143,-0.169943,-0.984984,0.068368,0.435759,-16.535126,34.970181,,,,,,,,,,,,,,,,,,,,,,,,,,,,,,,,,,,,,,,,
1747914417.356890,1747914417.357371,145.000000,0.000000,4236.922852,4341.153809,4256.410156,4319.102539,4351.410156,4361.666504,4257.307617,4569.102539,4545.384766,4560.000000,4498.205078,5561.025879,4214.615234,4258.077148,0.000000,1.000000,18.000000,,,,0.000000,0.000000,0.000000,0.000000,0.000000,0.000000,0.000000,0.000000,0.000000,0.000000,0.000000,0.000000,0.000000,0.000000,0.000000,0.000000,,,,,,,,,,,,,,,,,,,,,,,,,,,,,,,,,,,,,,,,,,,,,,,,,,,,,,,,,,,,,,,,,,,,
1747914417.360794,1747914417.361275,146.000000,0.000000,4256.153809,4345.512695,4257.563965,4316.666504,4347.948730,4355.128418,4241.410156,4570.897461,4546.666504,4561.282227,4501.794922,5568.461426,4229.358887,4267.948730,0.000000,1.000000,18.000000,,,,0.000000,0.000000,0.000000,0.000000,0.000000,0.000000,0.000000,0.000000,0.000000,0.000000,0.000000,0.000000,0.000000,0.000000,0.000000,0.000000,,,,,,,,,,,,,,,,,,,,,,,,,,,,,,,,,,,,,,,,,,,,,,,,,,,,,,,,,,,,,,,,,,,,
1747914417.364698,1747914417.365179,147.000000,0.000000,4265.512695,4345.512695,4257.179688,4314.102539,4345.769043,4351.153809,4235.512695,4573.077148,4547.051270,4561.922852,4505.000000,5574.230957,4238.333496,4272.563965,0.000000,1.000000,18.000000,,,,0.000000,0.000000,0.000000,0.000000,0.000000,0.000000,0.000000,0.000000,0.000000,0.000000,0.000000,0.000000,0.000000,0.000000,0.000000,0.000000,,,,,,,,,,,,,,,,,,,,,,,,,,,,,,,,,,,,,,,,,,,,,,,,,,,,,,,,,,,,,,,,,,,,
1747914417.368602,1747914417.368983,148.000000,0.000000,4255.128418,4339.615234,4255.641113,4313.589844,4347.436035,4354.358887,4249.230957,4574.230957,4545.897461,4560.512695,4502.820313,5570.897461,4232.179688,4265.512695,0.000000,1.000000,18.000000,,,,0.000000,0.000000,0.000000,0.000000,0.000000,0.000000,0.000000,0.000000,0.000000,0.000000,0.000000,0.000000,0.000000,0.000000,0.000000,0.000000,,,,,,,,,,,,,,,,,,,,,,,,,,,,,,,,,,,,,,,,,,,,,,,,,,,,,,,,,,,,,,,,,,,,
1747914417.372506,1747914417.372887,149.000000,0.000000,4236.922852,4334.230957,4253.846191,4315.512695,4350.769043,4359.230957,4269.487305,4573.333496,4544.230957,4558.717773,4498.589844,5562.948730,4218.846191,4256.282227,0.000000,1.000000,18.000000,,,,0.000000,0.000000,0.000000,0.000000,0.000000,0.000000,0.000000,0.000000,0.000000,0.000000,0.000000,0.000000,0.000000,0.000000,0.000000,0.000000,,,,,,,,,,,,,,,,,,,,,,,,,,,,,,,,,,,,,,,,,,,,,,,,,,,,,,,,,,,,,,,,,,,,
1747914417.376410,1747914417.376792,150.000000,0.000000,4229.743652,4336.153809,4252.563965,4317.436035,4351.666504,4358.077148,4276.666504,4571.282227,4544.102539,4559.102539,4499.102539,5560.769043,4215.128418,4257.563965,0.000000,1.000000,18.000000,,,,0.000000,0.000000,0.000000,0.000000,0.000000,0.000000,0.000000,0.000000,0.000000,0.000000,0.000000,0.000000,0.000000,0.000000,0.000000,0.000000,,,,,,,,,,,,,,,,,,,,,,,,,,,,,,,,,,,,,,,,,,,,,,,,,,,,,,,,,,,,,,,0.000000,0.000000,1.000000,0.000000,2048.000000,0.000786
1747914417.380314,1747914417.380796,151.000000,0.000000,4236.538574,4342.948730,4252.307617,4317.820313,4349.230957,4352.051270,4266.153809,4569.358887,4545.897461,4562.051270,4505.256348,5567.051270,4223.077148,4268.589844,0.000000,1.000000,18.000000,,,,0.000000,0.000000,0.000000,0.000000,0.000000,0.000000,0.000000,0.000000,0.000000,0.000000,0.000000,0.000000,0.000000,0.000000,0.000000,0.000000,,,,,,,,,,,,,,,,,,,,,,,,,,,,,,,,,,,,,,,,,,,,,,,,,,,,,,,,,,,,,,,,,,,,
1747914417.384219,1747914417.384700,152.000000,0.000000,4244.487305,4345.256348,4253.077148,4317.692383,4346.538574,4349.743652,4251.794922,4568.589844,4547.692383,4564.743652,4510.384766,5574.102539,4230.256348,4276.153809,0.000000,1.000000,18.000000,,,,0.000000,0.000000,0.000000,0.000000,0.000000,0.000000,0.000000,0.000000,0.000000,0.000000,0.000000,0.000000,0.000000,0.000000,0.000000,0.000000,,,,,,,,,,,,,,,,,19.000000,0.000000,0.726464,-0.681824,0.062195,0.059143,-0.178244,-0.991820,0.063973,0.358850,-16.414946,34.806496,,,,,,,,,,,,,,,,,,,,,,,,,,,,,,,,,,,,,,,,
1747914417.388122,1747914417.388604,153.000000,0.000000,4243.205078,4338.846191,4254.743652,4318.717773,4346.794922,4356.153809,4247.179688,4568.717773,4547.948730,4564.358887,4508.846191,5573.333496,4226.153809,4271.153809,0.000000,1.000000,18.000000,,,,0.000000,0.000000,0.000000,0.000000,0.000000,0.000000,0.000000,0.000000,0.000000,0.000000,0.000000,0.000000,0.000000,0.000000,0.000000,0.000000,,,,,,,,,,,,,,,,,,,,,,,,,,,,,,,,,,,,,,,,,,,,,,,,,,,,,,,,,,,,,,,,,,,,
1747914417.392027,1747914417.392508,154.000000,0.000000,4238.205078,4330.000000,4256.666504,4320.769043,4349.358887,4364.871582,4247.436035,4569.230957,4546.666504,4561.153809,4502.948730,5567.436035,4215.000000,4261.153809,0.000000,1.000000,18.000000,,,,0.000000,0.000000,0.000000,0.000000,0.000000,0.000000,0.000000,0.000000,0.000000,0.000000,0.000000,0.000000,0.000000,0.000000,0.000000,0.000000,,,,,,,,,,,,,,,,,,,,,,,,,,,,,,,,,,,,,,,,,,,,,,,,,,,,,,,,,,,,,,,,,,,,
1747914417.395931,1747914417.396412,155.000000,0.000000,4242.307617,4328.205078,4258.333496,4321.922852,4351.025879,4365.769043,4244.230957,4569.743652,4546.025879,4557.948730,4500.000000,5565.512695,4212.179688,4259.102539,0.000000,1.000000,18.000000,,,,0.000000,0.000000,0.000000,0.000000,0.000000,0.000000,0.000000,0.000000,0.000000,0.000000,0.000000,0.000000,0.000000,0.000000,0.000000,0.000000,,,,,,,,,,,,,,,,,,,,,,,,,,,,,,,,,,,,,,,,,,,,,,,,,,,,,,,,,,,,,,,,,,,,
1747914417.399835,1747914417.400216,156.000000,0.000000,4255.256348,4334.487305,4258.589844,4320.769043,4350.000000,4357.948730,4236.025879,4570.128418,4546.922852,4557.179688,4502.948730,5571.153809,4221.025879,4267.179688,0.000000,1.000000,18.000000,,,,0.000000,0.000000,0.000000,0.000000,0.000000,0.000000,0.000000,0.000000,0.000000,0.000000,0.000000,0.000000,0.000000,0.000000,0.000000,0.000000,,,,,,,,,,,,,,,,,,,,,,,,,,,,,,,,,,,,,,,,,,,,,,,,,,,,,,,,,,,,,,,,,,,,
1747914417.403739,1747914417.404120,157.000000,0.000000,4261.922852,4340.897461,4256.922852,4318.974121,4348.589844,4350.769043,4234.358887,4570.000000,4547.948730,4558.461426,4506.922852,5576.922852,4229.615234,4273.333496,0.000000,1.000000,18.000000,,,,0.000000,0.000000,0.000000,0.000000,0.000000,0.000000,0.000000,0.000000,0.000000,0.000000,0.000000,0.000000,0.000000,0.000000,0.000000,0.000000,,,,,,,,,,,,,,,,,,,,,,,,,,,,,,,,,,,,,,,,,,,,,,,,,,,,,,,,,,,,,,,,,,,,
1747914417.407643,1747914417.408024,158.000000,0.000000,4252.563965,4340.512695,4254.615234,4318.846191,4348.846191,4352.436035,4251.666504,4568.846191,4546.794922,4559.871582,4506.025879,5574.358887,4226.794922,4268.077148,0.000000,1.000000,18.000000,,,,0.000000,0.000000,0.000000,0.000000,0.000000,0.000000,0.000000,0.000000,0.000000,0.000000,0.000000,0.000000,0.000000,0.000000,0.000000,0.000000,,,,,,,,,,,,,,,,,,,,,,,,,,,,,,,,,,,,,,,,,,,,,,,,,,,,,,,,,,,,,,,0.000000,0.000000,1.000000,0.000000,2048.000000,0.000786
1747914417.411547,1747914417.411928,159.000000,0.000000,4236.282227,4335.769043,4253.461426,4320.384766,4350.512695,4359.743652,4277.948730,4567.051270,4543.717773,4560.512695,4501.538574,5565.384766,4214.871582,4257.307617,0.000000,1.000000,18.000000,,,,0.000000,0.000000,0.000000,0.000000,0.000000,0.000000,0.000000,0.000000,0.000000,0.000000,0.000000,0.000000,0.000000,0.000000,0.000000,0.000000,,,,,,,,,,,,,,,,,,,,,,,,,,,,,,,,,,,,,,,,,,,,,,,,,,,,,,,,,,,,,,,,,,,,
1747914417.415451,1747914417.415733,160.000000,0.000000,4231.025879,4334.230957,4254.102539,4321.410156,4350.641113,4362.692383,4290.384766,4565.769043,4541.538574,4560.897461,4499.615234,5560.641113,4208.846191,4254.358887,0.000000,1.000000,18.000000,,,,0.000000,0.000000,0.000000,0.000000,0.000000,0.000000,0.000000,0.000000,0.000000,0.000000,0.000000,0.000000,0.000000,0.000000,0.000000,0.000000,,,,,,,,,,,,,,,,,20.000000,0.000000,0.726516,-0.681763,0.062317,0.059082,-0.170431,-0.983518,0.062508,0.456298,-16.423452,34.792515,,,,,,,,,,,,,,,,,,,,,,,,,,,,,,,,,,,,,,,,
1747914417.419355,1747914417.419637,161.000000,0.000000,4241.025879,4338.077148,4255.384766,4319.743652,4348.589844,4357.563965,4280.512695,4566.025879,4542.820313,4561.282227,4503.077148,5566.025879,4215.384766,4263.205078,0.000000,1.000000,18.000000,,,,0.000000,0.000000,0.000000,0.000000,0.000000,0.000000,0.000000,0.000000,0.000000,0.000000,0.000000,0.000000,0.000000,0.000000,0.000000,0.000000,,,,,,,,,,,,,,,,,,,,,,,,,,,,,,,,,,,,,,,,,,,,,,,,,,,,,,,,,,,,,,,,,,,,
1747914417.423259,1747914417.423541,162.000000,0.000000,4252.179688,4341.666504,4255.641113,4316.666504,4346.538574,4351.538574,4260.769043,4567.948730,4546.538574,4561.410156,4507.692383,5575.641113,4225.000000,4273.205078,0.000000,1.000000,18.000000,,,,0.000000,0.000000,0.000000,0.000000,0.000000,0.000000,0.000000,0.000000,0.000000,0.000000,0.000000,0.000000,0.000000,0.000000,0.000000,0.000000,,,,,,,,,,,,,,,,,,,,,,,,,,,,,,,,,,,,,,,,,,,,,,,,,,,,,,,,,,,,,,,,,,,,
1747914417.427163,1747914417.427545,163.000000,0.000000,4249.871582,4339.102539,4254.102539,4314.743652,4347.436035,4352.948730,4246.666504,4569.871582,4549.358887,4561.410156,4507.563965,5578.333496,4226.410156,4272.692383,0.000000,1.000000,18.000000,,,,0.000000,0.000000,0.000000,0.000000,0.000000,0.000000,0.000000,0.000000,0.000000,0.000000,0.000000,0.000000,0.000000,0.000000,0.000000,0.000000,,,,,,,,,,,,,,,,,,,,,,,,,,,,,,,,,,,,,,,,,,,,,,,,,,,,,,,,,,,,,,,,,,,,
1747914417.431067,1747914417.431449,164.000000,0.000000,4236.794922,4332.948730,4252.307617,4315.000000,4350.641113,4360.000000,4237.948730,4570.512695,4549.230957,4561.794922,4502.948730,5572.179688,4218.717773,4264.358887,0.000000,1.000000,18.000000,,,,0.000000,0.000000,0.000000,0.000000,0.000000,0.000000,0.000000,0.000000,0.000000,0.000000,0.000000,0.000000,0.000000,0.000000,0.000000,0.000000,,,,,,,,,,,,,,,,,,,,,,,,,,,,,,,,,,,,,,,,,,,,,,,,,,,,,,,,,,,,,,,,,,,,
1747914417.434971,1747914417.435353,165.000000,0.000000,4230.512695,4331.410156,4251.666504,4315.641113,4352.820313,4363.717773,4229.487305,4569.615234,4547.051270,4563.077148,4500.128418,5565.769043,4213.589844,4260.641113,0.000000,1.000000,18.000000,,,,0.000000,0.000000,0.000000,0.000000,0.000000,0.000000,0.000000,0.000000,0.000000,0.000000,0.000000,0.000000,0.000000,0.000000,0.000000,0.000000,,,,,,,,,,,,,,,,,,,,,,,,,,,,,,,,,,,,,,,,,,,,,,,,,,,,,,,,,,,,,,,,,,,,
1747914417.438875,1747914417.439257,166.000000,0.000000,4240.256348,4337.051270,4252.820313,4314.871582,4351.666504,4359.743652,4222.563965,4568.589844,4545.256348,4564.615234,4502.563965,5566.410156,4218.717773,4267.307617,0.000000,1.000000,18.000000,,,,0.000000,0.000000,0.000000,0.000000,0.000000,0.000000,0.000000,0.000000,0.000000,0.000000,0.000000,0.000000,0.000000,0.000000,0.000000,0.000000,,,,,,,,,,,,,,,,,,,,,,,,,,,,,,,,,,,,,,,,,,,,,,,,,,,,,,,,,,,,1.000000,0.000000,0.000000,0.000000,0.000000,1.000000,0.000000,2048.000000,0.002960
1747914417.442779,1747914417.443261,167.000000,0.000000,4254.487305,4343.717773,4254.871582,4313.205078,4349.102539,4354.102539,4227.820313,4568.717773,4545.128418,4564.102539,4506.410156,5571.282227,4226.410156,4275.897461,0.000000,1.000000,18.000000,,,,0.000000,0.000000,0.000000,0.000000,0.000000,0.000000,0.000000,0.000000,0.000000,0.000000,0.000000,0.000000,0.000000,0.000000,0.000000,0.000000,,,,,,,,,,,,,,,,,,,,,,,,,,,,,,,,,,,,,,,,,,,,,,,,,,,,,,,,,,,,,,,,,,,,
1747914417.446683,1747914417.447165,168.000000,0.000000,4257.179688,4343.589844,4255.897461,4313.077148,4348.205078,4354.871582,4256.410156,4569.615234,4545.512695,4561.153809,4505.769043,5572.051270,4226.666504,4275.128418,0.000000,1.000000,18.000000,,,,0.000000,0.000000,0.000000,0.000000,0.000000,0.000000,0.000000,0.000000,0.000000,0.000000,0.000000,0.000000,0.000000,0.000000,0.000000,0.000000,,,,,,,,,,,,,,,,,21.000000,0.000000,0.726568,-0.681702,0.062317,0.059143,-0.170919,-0.974240,0.062996,0.544002,-16.297773,34.529930,,,,,,,,,,,,,,,,,,,,,,,,,,,,,,,,,,,,,,,,
1747914417.450587,1747914417.451069,169.000000,0.000000,4247.051270,4337.692383,4255.512695,4315.384766,4349.871582,4361.282227,4295.384766,4570.512695,4545.512695,4557.948730,4500.897461,5567.051270,4218.589844,4266.025879,0.000000,1.000000,18.000000,,,,0.000000,0.000000,0.000000,0.000000,0.000000,0.000000,0.000000,0.000000,0.000000,0.000000,0.000000,0.000000,0.000000,0.000000,0.000000,0.000000,,,,,,,,,,,,,,,,,,,,,,,,,,,,,,,,,,,,,,,,,,,,,,,,,,,,,,,,,,,,,,,,,,,,
1747914417.454491,1747914417.454974,170.000000,0.000000,4238.846191,4333.974121,4254.487305,4317.948730,4351.538574,4365.000000,4314.615234,4570.897461,4545.384766,4557.692383,4498.205078,5563.589844,4213.205078,4260.512695,0.000000,1.000000,18.000000,,,,0.000000,0.000000,0.000000,0.000000,0.000000,0.000000,0.000000,0.000000,0.000000,0.000000,0.000000,0.000000,0.000000,0.000000,0.000000,0.000000,,,,,,,,,,,,,,,,,,,,,,,,,,,,,,,,,,,,,,,,,,,,,,,,,,,,,,,,,,,,,,,,,,,,
1747914417.458395,1747914417.458878,171.000000,0.000000,4243.589844,4336.922852,4253.846191,4318.461426,4350.512695,4360.641113,4298.589844,4570.897461,4545.897461,4561.025879,4501.922852,5567.436035,4219.230957,4265.641113,0.000000,1.000000,18.000000,,,,0.000000,0.000000,0.000000,0.000000,0.000000,0.000000,0.000000,0.000000,0.000000,0.000000,0.000000,0.000000,0.000000,0.000000,0.000000,0.000000,,,,,,,,,,,,,,,,,,,,,,,,,,,,,,,,,,,,,,,,,,,,,,,,,,,,,,,,,,,,,,,,,,,,
1747914417.462299,1747914417.462782,172.000000,0.000000,4254.358887,4342.307617,4253.846191,4316.922852,4348.077148,4353.589844,4261.153809,4570.769043,4547.051270,4565.128418,4507.948730,5574.358887,4228.333496,4274.102539,0.000000,1.000000,18.000000,,,,0.000000,0.000000,0.000000,0.000000,0.000000,0.000000,0.000000,0.000000,0.000000,0.000000,0.000000,0.000000,0.000000,0.000000,0.000000,0.000000,,,,,,,,,,,,,,,,,,,,,,,,,,,,,,,,,,,,,,,,,,,,,,,,,,,,,,,,,,,,,,,,,,,,
1747914417.466203,1747914417.466686,173.000000,0.000000,4257.179688,4342.692383,4253.846191,4315.769043,4347.051270,4352.179688,4230.512695,4570.256348,4547.436035,4566.410156,4508.846191,5574.871582,4228.589844,4274.102539,0.000000,1.000000,18.000000,,,,0.000000,0.000000,0.000000,0.000000,0.000000,0.000000,0.000000,0.000000,0.000000,0.000000,0.000000,0.000000,0.000000,0.000000,0.000000,0.000000,,,,,,,,,,,,,,,,,,,,,,,,,,,,,,,,,,,,,,,,,,,,,,,,,,,,,,,,,,,,,,,,,,,,
1747914417.470107,1747914417.470590,174.000000,0.000000,4248.461426,4337.820313,4253.077148,4316.282227,4348.205078,4357.563965,4219.743652,4569.230957,4547.051270,4563.589844,4503.461426,5567.948730,4218.461426,4264.743652,0.000000,1.000000,18.000000,,,,0.000000,0.000000,0.000000,0.000000,0.000000,0.000000,0.000000,0.000000,0.000000,0.000000,0.000000,0.000000,0.000000,0.000000,0.000000,0.000000,,,,,,,,,,,,,,,,,,,,,,,,,,,,,,,,,,,,,,,,,,,,,,,,,,,,,,,,,,,,,,,0.000000,0.000000,1.000000,0.000000,2048.000000,0.002960
1747914417.474012,1747914417.474394,175.000000,0.000000,4239.615234,4334.230957,4252.051270,4316.922852,4349.615234,4361.666504,4222.179688,4568.205078,4546.666504,4559.358887,4498.461426,5562.563965,4209.743652,4257.820313,0.000000,1.000000,18.000000,,,,0.000000,0.000000,0.000000,0.000000,0.000000,0.000000,0.000000,0.000000,0.000000,0.000000,0.000000,0.000000,0.000000,0.000000,0.000000,0.000000,,,,,,,,,,,,,,,,,,,,,,,,,,,,,,,,,,,,,,,,,,,,,,,,,,,,,,,,,,,,,,,,,,,,
1747914417.477916,1747914417.478298,176.000000,0.000000,4241.922852,4336.410156,4251.410156,4316.153809,4349.230957,4358.333496,4227.051270,4568.205078,4547.692383,4557.051270,4500.641113,5566.538574,4213.974121,4262.436035,0.000000,1.000000,18.000000,,,,0.000000,0.000000,0.000000,0.000000,0.000000,0.000000,0.000000,0.000000,0.000000,0.000000,0.000000,0.000000,0.000000,0.000000,0.000000,0.000000,,,,,,,,,,,,,,,,,22.000000,0.000000,0.726563,-0.681702,0.062378,0.059143,-0.173849,-0.985960,0.062996,0.456268,-16.251329,34.443604,,,,,,,,,,,,,,,,,,,,,,,,,,,,,,,,,,,,,,,,
1747914417.481820,1747914417.482202,177.000000,0.000000,4250.000000,4341.410156,4251.794922,4314.615234,4347.948730,4351.538574,4233.333496,4569.358887,4549.358887,4557.563965,4508.077148,5576.153809,4223.717773,4272.692383,0.000000,1.000000,18.000000,,,,0.000000,0.000000,0.000000,0.000000,0.000000,0.000000,0.000000,0.000000,0.000000,0.000000,0.000000,0.000000,0.000000,0.000000,0.000000,0.000000,,,,,,,,,,,,,,,,,,,,,,,,,,,,,,,,,,,,,,,,,,,,,,,,,,,,,,,,,,,,,,,,,,,,
1747914417.485724,1747914417.486106,178.000000,0.000000,4250.128418,4342.436035,4252.692383,4314.358887,4347.820313,4350.641113,4250.512695,4570.769043,4549.615234,4559.358887,4512.692383,5579.615234,4225.128418,4275.384766,0.000000,1.000000,18.000000,,,,0.000000,0.000000,0.000000,0.000000,0.000000,0.000000,0.000000,0.000000,0.000000,0.000000,0.000000,0.000000,0.000000,0.000000,0.000000,0.000000,,,,,,,,,,,,,,,,,,,,,,,,,,,,,,,,,,,,,,,,,,,,,,,,,,,,,,,,,,,,,,,,,,,,
1747914417.489628,1747914417.489911,179.000000,0.000000,4239.358887,4338.589844,4253.846191,4316.410156,4349.743652,4357.948730,4275.641113,4570.897461,4547.692383,4560.769043,4509.743652,5572.179688,4215.512695,4267.179688,0.000000,1.000000,18.000000,,,,0.000000,0.000000,0.000000,0.000000,0.000000,0.000000,0.000000,0.000000,0.000000,0.000000,0.000000,0.000000,0.000000,0.000000,0.000000,0.000000,,,,,,,,,,,,,,,,,,,,,,,,,,,,,,,,,,,,,,,,,,,,,,,,,,,,,,,,,,,,,,,,,,,,
1747914417.493532,1747914417.493815,180.000000,0.000000,4230.384766,4335.897461,4254.743652,4318.589844,4351.666504,4365.641113,4288.846191,4569.871582,4545.897461,4561.153809,4503.333496,5562.307617,4206.922852,4258.717773,0.000000,1.000000,18.000000,,,,0.000000,0.000000,0.000000,0.000000,0.000000,0.000000,0.000000,0.000000,0.000000,0.000000,0.000000,0.000000,0.000000,0.000000,0.000000,0.000000,,,,,,,,,,,,,,,,,,,,,,,,,,,,,,,,,,,,,,,,,,,,,,,,,,,,,,,,,,,,,,,,,,,,
1747914417.497436,1747914417.497719,181.000000,0.000000,4235.128418,4338.846191,4254.871582,4318.333496,4351.666504,4364.743652,4278.461426,4568.717773,4546.410156,4561.538574,4500.641113,5561.282227,4212.692383,4261.025879,0.000000,1.000000,18.000000,,,,0.000000,0.000000,0.000000,0.000000,0.000000,0.000000,0.000000,0.000000,0.000000,0.000000,0.000000,0.000000,0.000000,0.000000,0.000000,0.000000,,,,,,,,,,,,,,,,,,,,,,,,,,,,,,,,,,,,,,,,,,,,,,,,,,,,,,,,,,,,,,,,,,,,
1747914417.501340,1747914417.501723,182.000000,0.000000,4248.077148,4343.974121,4254.615234,4315.897461,4349.743652,4356.153809,4254.871582,4568.589844,4549.230957,4561.666504,4502.563965,5569.230957,4226.410156,4270.897461,0.000000,1.000000,18.000000,,,,0.000000,0.000000,0.000000,0.000000,0.000000,0.000000,0.000000,0.000000,0.000000,0.000000,0.000000,0.000000,0.000000,0.000000,0.000000,0.000000,,,,,,,,,,,,,,,,,,,,,,,,,,,,,,,,,,,,,,,,,,,,,,,,,,,,,,,,,,,,,,,0.000000,0.000000,1.000000,0.000000,2048.000000,0.002960
1747914417.505244,1747914417.505627,183.000000,0.000000,4253.461426,4344.487305,4254.230957,4314.230957,4348.717773,4349.487305,4240.000000,4569.230957,4551.922852,4560.512695,4504.230957,5575.384766,4233.333496,4275.641113,0.000000,1.000000,18.000000,,,,0.000000,0.000000,0.000000,0.000000,0.000000,0.000000,0.000000,0.000000,0.000000,0.000000,0.000000,0.000000,0.000000,0.000000,0.000000,0.000000,,,,,,,,,,,,,,,,,,,,,,,,,,,,,,,,,,,,,,,,,,,,,,,,,,,,,,,,,,,,,,,,,,,,
1747914417.509148,1747914417.509531,184.000000,0.000000,4245.641113,4339.358887,4254.230957,4315.384766,4349.871582,4351.153809,4243.974121,4569.743652,4551.794922,4557.948730,4502.179688,5572.692383,4226.153809,4269.743652,0.000000,1.000000,18.000000,,,,0.000000,0.000000,0.000000,0.000000,0.000000,0.000000,0.000000,0.000000,0.000000,0.000000,0.000000,0.000000,0.000000,0.000000,0.000000,0.000000,,,,,,,,,,,,,,,,,23.000000,0.000000,0.726506,-0.681763,0.062317,0.059204,-0.171408,-0.984495,0.082530,0.393975,-16.276196,34.465908,,,,,,,,,,,,,,,,,,,,,,,,,,,,,,,,,,,,,,,,
1747914417.513052,1747914417.513435,185.000000,0.000000,4235.897461,4334.871582,4254.615234,4318.205078,4351.922852,4357.436035,4256.794922,4569.871582,4549.487305,4555.641113,4500.000000,5566.282227,4213.846191,4261.922852,0.000000,1.000000,18.000000,,,,0.000000,0.000000,0.000000,0.000000,0.000000,0.000000,0.000000,0.000000,0.000000,0.000000,0.000000,0.000000,0.000000,0.000000,0.000000,0.000000,,,,,,,,,,,,,,,,,,,,,,,,,,,,,,,,,,,,,,,,,,,,,,,,,,,,,,,,,,,,,,,,,,,,
1747914417.516956,1747914417.517439,186.000000,0.000000,4238.717773,4336.410156,4255.128418,4319.358887,4352.436035,4359.871582,4262.820313,4570.128418,4547.436035,4555.512695,4502.563965,5565.897461,4212.948730,4263.205078,0.000000,1.000000,18.000000,,,,0.000000,0.000000,0.000000,0.000000,0.000000,0.000000,0.000000,0.000000,0.000000,0.000000,0.000000,0.000000,0.000000,0.000000,0.000000,0.000000,,,,,,,,,,,,,,,,,,,,,,,,,,,,,,,,,,,,,,,,,,,,,,,,,,,,,,,,,,,,,,,,,,,,
1747914417.520860,1747914417.521343,187.000000,0.000000,4251.282227,4341.538574,4255.000000,4317.563965,4350.897461,4356.794922,4256.410156,4571.025879,4547.179688,4557.179688,4508.717773,5572.563965,4223.589844,4271.794922,0.000000,1.000000,18.000000,,,,0.000000,0.000000,0.000000,0.000000,0.000000,0.000000,0.000000,0.000000,0.000000,0.000000,0.000000,0.000000,0.000000,0.000000,0.000000,0.000000,,,,,,,,,,,,,,,,,,,,,,,,,,,,,,,,,,,,,,,,,,,,,,,,,,,,,,,,,,,,,,,,,,,,
1747914417.524764,1747914417.525247,188.000000,0.000000,4257.307617,4343.077148,4254.230957,4314.743652,4349.230957,4354.102539,4249.230957,4571.922852,4547.820313,4558.846191,4511.410156,5577.436035,4232.179688,4275.128418,0.000000,1.000000,18.000000,,,,0.000000,0.000000,0.000000,0.000000,0.000000,0.000000,0.000000,0.000000,0.000000,0.000000,0.000000,0.000000,0.000000,0.000000,0.000000,0.000000,,,,,,,,,,,,,,,,,,,,,,,,,,,,,,,,,,,,,,,,,,,,,,,,,,,,,,,,,,,,,,,,,,,,
1747914417.528668,1747914417.529151,189.000000,0.000000,4249.102539,4338.974121,4253.589844,4313.974121,4349.358887,4356.410156,4252.307617,4571.410156,4547.692383,4558.717773,4506.794922,5573.717773,4228.717773,4267.051270,0.000000,1.000000,18.000000,,,,0.000000,0.000000,0.000000,0.000000,0.000000,0.000000,0.000000,0.000000,0.000000,0.000000,0.000000,0.000000,0.000000,0.000000,0.000000,0.000000,,,,,,,,,,,,,,,,,,,,,,,,,,,,,,,,,,,,,,,,,,,,,,,,,,,,,,,,,,,,,,,,,,,,
1747914417.532572,1747914417.533155,190.000000,0.000000,4237.051270,4334.615234,4253.717773,4315.384766,4350.512695,4360.384766,4257.307617,4569.743652,4546.538574,4556.922852,4500.000000,5565.897461,4217.820313,4256.794922,0.000000,1.000000,18.000000,,,,0.000000,0.000000,0.000000,0.000000,0.000000,0.000000,0.000000,0.000000,0.000000,0.000000,0.000000,0.000000,0.000000,0.000000,0.000000,0.000000,,,,,,,,,,,,,,,,,,,,,,,,,,,,,,,,,,,,,,,,,,,,,,,,,,,,,,,,,,,,,,,0.000000,0.000000,1.000000,0.000000,2048.000000,0.002960
1747914417.536476,1747914417.537060,191.000000,0.000000,4236.922852,4335.512695,4254.743652,4317.179688,4351.153809,4359.102539,4253.333496,4568.461426,4545.641113,4555.256348,4498.974121,5563.846191,4212.948730,4257.948730,0.000000,1.000000,18.000000,,,,0.000000,0.000000,0.000000,0.000000,0.000000,0.000000,0.000000,0.000000,0.000000,0.000000,0.000000,0.000000,0.000000,0.000000,0.000000,0.000000,,,,,,,,,,,,,,,,,,,,,,,,,,,,,,,,,,,,,,,,,,,,,,,,,,,,,,,,,,,,,,,,,,,,
1747914417.540380,1747914417.540964,192.000000,0.000000,4247.563965,4340.256348,4255.769043,4317.307617,4350.512695,4352.563965,4242.948730,4569.230957,4545.769043,4554.871582,4504.615234,5570.000000,4215.512695,4270.128418,0.000000,1.000000,18.000000,,,,0.000000,0.000000,0.000000,0.000000,0.000000,0.000000,0.000000,0.000000,0.000000,0.000000,0.000000,0.000000,0.000000,0.000000,0.000000,0.000000,,,,,,,,,,,,,,,,,24.000000,0.000000,0.726506,-0.681763,0.062317,0.059204,-0.171896,-0.987914,0.062508,0.254577,-16.115244,34.485985,,,,,,,,,,,,,,,,,,,,,,,,,,,,,,,,,,,,,,,,
1747914417.544284,1747914417.544868,193.000000,0.000000,4253.717773,4342.436035,4256.153809,4316.282227,4349.743652,4348.205078,4241.153809,4571.538574,4546.922852,4555.769043,4509.743652,5575.769043,4216.794922,4279.230957,0.000000,1.000000,18.000000,,,,0.000000,0.000000,0.000000,0.000000,0.000000,0.000000,0.000000,0.000000,0.000000,0.000000,0.000000,0.000000,0.000000,0.000000,0.000000,0.000000,,,,,,,,,,,,,,,,,,,,,,,,,,,,,,,,,,,,,,,,,,,,,,,,,,,,,,,,,,,,,,,,,,,,
1747914417.548188,1747914417.548672,194.000000,0.000000,4245.000000,4339.358887,4255.897461,4315.641113,4349.743652,4351.794922,4255.512695,4573.717773,4547.692383,4556.922852,4507.692383,5573.333496,4211.153809,4274.743652,0.000000,1.000000,18.000000,,,,0.000000,0.000000,0.000000,0.000000,0.000000,0.000000,0.000000,0.000000,0.000000,0.000000,0.000000,0.000000,0.000000,0.000000,0.000000,0.000000,,,,,,,,,,,,,,,,,,,,,,,,,,,,,,,,,,,,,,,,,,,,,,,,,,,,,,,,,,,,,,,,,,,,
1747914417.552092,1747914417.552576,195.000000,0.000000,4229.615234,4335.641113,4255.512695,4316.282227,4349.743652,4358.846191,4272.179688,4573.717773,4547.179688,4558.205078,4500.897461,5565.384766,4203.846191,4262.820313,0.000000,1.000000,18.000000,,,,0.000000,0.000000,0.000000,0.000000,0.000000,0.000000,0.000000,0.000000,0.000000,0.000000,0.000000,0.000000,0.000000,0.000000,0.000000,0.000000,,,,,,,,,,,,,,,,,,,,,,,,,,,,,,,,,,,,,,,,,,,,,,,,,,,,,,,,,,,,,,,,,,,,
1747914417.555997,1747914417.556480,196.000000,0.000000,4226.025879,4337.179688,4255.256348,4317.179688,4348.717773,4360.256348,4273.717773,4571.666504,4546.153809,4559.743652,4497.179688,5561.666504,4207.948730,4258.461426,0.000000,1.000000,18.000000,,,,0.000000,0.000000,0.000000,0.000000,0.000000,0.000000,0.000000,0.000000,0.000000,0.000000,0.000000,0.000000,0.000000,0.000000,0.000000,0.000000,,,,,,,,,,,,,,,,,,,,,,,,,,,,,,,,,,,,,,,,,,,,,,,,,,,,,,,,,,,,,,,,,,,,
1747914417.559901,1747914417.560384,197.000000,0.000000,4239.871582,4342.307617,4255.256348,4317.051270,4347.179688,4354.358887,4259.230957,4569.358887,4545.769043,4561.153809,4500.256348,5566.025879,4224.358887,4266.538574,0.000000,1.000000,18.000000,,,,0.000000,0.000000,0.000000,0.000000,0.000000,0.000000,0.000000,0.000000,0.000000,0.000000,0.000000,0.000000,0.000000,0.000000,0.000000,0.000000,,,,,,,,,,,,,,,,,,,,,,,,,,,,,,,,,,,,,,,,,,,,,,,,,,,,,,,,,,,,,,,,,,,,
1747914417.563805,1747914417.564189,198.000000,0.000000,4255.641113,4344.230957,4255.256348,4316.282227,4346.410156,4349.230957,4246.153809,4568.589844,4546.538574,4561.538574,4505.384766,5571.922852,4237.436035,4275.769043,0.000000,1.000000,18.000000,,,,0.000000,0.000000,0.000000,0.000000,0.000000,0.000000,0.000000,0.000000,0.000000,0.000000,0.000000,0.000000,0.000000,0.000000,0.000000,0.000000,,,,,,,,,,,,,,,,,,,,,,,,,,,,,,,,,,,,,,,,,,,,,,,,,,,,,,,,,,,,1.000000,0.000000,0.000000,0.000000,0.000000,1.000000,0.000000,2048.000000,0.000000
1747914417.567709,1747914417.568093,199.000000,0.000000,4256.666504,4339.230957,4255.384766,4315.897461,4347.692383,4352.563965,4249.358887,4569.102539,4547.692383,4561.025879,4505.769043,5571.666504,4235.000000,4274.487305,0.000000,1.000000,18.000000,,,,0.000000,0.000000,0.000000,0.000000,0.000000,0.000000,0.000000,0.000000,0.000000,0.000000,0.000000,0.000000,0.000000,0.000000,0.000000,0.000000,,,,,,,,,,,,,,,,,,,,,,,,,,,,,,,,,,,,,,,,,,,,,,,,,,,,,,,,,,,,,,,,,,,,
1747914417.571613,1747914417.571997,200.000000,0.000000,4245.256348,4332.948730,4255.512695,4316.282227,4349.871582,4361.410156,4260.128418,4569.743652,4548.205078,4560.897461,4501.538574,5566.153809,4222.307617,4265.128418,0.000000,1.000000,18.000000,,,,0.000000,0.000000,0.000000,0.000000,0.000000,0.000000,0.000000,0.000000,0.000000,0.000000,0.000000,0.000000,0.000000,0.000000,0.000000,0.000000,,,,,,,,,,,,,,,,,25.000000,0.000000,0.726454,-0.681824,0.062256,0.059204,-0.176291,-0.984007,0.060554,0.262453,-16.087053,34.454052,,,,,,,,,,,,,,,,,,,,,,,,,,,,,,,,,,,,,,,,
1747914417.575517,1747914417.575901,201.000000,0.000000,4236.282227,4332.948730,4255.384766,4316.794922,4350.512695,4365.384766,4261.538574,4570.000000,4547.820313,4562.307617,4499.358887,5564.358887,4215.000000,4260.769043,0.000000,1.000000,18.000000,,,,0.000000,0.000000,0.000000,0.000000,0.000000,0.000000,0.000000,0.000000,0.000000,0.000000,0.000000,0.000000,0.000000,0.000000,0.000000,0.000000,,,,,,,,,,,,,,,,,,,,,,,,,,,,,,,,,,,,,,,,,,,,,,,,,,,,,,,,,,,,,,,,,,,,
1747914417.579421,1747914417.579705,202.000000,0.000000,4236.282227,4339.358887,4254.487305,4316.666504,4349.358887,4360.256348,4249.102539,4570.128418,4546.922852,4563.974121,4502.948730,5569.743652,4217.820313,4267.692383,0.000000,1.000000,18.000000,,,,0.000000,0.000000,0.000000,0.000000,0.000000,0.000000,0.000000,0.000000,0.000000,0.000000,0.000000,0.000000,0.000000,0.000000,0.000000,0.000000,,,,,,,,,,,,,,,,,,,,,,,,,,,,,,,,,,,,,,,,,,,,,,,,,,,,,,,,,,,,,,,,,,,,
1747914417.583325,1747914417.583609,203.000000,0.000000,4236.282227,4343.717773,4253.461426,4316.410156,4348.077148,4353.077148,4237.948730,4570.256348,4545.769043,4563.461426,4507.948730,5575.897461,4220.128418,4276.538574,0.000000,1.000000,18.000000,,,,0.000000,0.000000,0.000000,0.000000,0.000000,0.000000,0.000000,0.000000,0.000000,0.000000,0.000000,0.000000,0.000000,0.000000,0.000000,0.000000,,,,,,,,,,,,,,,,,,,,,,,,,,,,,,,,,,,,,,,,,,,,,,,,,,,,,,,,,,,,,,,,,,,,
1747914417.587229,1747914417.587513,204.000000,0.000000,4228.846191,4340.000000,4253.077148,4317.051270,4348.333496,4352.563965,4246.666504,4569.871582,4544.358887,4560.256348,4507.948730,5573.717773,4213.974121,4275.384766,0.000000,1.000000,18.000000,,,,0.000000,0.000000,0.000000,0.000000,0.000000,0.000000,0.000000,0.000000,0.000000,0.000000,0.000000,0.000000,0.000000,0.000000,0.000000,0.000000,,,,,,,,,,,,,,,,,,,,,,,,,,,,,,,,,,,,,,,,,,,,,,,,,,,,,,,,,,,,,,,,,,,,
1747914417.591133,1747914417.591417,205.000000,0.000000,4221.153809,4332.436035,4254.230957,4318.461426,4349.487305,4358.205078,4268.589844,4568.589844,4543.846191,4556.794922,4502.563965,5563.974121,4203.461426,4264.871582,0.000000,1.000000,18.000000,,,,0.000000,0.000000,0.000000,0.000000,0.000000,0.000000,0.000000,0.000000,0.000000,0.000000,0.000000,0.000000,0.000000,0.000000,0.000000,0.000000,,,,,,,,,,,,,,,,,,,,,,,,,,,,,,,,,,,,,,,,,,,,,,,,,,,,,,,,,,,,,,,,,,,,
1747914417.595037,1747914417.595222,206.000000,0.000000,4228.333496,4330.384766,4256.025879,4318.717773,4349.102539,4361.153809,4280.769043,4567.179688,4544.743652,4556.410156,4498.077148,5557.436035,4204.615234,4258.205078,0.000000,1.000000,18.000000,,,,0.000000,0.000000,0.000000,0.000000,0.000000,0.000000,0.000000,0.000000,0.000000,0.000000,0.000000,0.000000,0.000000,0.000000,0.000000,0.000000,,,,,,,,,,,,,,,,,,,,,,,,,,,,,,,,,,,,,,,,,,,,,,,,,,,,,,,,,,,,,,,0.000000,0.000000,1.000000,0.000000,2048.000000,0.000000
1747914417.598941,1747914417.599126,207.000000,0.000000,4251.794922,4337.179688,4257.436035,4316.666504,4347.179688,4356.410156,4270.769043,4567.563965,4546.922852,4559.871582,4499.230957,5561.794922,4225.384766,4263.717773,0.000000,1.000000,18.000000,,,,0.000000,0.000000,0.000000,0.000000,0.000000,0.000000,0.000000,0.000000,0.000000,0.000000,0.000000,0.000000,0.000000,0.000000,0.000000,0.000000,,,,,,,,,,,,,,,,,,,,,,,,,,,,,,,,,,,,,,,,,,,,,,,,,,,,,,,,,,,,,,,,,,,,
1747914417.602845,1747914417.603030,208.000000,0.000000,4271.794922,4345.384766,4257.563965,4313.974121,4346.025879,4349.615234,4250.256348,4570.128418,4548.589844,4563.846191,4503.461426,5572.179688,4248.846191,4274.358887,0.000000,1.000000,18.000000,,,,0.000000,0.000000,0.000000,0.000000,0.000000,0.000000,0.000000,0.000000,0.000000,0.000000,0.000000,0.000000,0.000000,0.000000,0.000000,0.000000,,,,,,,,,,,,,,,,,26.000000,0.000000,0.726392,-0.681885,0.062256,0.059265,-0.170919,-0.986937,0.057136,0.369541,-16.161680,34.391983,,,,,,,,,,,,,,,,,,,,,,,,,,,,,,,,,,,,,,,,
1747914417.606749,1747914417.607034,209.000000,0.000000,4269.487305,4345.512695,4256.666504,4313.589844,4348.077148,4349.487305,4240.384766,4573.205078,4548.077148,4564.358887,4504.487305,5577.051270,4253.589844,4277.051270,0.000000,1.000000,18.000000,,,,0.000000,0.000000,0.000000,0.000000,0.000000,0.000000,0.000000,0.000000,0.000000,0.000000,0.000000,0.000000,0.000000,0.000000,0.000000,0.000000,,,,,,,,,,,,,,,,,,,,,,,,,,,,,,,,,,,,,,,,,,,,,,,,,,,,,,,,,,,,,,,,,,,,
1747914417.610653,1747914417.610938,210.000000,0.000000,4247.179688,4338.077148,4255.641113,4316.282227,4351.922852,4356.410156,4244.871582,4574.487305,4546.025879,4560.769043,4500.769043,5572.179688,4236.282227,4269.487305,0.000000,1.000000,18.000000,,,,0.000000,0.000000,0.000000,0.000000,0.000000,0.000000,0.000000,0.000000,0.000000,0.000000,0.000000,0.000000,0.000000,0.000000,0.000000,0.000000,,,,,,,,,,,,,,,,,,,,,,,,,,,,,,,,,,,,,,,,,,,,,,,,,,,,,,,,,,,,,,,,,,,,
1747914417.614557,1747914417.614842,211.000000,0.000000,4226.666504,4331.538574,4254.871582,4319.230957,4353.589844,4361.410156,4251.025879,4573.077148,4544.358887,4556.282227,4497.563965,5565.641113,4214.230957,4262.436035,0.000000,1.000000,18.000000,,,,0.000000,0.000000,0.000000,0.000000,0.000000,0.000000,0.000000,0.000000,0.000000,0.000000,0.000000,0.000000,0.000000,0.000000,0.000000,0.000000,,,,,,,,,,,,,,,,,,,,,,,,,,,,,,,,,,,,,,,,,,,,,,,,,,,,,,,,,,,,,,,,,,,,
1747914417.618461,1747914417.618746,212.000000,0.000000,4225.256348,4332.563965,4254.487305,4319.743652,4351.025879,4358.205078,4249.230957,4570.641113,4544.871582,4554.743652,4499.743652,5566.153809,4204.487305,4264.743652,0.000000,1.000000,18.000000,,,,0.000000,0.000000,0.000000,0.000000,0.000000,0.000000,0.000000,0.000000,0.000000,0.000000,0.000000,0.000000,0.000000,0.000000,0.000000,0.000000,,,,,,,,,,,,,,,,,,,,,,,,,,,,,,,,,,,,,,,,,,,,,,,,,,,,,,,,,,,,,,,,,,,,
1747914417.622365,1747914417.622650,213.000000,0.000000,4237.436035,4337.820313,4254.230957,4318.077148,4346.666504,4351.025879,4244.871582,4569.230957,4546.794922,4556.538574,4504.743652,5572.179688,4203.974121,4272.179688,0.000000,1.000000,18.000000,,,,0.000000,0.000000,0.000000,0.000000,0.000000,0.000000,0.000000,0.000000,0.000000,0.000000,0.000000,0.000000,0.000000,0.000000,0.000000,0.000000,,,,,,,,,,,,,,,,,,,,,,,,,,,,,,,,,,,,,,,,,,,,,,,,,,,,,,,,,,,,,,,,,,,,
1747914417.626269,1747914417.626454,214.000000,0.000000,4244.487305,4339.743652,4254.230957,4316.794922,4345.000000,4348.717773,4251.666504,4569.615234,4547.820313,4559.358887,4506.410156,5574.358887,4203.333496,4273.589844,0.000000,1.000000,18.000000,,,,0.000000,0.000000,0.000000,0.000000,0.000000,0.000000,0.000000,0.000000,0.000000,0.000000,0.000000,0.000000,0.000000,0.000000,0.000000,0.000000,,,,,,,,,,,,,,,,,,,,,,,,,,,,,,,,,,,,,,,,,,,,,,,,,,,,,,,,,,,,,,,0.000000,0.000000,1.000000,0.000000,2048.000000,0.000000
1747914417.630173,1747914417.630359,215.000000,0.000000,4239.358887,4336.666504,4254.743652,4317.563965,4347.436035,4353.461426,4267.563965,4570.897461,4546.922852,4561.410156,4502.820313,5569.102539,4200.897461,4266.794922,0.000000,1.000000,18.000000,,,,0.000000,0.000000,0.000000,0.000000,0.000000,0.000000,0.000000,0.000000,0.000000,0.000000,0.000000,0.000000,0.000000,0.000000,0.000000,0.000000,,,,,,,,,,,,,,,,,,,,,,,,,,,,,,,,,,,,,,,,,,,,,,,,,,,,,,,,,,,,,,,,,,,,
1747914417.634077,1747914417.634263,216.000000,0.000000,4232.563965,4334.615234,4255.512695,4318.974121,4350.769043,4358.461426,4275.769043,4571.922852,4545.512695,4562.692383,4499.230957,5563.717773,4206.282227,4261.794922,0.000000,1.000000,18.000000,,,,0.000000,0.000000,0.000000,0.000000,0.000000,0.000000,0.000000,0.000000,0.000000,0.000000,0.000000,0.000000,0.000000,0.000000,0.000000,0.000000,,,,,,,,,,,,,,,,,27.000000,0.000000,0.726444,-0.681824,0.062317,0.059265,-0.174826,-0.984984,0.058601,0.432587,-16.095512,34.386116,,,,,,,,,,,,,,,,,,,,,,,,,,,,,,,,,,,,,,,,
1747914417.637982,1747914417.638267,217.000000,0.000000,4236.153809,4338.205078,4256.153809,4318.205078,4351.153809,4357.307617,4265.897461,4572.307617,4546.282227,4563.717773,4501.282227,5566.538574,4227.436035,4266.666504,0.000000,1.000000,18.000000,,,,0.000000,0.000000,0.000000,0.000000,0.000000,0.000000,0.000000,0.000000,0.000000,0.000000,0.000000,0.000000,0.000000,0.000000,0.000000,0.000000,,,,,,,,,,,,,,,,,,,,,,,,,,,,,,,,,,,,,,,,,,,,,,,,,,,,,,,,,,,,,,,,,,,,
1747914417.641885,1747914417.642171,218.000000,0.000000,4243.974121,4343.974121,4255.897461,4314.743652,4348.589844,4352.436035,4247.307617,4572.563965,4548.974121,4564.102539,4507.436035,5575.000000,4248.974121,4275.512695,0.000000,1.000000,18.000000,,,,0.000000,0.000000,0.000000,0.000000,0.000000,0.000000,0.000000,0.000000,0.000000,0.000000,0.000000,0.000000,0.000000,0.000000,0.000000,0.000000,,,,,,,,,,,,,,,,,,,,,,,,,,,,,,,,,,,,,,,,,,,,,,,,,,,,,,,,,,,,,,,,,,,,
1747914417.645790,1747914417.646075,219.000000,0.000000,4243.589844,4344.743652,4255.128418,4311.282227,4346.794922,4351.410156,4240.128418,4572.692383,4551.025879,4562.820313,4510.897461,5578.589844,4251.153809,4276.025879,0.000000,1.000000,18.000000,,,,0.000000,0.000000,0.000000,0.000000,0.000000,0.000000,0.000000,0.000000,0.000000,0.000000,0.000000,0.000000,0.000000,0.000000,0.000000,0.000000,,,,,,,,,,,,,,,,,,,,,,,,,,,,,,,,,,,,,,,,,,,,,,,,,,,,,,,,,,,,,,,,,,,,
1747914417.649694,1747914417.650079,220.000000,0.000000,4233.589844,4339.487305,4254.487305,4311.025879,4347.820313,4356.410156,4249.743652,4571.794922,4550.256348,4560.384766,4508.077148,5571.922852,4232.051270,4265.769043,0.000000,1.000000,18.000000,,,,0.000000,0.000000,0.000000,0.000000,0.000000,0.000000,0.000000,0.000000,0.000000,0.000000,0.000000,0.000000,0.000000,0.000000,0.000000,0.000000,,,,,,,,,,,,,,,,,,,,,,,,,,,,,,,,,,,,,,,,,,,,,,,,,,,,,,,,,,,,,,,,,,,,
1747914417.653598,1747914417.653983,221.000000,0.000000,4227.179688,4334.615234,4254.871582,4313.589844,4350.256348,4360.641113,4262.051270,4570.256348,4547.692383,4559.102539,4503.461426,5562.563965,4210.769043,4256.282227,0.000000,1.000000,18.000000,,,,0.000000,0.000000,0.000000,0.000000,0.000000,0.000000,0.000000,0.000000,0.000000,0.000000,0.000000,0.000000,0.000000,0.000000,0.000000,0.000000,,,,,,,,,,,,,,,,,,,,,,,,,,,,,,,,,,,,,,,,,,,,,,,,,,,,,,,,,,,,,,,,,,,,
1747914417.657502,1747914417.657887,222.000000,0.000000,4236.153809,4335.641113,4255.897461,4316.410156,4351.410156,4358.077148,4262.307617,4569.358887,4545.897461,4560.897461,4503.077148,5561.282227,4207.051270,4258.717773,0.000000,1.000000,18.000000,,,,0.000000,0.000000,0.000000,0.000000,0.000000,0.000000,0.000000,0.000000,0.000000,0.000000,0.000000,0.000000,0.000000,0.000000,0.000000,0.000000,,,,,,,,,,,,,,,,,,,,,,,,,,,,,,,,,,,,,,,,,,,,,,,,,,,,,,,,,,,,,,,0.000000,0.000000,1.000000,0.000000,2048.000000,0.000000
1747914417.661406,1747914417.661791,223.000000,0.000000,4254.743652,4340.128418,4256.922852,4317.563965,4350.384766,4351.794922,4251.282227,4570.384766,4546.025879,4564.102539,4506.666504,5568.589844,4217.692383,4268.974121,0.000000,1.000000,18.000000,,,,0.000000,0.000000,0.000000,0.000000,0.000000,0.000000,0.000000,0.000000,0.000000,0.000000,0.000000,0.000000,0.000000,0.000000,0.000000,0.000000,,,,,,,,,,,,,,,,,,,,,,,,,,,,,,,,,,,,,,,,,,,,,,,,,,,,,,,,,,,,,,,,,,,,
1747914417.665310,1747914417.665795,224.000000,0.000000,4264.743652,4341.410156,4257.307617,4317.563965,4349.358887,4350.384766,4245.512695,4572.820313,4546.922852,4565.769043,4508.077148,5574.615234,4225.641113,4273.717773,0.000000,1.000000,18.000000,,,,0.000000,0.000000,0.000000,0.000000,0.000000,0.000000,0.000000,0.000000,0.000000,0.000000,0.000000,0.000000,0.000000,0.000000,0.000000,0.000000,,,,,,,,,,,,,,,,,28.000000,0.000000,0.726429,-0.681824,0.062378,0.059387,-0.173849,-0.991820,0.067879,0.389328,-16.152628,34.480839,,,,,,,,,,,,,,,,,,,,,,,,,,,,,,,,,,,,,,,,
1747914417.669214,1747914417.669699,225.000000,0.000000,4256.922852,4337.179688,4256.666504,4317.563965,4349.487305,4357.179688,4254.230957,4574.871582,4546.922852,4563.974121,4504.487305,5572.179688,4220.897461,4267.436035,0.000000,1.000000,18.000000,,,,0.000000,0.000000,0.000000,0.000000,0.000000,0.000000,0.000000,0.000000,0.000000,0.000000,0.000000,0.000000,0.000000,0.000000,0.000000,0.000000,,,,,,,,,,,,,,,,,,,,,,,,,,,,,,,,,,,,,,,,,,,,,,,,,,,,,,,,,,,,,,,,,,,,
1747914417.673118,1747914417.673603,226.000000,0.000000,4240.512695,4333.077148,4255.641113,4317.307617,4350.128418,4365.256348,4266.025879,4574.871582,4546.153809,4560.128418,4500.384766,5565.769043,4211.538574,4259.358887,0.000000,1.000000,18.000000,,,,0.000000,0.000000,0.000000,0.000000,0.000000,0.000000,0.000000,0.000000,0.000000,0.000000,0.000000,0.000000,0.000000,0.000000,0.000000,0.000000,,,,,,,,,,,,,,,,,,,,,,,,,,,,,,,,,,,,,,,,,,,,,,,,,,,,,,,,,,,,,,,,,,,,
1747914417.677022,1747914417.677507,227.000000,0.000000,4230.769043,4335.000000,4255.128418,4315.641113,4349.230957,4365.769043,4266.922852,4573.461426,4545.641113,4557.307617,4502.436035,5565.128418,4214.871582,4261.538574,0.000000,1.000000,18.000000,,,,0.000000,0.000000,0.000000,0.000000,0.000000,0.000000,0.000000,0.000000,0.000000,0.000000,0.000000,0.000000,0.000000,0.000000,0.000000,0.000000,,,,,,,,,,,,,,,,,,,,,,,,,,,,,,,,,,,,,,,,,,,,,,,,,,,,,,,,,,,,,,,,,,,,
1747914417.680926,1747914417.681412,228.000000,0.000000,4229.487305,4340.769043,4255.641113,4313.077148,4347.051270,4359.102539,4256.794922,4571.922852,4546.025879,4557.051270,4509.358887,5571.538574,4228.846191,4271.794922,0.000000,1.000000,18.000000,,,,0.000000,0.000000,0.000000,0.000000,0.000000,0.000000,0.000000,0.000000,0.000000,0.000000,0.000000,0.000000,0.000000,0.000000,0.000000,0.000000,,,,,,,,,,,,,,,,,,,,,,,,,,,,,,,,,,,,,,,,,,,,,,,,,,,,,,,,,,,,,,,,,,,,
1747914417.684830,1747914417.685216,229.000000,0.000000,4227.692383,4343.205078,4256.538574,4311.922852,4346.025879,4353.333496,4250.256348,4571.153809,4546.794922,4558.461426,4513.077148,5576.410156,4237.051270,4276.538574,0.000000,1.000000,18.000000,,,,0.000000,0.000000,0.000000,0.000000,0.000000,0.000000,0.000000,0.000000,0.000000,0.000000,0.000000,0.000000,0.000000,0.000000,0.000000,0.000000,,,,,,,,,,,,,,,,,,,,,,,,,,,,,,,,,,,,,,,,,,,,,,,,,,,,,,,,,,,,,,,,,,,,
1747914417.688734,1747914417.689120,230.000000,0.000000,4221.538574,4339.358887,4256.794922,4314.230957,4347.436035,4353.974121,4257.436035,4570.641113,4546.794922,4559.743652,4508.205078,5573.205078,4230.256348,4268.589844,0.000000,1.000000,18.000000,,,,0.000000,0.000000,0.000000,0.000000,0.000000,0.000000,0.000000,0.000000,0.000000,0.000000,0.000000,0.000000,0.000000,0.000000,0.000000,0.000000,,,,,,,,,,,,,,,,,,,,,,,,,,,,,,,,,,,,,,,,,,,,,,,,,,,,,,,,,,,,1.000000,0.000000,0.000000,0.000000,0.000000,1.000000,0.000000,2048.000000,0.000000
1747914417.692638,1747914417.693024,231.000000,0.000000,4219.487305,4334.871582,4255.897461,4318.205078,4349.871582,4357.307617,4269.102539,4570.128418,4546.410156,4560.000000,4499.102539,5565.897461,4216.153809,4257.179688,0.000000,1.000000,18.000000,,,,0.000000,0.000000,0.000000,0.000000,0.000000,0.000000,0.000000,0.000000,0.000000,0.000000,0.000000,0.000000,0.000000,0.000000,0.000000,0.000000,,,,,,,,,,,,,,,,,,,,,,,,,,,,,,,,,,,,,,,,,,,,,,,,,,,,,,,,,,,,,,,,,,,,
1747914417.696542,1747914417.696928,232.000000,0.000000,4233.205078,4336.025879,4254.743652,4320.384766,4350.769043,4356.538574,4271.538574,4569.743652,4546.153809,4559.743652,4495.384766,5563.846191,4212.948730,4256.666504,0.000000,1.000000,18.000000,,,,0.000000,0.000000,0.000000,0.000000,0.000000,0.000000,0.000000,0.000000,0.000000,0.000000,0.000000,0.000000,0.000000,0.000000,0.000000,0.000000,,,,,,,,,,,,,,,,,29.000000,0.000000,0.726428,-0.681824,0.062439,0.059326,-0.186546,-0.986449,0.071786,0.350395,-16.020699,34.532753,,,,,,,,,,,,,,,,,,,,,,,,,,,,,,,,,,,,,,,,
1747914417.700446,1747914417.700732,233.000000,0.000000,4257.307617,4341.666504,4254.358887,4318.717773,4349.230957,4352.179688,4261.794922,4570.384766,4546.410156,4559.358887,4500.128418,5569.230957,4223.589844,4268.333496,0.000000,1.000000,18.000000,,,,0.000000,0.000000,0.000000,0.000000,0.000000,0.000000,0.000000,0.000000,0.000000,0.000000,0.000000,0.000000,0.000000,0.000000,0.000000,0.000000,,,,,,,,,,,,,,,,,,,,,,,,,,,,,,,,,,,,,,,,,,,,,,,,,,,,,,,,,,,,,,,,,,,,
1747914417.704350,1747914417.704636,234.000000,0.000000,4270.384766,4343.974121,4255.128418,4315.256348,4347.179688,4351.282227,4252.820313,4572.051270,4546.282227,4559.102539,4507.436035,5573.974121,4233.589844,4278.717773,0.000000,1.000000,18.000000,,,,0.000000,0.000000,0.000000,0.000000,0.000000,0.000000,0.000000,0.000000,0.000000,0.000000,0.000000,0.000000,0.000000,0.000000,0.000000,0.000000,,,,,,,,,,,,,,,,,,,,,,,,,,,,,,,,,,,,,,,,,,,,,,,,,,,,,,,,,,,,,,,,,,,,
1747914417.708254,1747914417.708540,235.000000,0.000000,4260.384766,4339.358887,4256.153809,4313.589844,4346.666504,4357.436035,4256.410156,4573.333496,4545.128418,4559.102539,4509.487305,5570.897461,4231.410156,4276.538574,0.000000,1.000000,18.000000,,,,0.000000,0.000000,0.000000,0.000000,0.000000,0.000000,0.000000,0.000000,0.000000,0.000000,0.000000,0.000000,0.000000,0.000000,0.000000,0.000000,,,,,,,,,,,,,,,,,,,,,,,,,,,,,,,,,,,,,,,,,,,,,,,,,,,,,,,,,,,,,,,,,,,,
1747914417.712158,1747914417.712445,236.000000,0.000000,4238.589844,4333.077148,4256.922852,4314.615234,4347.563965,4364.358887,4265.897461,4572.948730,4543.589844,4559.615234,4506.025879,5563.333496,4221.666504,4266.282227,0.000000,1.000000,18.000000,,,,0.000000,0.000000,0.000000,0.000000,0.000000,0.000000,0.000000,0.000000,0.000000,0.000000,0.000000,0.000000,0.000000,0.000000,0.000000,0.000000,,,,,,,,,,,,,,,,,,,,,,,,,,,,,,,,,,,,,,,,,,,,,,,,,,,,,,,,,,,,,,,,,,,,
1747914417.716062,1747914417.716249,237.000000,0.000000,4225.384766,4333.589844,4256.794922,4316.538574,4348.077148,4363.205078,4267.820313,4571.282227,4543.205078,4560.769043,4502.948730,5560.897461,4218.333496,4261.153809,0.000000,1.000000,18.000000,,,,0.000000,0.000000,0.000000,0.000000,0.000000,0.000000,0.000000,0.000000,0.000000,0.000000,0.000000,0.000000,0.000000,0.000000,0.000000,0.000000,,,,,,,,,,,,,,,,,,,,,,,,,,,,,,,,,,,,,,,,,,,,,,,,,,,,,,,,,,,,,,,,,,,,
1747914417.719967,1747914417.720153,238.000000,0.000000,4226.922852,4341.153809,4256.025879,4316.794922,4347.692383,4353.974121,4258.205078,4570.000000,4544.743652,4562.307617,4503.974121,5566.922852,4221.025879,4266.025879,0.000000,1.000000,18.000000,,,,0.000000,0.000000,0.000000,0.000000,0.000000,0.000000,0.000000,0.000000,0.000000,0.000000,0.000000,0.000000,0.000000,0.000000,0.000000,0.000000,,,,,,,,,,,,,,,,,,,,,,,,,,,,,,,,,,,,,,,,,,,,,,,,,,,,,,,,,,,,,,,0.000000,0.000000,1.000000,0.000000,2048.000000,0.000000
1747914417.723870,1747914417.724057,239.000000,0.000000,4232.307617,4347.948730,4255.000000,4315.641113,4347.563965,4346.922852,4248.461426,4569.871582,4546.922852,4562.692383,4506.410156,5573.589844,4217.179688,4271.794922,0.000000,1.000000,18.000000,,,,0.000000,0.000000,0.000000,0.000000,0.000000,0.000000,0.000000,0.000000,0.000000,0.000000,0.000000,0.000000,0.000000,0.000000,0.000000,0.000000,,,,,,,,,,,,,,,,,,,,,,,,,,,,,,,,,,,,,,,,,,,,,,,,,,,,,,,,,,,,,,,,,,,,
1747914417.727775,1747914417.728061,240.000000,0.000000,4230.384766,4346.666504,4254.358887,4315.256348,4348.717773,4350.000000,4252.051270,4570.769043,4547.948730,4561.666504,4505.384766,5572.307617,4202.948730,4269.230957,0.000000,1.000000,18.000000,,,,0.000000,0.000000,0.000000,0.000000,0.000000,0.000000,0.000000,0.000000,0.000000,0.000000,0.000000,0.000000,0.000000,0.000000,0.000000,0.000000,,,,,,,,,,,,,,,,,30.000000,0.000000,0.726470,-0.681763,0.062500,0.059448,-0.173849,-0.982542,0.068856,0.432022,-16.118629,34.662811,,,,,,,,,,,,,,,,,,,,,,,,,,,,,,,,,,,,,,,,
1747914417.731679,1747914417.731965,241.000000,0.000000,4223.717773,4339.871582,4254.102539,4316.282227,4350.641113,4359.102539,4264.230957,4571.538574,4547.436035,4559.743652,4501.794922,5564.358887,4190.384766,4261.410156,0.000000,1.000000,18.000000,,,,0.000000,0.000000,0.000000,0.000000,0.000000,0.000000,0.000000,0.000000,0.000000,0.000000,0.000000,0.000000,0.000000,0.000000,0.000000,0.000000,,,,,,,,,,,,,,,,,,,,,,,,,,,,,,,,,,,,,,,,,,,,,,,,,,,,,,,,,,,,,,,,,,,,
1747914417.735583,1747914417.735869,242.000000,0.000000,4226.410156,4335.897461,4254.230957,4317.436035,4351.410156,4363.589844,4270.769043,4571.666504,4546.794922,4558.461426,4500.769043,5559.615234,4198.974121,4259.615234,0.000000,1.000000,18.000000,,,,0.000000,0.000000,0.000000,0.000000,0.000000,0.000000,0.000000,0.000000,0.000000,0.000000,0.000000,0.000000,0.000000,0.000000,0.000000,0.000000,,,,,,,,,,,,,,,,,,,,,,,,,,,,,,,,,,,,,,,,,,,,,,,,,,,,,,,,,,,,,,,,,,,,
1747914417.739487,1747914417.739773,243.000000,0.000000,4243.589844,4338.846191,4254.358887,4317.179688,4350.384766,4358.589844,4264.358887,4571.410156,4547.051270,4558.461426,4504.487305,5563.461426,4230.641113,4268.077148,0.000000,1.000000,18.000000,,,,0.000000,0.000000,0.000000,0.000000,0.000000,0.000000,0.000000,0.000000,0.000000,0.000000,0.000000,0.000000,0.000000,0.000000,0.000000,0.000000,,,,,,,,,,,,,,,,,,,,,,,,,,,,,,,,,,,,,,,,,,,,,,,,,,,,,,,,,,,,,,,,,,,,
1747914417.743391,1747914417.743777,244.000000,0.000000,4260.769043,4343.589844,4254.358887,4316.282227,4348.974121,4351.153809,4252.692383,4570.897461,4547.948730,4559.102539,4508.461426,5570.897461,4260.897461,4277.436035,0.000000,1.000000,18.000000,,,,0.000000,0.000000,0.000000,0.000000,0.000000,0.000000,0.000000,0.000000,0.000000,0.000000,0.000000,0.000000,0.000000,0.000000,0.000000,0.000000,,,,,,,,,,,,,,,,,,,,,,,,,,,,,,,,,,,,,,,,,,,,,,,,,,,,,,,,,,,,,,,,,,,,
1747914417.747295,1747914417.747681,245.000000,0.000000,4261.282227,4343.589844,4253.846191,4316.410156,4348.333496,4350.128418,4250.256348,4570.256348,4548.077148,4559.358887,4507.307617,5572.563965,4264.487305,4277.051270,0.000000,1.000000,18.000000,,,,0.000000,0.000000,0.000000,0.000000,0.000000,0.000000,0.000000,0.000000,0.000000,0.000000,0.000000,0.000000,0.000000,0.000000,0.000000,0.000000,,,,,,,,,,,,,,,,,,,,,,,,,,,,,,,,,,,,,,,,,,,,,,,,,,,,,,,,,,,,,,,,,,,,
1747914417.751199,1747914417.751586,246.000000,0.000000,4244.871582,4339.102539,4253.461426,4318.205078,4348.461426,4355.512695,4257.051270,4569.230957,4547.307617,4559.230957,4501.794922,5567.436035,4240.128418,4268.461426,0.000000,1.000000,18.000000,,,,0.000000,0.000000,0.000000,0.000000,0.000000,0.000000,0.000000,0.000000,0.000000,0.000000,0.000000,0.000000,0.000000,0.000000,0.000000,0.000000,,,,,,,,,,,,,,,,,,,,,,,,,,,,,,,,,,,,,,,,,,,,,,,,,,,,,,,,,,,,,,,0.000000,0.000000,1.000000,0.000000,2048.000000,0.000000
1747914417.755103,1747914417.755490,247.000000,0.000000,4227.436035,4336.153809,4253.333496,4319.358887,4347.692383,4359.487305,4262.948730,4568.461426,4546.794922,4560.128418,4498.589844,5563.589844,4210.256348,4263.333496,0.000000,1.000000,18.000000,,,,0.000000,0.000000,0.000000,0.000000,0.000000,0.000000,0.000000,0.000000,0.000000,0.000000,0.000000,0.000000,0.000000,0.000000,0.000000,0.000000,,,,,,,,,,,,,,,,,,,,,,,,,,,,,,,,,,,,,,,,,,,,,,,,,,,,,,,,,,,,,,,,,,,,
1747914417.759007,1747914417.759294,248.000000,0.000000,4222.179688,4338.077148,4253.717773,4318.077148,4345.897461,4357.051270,4260.256348,4568.717773,4547.436035,4562.436035,4501.666504,5566.666504,4195.897461,4267.692383,0.000000,1.000000,18.000000,,,,0.000000,0.000000,0.000000,0.000000,0.000000,0.000000,0.000000,0.000000,0.000000,0.000000,0.000000,0.000000,0.000000,0.000000,0.000000,0.000000,,,,,,,,,,,,,,,,,31.000000,0.000000,0.726528,-0.681702,0.062500,0.059448,-0.172873,-0.986937,0.074716,0.388820,-16.256765,34.646530,,,,,,,,,,,,,,,,,,,,,,,,,,,,,,,,,,,,,,,,
1747914417.762911,1747914417.763198,249.000000,0.000000,4225.384766,4341.153809,4253.974121,4315.384766,4344.615234,4352.820313,4253.205078,4569.743652,4548.461426,4564.358887,4507.307617,5572.436035,4195.256348,4273.846191,0.000000,1.000000,18.000000,,,,0.000000,0.000000,0.000000,0.000000,0.000000,0.000000,0.000000,0.000000,0.000000,0.000000,0.000000,0.000000,0.000000,0.000000,0.000000,0.000000,,,,,,,,,,,,,,,,,,,,,,,,,,,,,,,,,,,,,,,,,,,,,,,,,,,,,,,,,,,,,,,,,,,,
1747914417.766815,1747914417.767102,250.000000,0.000000,4226.794922,4340.384766,4253.846191,4314.358887,4345.384766,4353.461426,4253.077148,4570.897461,4548.333496,4563.846191,4508.846191,5572.436035,4197.436035,4271.410156,0.000000,1.000000,18.000000,,,,0.000000,0.000000,0.000000,0.000000,0.000000,0.000000,0.000000,0.000000,0.000000,0.000000,0.000000,0.000000,0.000000,0.000000,0.000000,0.000000,,,,,,,,,,,,,,,,,,,,,,,,,,,,,,,,,,,,,,,,,,,,,,,,,,,,,,,,,,,,,,,,,,,,
1747914417.770719,1747914417.771006,251.000000,0.000000,4225.256348,4336.538574,4253.717773,4316.410156,4347.820313,4358.846191,4260.000000,4571.025879,4546.922852,4560.769043,4504.615234,5565.769043,4200.512695,4261.922852,0.000000,1.000000,18.000000,,,,0.000000,0.000000,0.000000,0.000000,0.000000,0.000000,0.000000,0.000000,0.000000,0.000000,0.000000,0.000000,0.000000,0.000000,0.000000,0.000000,,,,,,,,,,,,,,,,,,,,,,,,,,,,,,,,,,,,,,,,,,,,,,,,,,,,,,,,,,,,,,,,,,,,
1747914417.774623,1747914417.774810,252.000000,0.000000,4229.487305,4335.384766,4253.974121,4319.230957,4349.102539,4361.538574,4263.461426,4570.256348,4545.641113,4557.563965,4500.384766,5560.384766,4212.948730,4257.948730,0.000000,1.000000,18.000000,,,,0.000000,0.000000,0.000000,0.000000,0.000000,0.000000,0.000000,0.000000,0.000000,0.000000,0.000000,0.000000,0.000000,0.000000,0.000000,0.000000,,,,,,,,,,,,,,,,,,,,,,,,,,,,,,,,,,,,,,,,,,,,,,,,,,,,,,,,,,,,,,,,,,,,
1747914417.778527,1747914417.778714,253.000000,0.000000,4242.307617,4339.230957,4254.230957,4320.000000,4347.948730,4357.307617,4257.179688,4569.487305,4546.282227,4556.666504,4501.666504,5563.461426,4236.666504,4265.769043,0.000000,1.000000,18.000000,,,,0.000000,0.000000,0.000000,0.000000,0.000000,0.000000,0.000000,0.000000,0.000000,0.000000,0.000000,0.000000,0.000000,0.000000,0.000000,0.000000,,,,,,,,,,,,,,,,,,,,,,,,,,,,,,,,,,,,,,,,,,,,,,,,,,,,,,,,,,,,,,,,,,,,
1747914417.782431,1747914417.782619,254.000000,0.000000,4250.128418,4342.948730,4254.230957,4318.333496,4345.897461,4350.769043,4246.666504,4569.358887,4547.820313,4558.333496,4506.666504,5571.538574,4252.820313,4276.410156,0.000000,1.000000,18.000000,,,,0.000000,0.000000,0.000000,0.000000,0.000000,0.000000,0.000000,0.000000,0.000000,0.000000,0.000000,0.000000,0.000000,0.000000,0.000000,0.000000,,,,,,,,,,,,,,,,,,,,,,,,,,,,,,,,,,,,,,,,,,,,,,,,,,,,,,,,,,,,,,,0.000000,0.000000,1.000000,0.000000,2048.000000,0.000000
1747914417.786335,1747914417.786623,255.000000,0.000000,4241.538574,4340.769043,4253.717773,4316.922852,4345.769043,4350.384766,4245.128418,4569.743652,4548.461426,4560.384766,4509.615234,5574.615234,4247.051270,4276.922852,18.000000,1.000000,18.000000,,,,0.000000,0.000000,0.000000,0.000000,0.000000,0.000000,0.000000,0.000000,0.000000,0.000000,0.000000,0.000000,0.000000,0.000000,0.000000,0.000000,,,,,,,,,,,,,,,,,,,,,,,,,,,,,,,,,,,,,,,,,,,,,,,,,,,,,,,,,,,,,,,,,,,,
1747914417.790239,1747914417.790527,0.000000,0.000000,4222.563965,4334.230957,4253.589844,4317.692383,4348.333496,4357.051270,4254.102539,4569.871582,4547.051270,4561.410156,4507.563965,5569.102539,4222.436035,4266.025879,0.000000,1.000000,18.000000,,,,0.000000,0.000000,0.000000,0.000000,0.000000,0.000000,0.000000,0.000000,0.000000,0.000000,0.000000,0.000000,0.000000,0.000000,0.000000,0.000000,,,,,,,,,,,,,,,,,0.000000,0.000000,0.726595,-0.681641,0.062439,0.059387,-0.169454,-0.996215,0.075204,0.366605,-16.181089,34.781879,,,,,,,,,,,,,,,,,,,,,,,,,,,,,,,,,,,,,,,,
1747914417.794143,1747914417.794431,1.000000,0.000000,4213.717773,4331.282227,4254.102539,4319.615234,4351.025879,4362.563965,4261.410156,4569.871582,4544.871582,4561.538574,4504.230957,5562.692383,4201.282227,4256.794922,0.000000,1.000000,18.000000,,,,0.000000,0.000000,0.000000,0.000000,0.000000,0.000000,0.000000,0.000000,0.000000,0.000000,0.000000,0.000000,0.000000,0.000000,0.000000,0.000000,,,,,,,,,,,,,,,,,,,,,,,,,,,,,,,,,,,,,,,,,,,,,,,,,,,,,,,,,,,,,,,,,,,,
1747914417.798047,1747914417.798335,2.000000,0.000000,4228.461426,4336.153809,4254.615234,4320.000000,4351.153809,4360.000000,4258.205078,4570.256348,4543.974121,4561.538574,4504.358887,5563.717773,4204.102539,4259.358887,0.000000,1.000000,18.000000,,,,0.000000,0.000000,0.000000,0.000000,0.000000,0.000000,0.000000,0.000000,0.000000,0.000000,0.000000,0.000000,0.000000,0.000000,0.000000,0.000000,,,,,,,,,,,,,,,,,,,,,,,,,,,,,,,,,,,,,,,,,,,,,,,,,,,,,,,,,,,,,,,,,,,,
1747914417.801951,1747914417.802339,3.000000,0.000000,4255.512695,4343.589844,4254.487305,4318.205078,4349.102539,4352.820313,4248.717773,4571.153809,4544.743652,4561.410156,4506.538574,5570.897461,4226.025879,4268.589844,0.000000,1.000000,18.000000,,,,0.000000,0.000000,0.000000,0.000000,0.000000,0.000000,0.000000,0.000000,0.000000,0.000000,0.000000,0.000000,0.000000,0.000000,0.000000,0.000000,,,,,,,,,,,,,,,,,,,,,,,,,,,,,,,,,,,,,,,,,,,,,,,,,,,,,,,,,,,,,,,,,,,,
1747914417.805855,1747914417.806243,4.000000,0.000000,4269.358887,4344.871582,4253.077148,4316.025879,4347.692383,4350.000000,4247.051270,4571.794922,4545.897461,4560.512695,4506.282227,5575.000000,4243.846191,4272.051270,0.000000,1.000000,18.000000,,,,0.000000,0.000000,0.000000,0.000000,0.000000,0.000000,0.000000,0.000000,0.000000,0.000000,0.000000,0.000000,0.000000,0.000000,0.000000,0.000000,,,,,,,,,,,,,,,,,,,,,,,,,,,,,,,,,,,,,,,,,,,,,,,,,,,,,,,,,,,,,,,,,,,,
1747914417.809760,1747914417.810147,5.000000,0.000000,4257.948730,4338.461426,4251.282227,4316.025879,4348.333496,4355.256348,4257.179688,4571.153809,4546.153809,4558.974121,4501.794922,5571.153809,4242.436035,4266.153809,0.000000,1.000000,18.000000,,,,0.000000,0.000000,0.000000,0.000000,0.000000,0.000000,0.000000,0.000000,0.000000,0.000000,0.000000,0.000000,0.000000,0.000000,0.000000,0.000000,,,,,,,,,,,,,,,,,,,,,,,,,,,,,,,,,,,,,,,,,,,,,,,,,,,,,,,,,,,,,,,,,,,,
1747914417.813664,1747914417.814051,6.000000,0.000000,4235.000000,4332.307617,4250.256348,4318.205078,4349.487305,4361.794922,4266.282227,4569.743652,4545.641113,4557.820313,4498.077148,5565.256348,4227.179688,4260.512695,0.000000,1.000000,18.000000,,,,0.000000,0.000000,0.000000,0.000000,0.000000,0.000000,0.000000,0.000000,0.000000,0.000000,0.000000,0.000000,0.000000,0.000000,0.000000,0.000000,1.000000,0.000000,0.000000,0.000000,0.000000,0.000000,0.000000,0.000000,0.000000,0.000000,0.000000,0.000000,0.000000,0.000000,0.000000,0.000000,,,,,,,,,,,,,,,,,,,,,,,,,,,,,,,,,,,,,,,,,,,,1.000000,0.000000,0.000000,0.000000,0.000000,1.000000,0.000000,2048.000000,0.000000
1747914417.817567,1747914417.818055,7.000000,0.000000,4222.307617,4333.205078,4250.384766,4319.871582,4348.589844,4361.538574,4263.077148,4568.846191,4545.641113,4558.717773,4499.871582,5566.025879,4213.846191,4264.615234,0.000000,1.000000,18.000000,,,,0.000000,0.000000,0.000000,0.000000,0.000000,0.000000,0.000000,0.000000,0.000000,0.000000,0.000000,0.000000,0.000000,0.000000,0.000000,0.000000,,,,,,,,,,,,,,,,,,,,,,,,,,,,,,,,,,,,,,,,,,,,,,,,,,,,,,,,,,,,,,,,,,,,
1747914417.821472,1747914417.821959,8.000000,0.000000,4223.205078,4339.487305,4251.282227,4319.230957,4345.897461,4355.000000,4249.487305,4569.743652,4546.153809,4560.769043,4505.384766,5573.077148,4203.333496,4273.974121,0.000000,1.000000,18.000000,,,,0.000000,0.000000,0.000000,0.000000,0.000000,0.000000,0.000000,0.000000,0.000000,0.000000,0.000000,0.000000,0.000000,0.000000,0.000000,0.000000,,,,,,,,,,,,,,,,,1.000000,0.000000,0.726595,-0.681641,0.062439,0.059387,-0.164083,-0.989379,0.064461,0.379944,-16.079647,34.770355,,,,,,,,,,,,,,,,,,,,,,,,,,,,,,,,,,,,,,,,
1747914417.825376,1747914417.825863,9.000000,0.000000,4226.282227,4342.563965,4251.666504,4316.666504,4344.487305,4351.025879,4241.410156,4571.666504,4546.025879,4562.051270,4507.563965,5577.307617,4192.820313,4275.897461,0.000000,1.000000,18.000000,,,,0.000000,0.000000,0.000000,0.000000,0.000000,0.000000,0.000000,0.000000,0.000000,0.000000,0.000000,0.000000,0.000000,0.000000,0.000000,0.000000,,,,,,,,,,,,,,,,,,,,,,,,,,,,,,,,,,,,,,,,,,,,,,,,,,,,,,,,,,,,,,,,,,,,
1747914417.829280,1747914417.829768,10.000000,0.000000,4223.846191,4339.230957,4251.153809,4314.487305,4346.410156,4354.230957,4248.461426,4572.948730,4544.615234,4561.666504,4503.589844,5572.948730,4185.256348,4266.282227,0.000000,1.000000,18.000000,,,,0.000000,0.000000,0.000000,0.000000,0.000000,0.000000,0.000000,0.000000,0.000000,0.000000,0.000000,0.000000,0.000000,0.000000,0.000000,0.000000,,,,,,,,,,,,,,,,,,,,,,,,,,,,,,,,,,,,,,,,,,,,,,,,,,,,,,,,,,,,,,,,,,,,
1747914417.833184,1747914417.833572,11.000000,0.000000,4223.461426,4334.743652,4250.641113,4313.846191,4350.128418,4360.000000,4260.897461,4572.436035,4543.589844,4560.641113,4498.461426,5565.384766,4191.410156,4256.025879,0.000000,1.000000,18.000000,,,,0.000000,0.000000,0.000000,0.000000,0.000000,0.000000,0.000000,0.000000,0.000000,0.000000,0.000000,0.000000,0.000000,0.000000,0.000000,0.000000,,,,,,,,,,,,,,,,,,,,,,,,,,,,,,,,,,,,,,,,,,,,,,,,,,,,,,,,,,,,,,,,,,,,
1747914417.837088,1747914417.837476,12.000000,0.000000,4236.666504,4335.512695,4250.897461,4314.743652,4352.307617,4360.000000,4264.487305,4571.153809,4544.487305,4560.641113,4499.102539,5564.230957,4220.384766,4257.436035,0.000000,1.000000,18.000000,,,,0.000000,0.000000,0.000000,0.000000,0.000000,0.000000,0.000000,0.000000,0.000000,0.000000,0.000000,0.000000,0.000000,0.000000,0.000000,0.000000,,,,,,,,,,,,,,,,,,,,,,,,,,,,,,,,,,,,,,,,,,,,,,,,,,,,,,,,,,,,,,,,,,,,
1747914417.840992,1747914417.841380,13.000000,0.000000,4258.077148,4340.512695,4252.307617,4316.282227,4351.410156,4354.358887,4256.282227,4570.256348,4547.563965,4561.666504,4505.000000,5570.641113,4259.230957,4268.333496,0.000000,1.000000,18.000000,,,,0.000000,0.000000,0.000000,0.000000,0.000000,0.000000,0.000000,0.000000,0.000000,0.000000,0.000000,0.000000,0.000000,0.000000,0.000000,0.000000,,,,,,,,,,,,,,,,,,,,,,,,,,,,,,,,,,,,,,,,,,,,,,,,,,,,,,,,,,,,,,,,,,,,
1747914417.844896,1747914417.845284,14.000000,0.000000,4267.820313,4342.692383,4254.358887,4318.077148,4349.615234,4350.897461,4247.692383,4570.000000,4550.128418,4561.794922,4509.102539,5575.641113,4279.871582,4274.743652,0.000000,1.000000,18.000000,,,,0.000000,0.000000,0.000000,0.000000,0.000000,0.000000,0.000000,0.000000,0.000000,0.000000,0.000000,0.000000,0.000000,0.000000,0.000000,0.000000,,,,,,,,,,,,,,,,,,,,,,,,,,,,,,,,,,,,,,,,,,,,,,,,,,,,,,,,,,,,,,,0.000000,0.000000,1.000000,0.000000,2048.000000,0.000000
1747914417.848800,1747914417.849088,15.000000,0.000000,4256.922852,4338.333496,4256.025879,4319.871582,4348.846191,4355.128418,4249.743652,4569.871582,4550.000000,4560.512695,4506.538574,5572.563965,4267.436035,4268.461426,0.000000,1.000000,18.000000,,,,0.000000,0.000000,0.000000,0.000000,0.000000,0.000000,0.000000,0.000000,0.000000,0.000000,0.000000,0.000000,0.000000,0.000000,0.000000,0.000000,,,,,,,,,,,,,,,,,,,,,,,,,,,,,,,,,,,,,,,,,,,,,,,,,,,,,,,,,,,,,,,,,,,,
1747914417.852704,1747914417.852992,16.000000,0.000000,4238.461426,4332.692383,4256.538574,4320.000000,4349.230957,4362.179688,4255.769043,4569.102539,4547.307617,4558.717773,4500.641113,5565.384766,4234.230957,4257.563965,0.000000,1.000000,18.000000,,,,0.000000,0.000000,0.000000,0.000000,0.000000,0.000000,0.000000,0.000000,0.000000,0.000000,0.000000,0.000000,0.000000,0.000000,0.000000,0.000000,,,,,,,,,,,,,,,,,2.000000,0.000000,0.726595,-0.681641,0.062439,0.059387,-0.184105,-0.986449,0.061531,0.391950,-16.155016,34.726654,,,,,,,,,,,,,,,,,,,,,,,,,,,,,,,,,,,,,,,,
1747914417.856608,1747914417.856896,17.000000,0.000000,4230.512695,4332.948730,4255.769043,4317.820313,4348.717773,4363.589844,4255.128418,4567.948730,4544.615234,4558.077148,4498.974121,5564.230957,4204.358887,4255.512695,0.000000,1.000000,18.000000,,,,0.000000,0.000000,0.000000,0.000000,0.000000,0.000000,0.000000,0.000000,0.000000,0.000000,0.000000,0.000000,0.000000,0.000000,0.000000,0.000000,,,,,,,,,,,,,,,,,,,,,,,,,,,,,,,,,,,,,,,,,,,,,,,,,,,,,,,,,,,,,,,,,,,,
1747914417.860512,1747914417.860801,18.000000,0.000000,4234.487305,4338.717773,4254.358887,4314.615234,4346.794922,4357.948730,4246.410156,4567.307617,4543.717773,4559.102539,4502.692383,5571.282227,4187.179688,4264.230957,0.000000,1.000000,18.000000,,,,0.000000,0.000000,0.000000,0.000000,0.000000,0.000000,0.000000,0.000000,0.000000,0.000000,0.000000,0.000000,0.000000,0.000000,0.000000,0.000000,,,,,,,,,,,,,,,,,,,,,,,,,,,,,,,,,,,,,,,,,,,,,,,,,,,,,,,,,,,,,,,,,,,,
1747914417.864416,1747914417.864605,19.000000,0.000000,4237.563965,4342.948730,4252.948730,4313.589844,4345.128418,4352.563965,4240.897461,4567.820313,4544.230957,4560.384766,4505.384766,5577.436035,4180.128418,4271.794922,0.000000,1.000000,18.000000,,,,0.000000,0.000000,0.000000,0.000000,0.000000,0.000000,0.000000,0.000000,0.000000,0.000000,0.000000,0.000000,0.000000,0.000000,0.000000,0.000000,,,,,,,,,,,,,,,,,,,,,,,,,,,,,,,,,,,,,,,,,,,,,,,,,,,,,,,,,,,,,,,,,,,,
1747914417.868320,1747914417.868509,20.000000,0.000000,4230.769043,4340.769043,4252.436035,4316.410156,4345.512695,4353.717773,4248.589844,4568.974121,4544.743652,4560.128418,4501.538574,5573.717773,4178.717773,4268.077148,0.000000,1.000000,18.000000,,,,0.000000,0.000000,0.000000,0.000000,0.000000,0.000000,0.000000,0.000000,0.000000,0.000000,0.000000,0.000000,0.000000,0.000000,0.000000,0.000000,,,,,,,,,,,,,,,,,,,,,,,,,,,,,,,,,,,,,,,,,,,,,,,,,,,,,,,,,,,,,,,,,,,,
1747914417.872224,1747914417.872413,21.000000,0.000000,4220.641113,4335.769043,4252.436035,4321.153809,4347.051270,4358.205078,4260.641113,4569.615234,4545.128418,4558.846191,4494.358887,5563.589844,4184.102539,4257.948730,0.000000,1.000000,18.000000,,,,0.000000,0.000000,0.000000,0.000000,0.000000,0.000000,0.000000,0.000000,0.000000,0.000000,0.000000,0.000000,0.000000,0.000000,0.000000,0.000000,,,,,,,,,,,,,,,,,,,,,,,,,,,,,,,,,,,,,,,,,,,,,,,,,,,,,,,,,,,,,,,,,,,,
1747914417.876128,1747914417.876317,22.000000,0.000000,4224.615234,4335.128418,4252.692383,4323.461426,4347.820313,4358.333496,4263.077148,4569.743652,4546.025879,4558.205078,4492.436035,5558.461426,4206.922852,4254.358887,0.000000,1.000000,18.000000,,,,0.000000,0.000000,0.000000,0.000000,0.000000,0.000000,0.000000,0.000000,0.000000,0.000000,0.000000,0.000000,0.000000,0.000000,0.000000,0.000000,,,,,,,,,,,,,,,,,,,,,,,,,,,,,,,,,,,,,,,,,,,,,,,,,,,,,,,,,,,,,,,0.000000,0.000000,1.000000,0.000000,2048.000000,0.000000
1747914417.880032,1747914417.880121,23.000000,0.000000,4245.641113,4339.615234,4252.692383,4321.410156,4347.307617,4352.948730,4252.563965,4569.743652,4547.692383,4559.102539,4498.974121,5564.230957,4245.512695,4261.794922,0.000000,1.000000,18.000000,,,,0.000000,0.000000,0.000000,0.000000,0.000000,0.000000,0.000000,0.000000,0.000000,0.000000,0.000000,0.000000,0.000000,0.000000,0.000000,0.000000,,,,,,,,,,,,,,,,,,,,,,,,,,,,,,,,,,,,,,,,,,,,,,,,,,,,,,,,,,,,,,,,,,,,
1747914417.883936,1747914417.884025,24.000000,0.000000,4264.358887,4342.948730,4252.820313,4317.179688,4347.179688,4349.102539,4241.282227,4569.871582,4548.717773,4560.256348,4507.692383,5573.589844,4274.871582,4271.025879,0.000000,1.000000,18.000000,,,,0.000000,0.000000,0.000000,0.000000,0.000000,0.000000,0.000000,0.000000,0.000000,0.000000,0.000000,0.000000,0.000000,0.000000,0.000000,0.000000,,,,,,,,,,,,,,,,,3.000000,0.000000,0.726590,-0.681641,0.062500,0.059387,-0.179709,-0.984007,0.073251,0.402755,-16.306181,34.803989,,,,,,,,,,,,,,,,,,,,,,,,,,,,,,,,,,,,,,,,
1747914417.887840,1747914417.887929,25.000000,0.000000,4262.692383,4340.000000,4253.846191,4314.743652,4348.717773,4352.948730,4243.077148,4570.000000,4547.948730,4560.128418,4510.256348,5575.641113,4274.230957,4271.282227,0.000000,1.000000,18.000000,,,,0.000000,0.000000,0.000000,0.000000,0.000000,0.000000,0.000000,0.000000,0.000000,0.000000,0.000000,0.000000,0.000000,0.000000,0.000000,0.000000,,,,,,,,,,,,,,,,,,,,,,,,,,,,,,,,,,,,,,,,,,,,,,,,,,,,,,,,,,,,,,,,,,,,
1747914417.891745,1747914417.891933,26.000000,0.000000,4245.384766,4334.102539,4255.512695,4315.769043,4350.384766,4361.153809,4253.205078,4569.487305,4546.025879,4558.974121,4506.025879,5569.487305,4248.077148,4264.230957,0.000000,1.000000,18.000000,,,,0.000000,0.000000,0.000000,0.000000,0.000000,0.000000,0.000000,0.000000,0.000000,0.000000,0.000000,0.000000,0.000000,0.000000,0.000000,0.000000,,,,,,,,,,,,,,,,,,,,,,,,,,,,,,,,,,,,,,,,,,,,,,,,,,,,,,,,,,,,,,,,,,,,
1747914417.895649,1747914417.895838,27.000000,0.000000,4231.025879,4333.077148,4257.179688,4318.077148,4349.358887,4364.230957,4258.333496,4568.974121,4545.128418,4558.589844,4502.307617,5564.230957,4217.179688,4260.769043,0.000000,1.000000,18.000000,,,,0.000000,0.000000,0.000000,0.000000,0.000000,0.000000,0.000000,0.000000,0.000000,0.000000,0.000000,0.000000,0.000000,0.000000,0.000000,0.000000,,,,,,,,,,,,,,,,,,,,,,,,,,,,,,,,,,,,,,,,,,,,,,,,,,,,,,,,,,,,,,,,,,,,
1747914417.899552,1747914417.899742,28.000000,0.000000,4229.230957,4339.102539,4257.436035,4318.589844,4345.641113,4358.974121,4252.179688,4569.102539,4546.025879,4559.743652,4504.102539,5566.666504,4194.487305,4266.025879,0.000000,1.000000,18.000000,,,,0.000000,0.000000,0.000000,0.000000,0.000000,0.000000,0.000000,0.000000,0.000000,0.000000,0.000000,0.000000,0.000000,0.000000,0.000000,0.000000,,,,,,,,,,,,,,,,,,,,,,,,,,,,,,,,,,,,,,,,,,,,,,,,,,,,,,,,,,,,,,,,,,,,
1747914417.903457,1747914417.903646,29.000000,0.000000,4232.948730,4345.384766,4256.153809,4317.179688,4342.692383,4352.563965,4243.589844,4569.871582,4547.563965,4561.282227,4508.589844,5572.307617,4182.051270,4271.922852,0.000000,1.000000,18.000000,,,,0.000000,0.000000,0.000000,0.000000,0.000000,0.000000,0.000000,0.000000,0.000000,0.000000,0.000000,0.000000,0.000000,0.000000,0.000000,0.000000,,,,,,,,,,,,,,,,,,,,,,,,,,,,,,,,,,,,,,,,,,,,,,,,,,,,,,,,,,,,,,,,,,,,
1747914417.907361,1747914417.907650,30.000000,0.000000,4231.666504,4345.000000,4253.974121,4316.282227,4343.717773,4353.717773,4246.922852,4570.641113,4547.948730,4561.410156,4508.974121,5572.692383,4178.717773,4268.974121,0.000000,1.000000,18.000000,,,,0.000000,0.000000,0.000000,0.000000,0.000000,0.000000,0.000000,0.000000,0.000000,0.000000,0.000000,0.000000,0.000000,0.000000,0.000000,0.000000,,,,,,,,,,,,,,,,,,,,,,,,,,,,,,,,,,,,,,,,,,,,,,,,,,,,,,,,,,,,,,,0.000000,0.000000,1.000000,0.000000,2048.000000,0.000000
1747914417.911265,1747914417.911554,31.000000,0.000000,4225.641113,4338.974121,4252.179688,4317.179688,4348.077148,4361.025879,4258.846191,4570.512695,4546.666504,4559.871582,4504.102539,5567.179688,4184.230957,4259.871582,0.000000,1.000000,18.000000,,,,0.000000,0.000000,0.000000,0.000000,0.000000,0.000000,0.000000,0.000000,0.000000,0.000000,0.000000,0.000000,0.000000,0.000000,0.000000,0.000000,,,,,,,,,,,,,,,,,,,,,,,,,,,,,,,,,,,,,,,,,,,,,,,,,,,,,,,,,,,,,,,,,,,,
1747914417.915169,1747914417.915458,32.000000,0.000000,4227.436035,4334.871582,4251.666504,4318.717773,4351.794922,4365.000000,4263.077148,4570.128418,4545.256348,4558.333496,4500.000000,5563.974121,4204.871582,4257.307617,0.000000,1.000000,18.000000,,,,0.000000,0.000000,0.000000,0.000000,0.000000,0.000000,0.000000,0.000000,0.000000,0.000000,0.000000,0.000000,0.000000,0.000000,0.000000,0.000000,,,,,,,,,,,,,,,,,4.000000,0.000000,0.726637,-0.681580,0.062500,0.059509,-0.165059,-0.988402,0.064461,0.362479,-16.425562,34.773590,,,,,,,,,,,,,,,,,,,,,,,,,,,,,,,,,,,,,,,,
1747914417.919073,1747914417.919362,33.000000,0.000000,4243.846191,4337.051270,4252.179688,4318.974121,4351.794922,4360.000000,4252.692383,4570.641113,4545.512695,4558.717773,4501.794922,5569.102539,4240.641113,4266.410156,0.000000,1.000000,18.000000,,,,0.000000,0.000000,0.000000,0.000000,0.000000,0.000000,0.000000,0.000000,0.000000,0.000000,0.000000,0.000000,0.000000,0.000000,0.000000,0.000000,,,,,,,,,,,,,,,,,,,,,,,,,,,,,,,,,,,,,,,,,,,,,,,,,,,,,,,,,,,,,,,,,,,,
1747914417.922977,1747914417.923366,34.000000,0.000000,4261.538574,4341.410156,4253.077148,4317.820313,4349.358887,4351.794922,4238.974121,4572.051270,4547.179688,4560.641113,4506.538574,5577.436035,4267.692383,4277.051270,0.000000,1.000000,18.000000,,,,0.000000,0.000000,0.000000,0.000000,0.000000,0.000000,0.000000,0.000000,0.000000,0.000000,0.000000,0.000000,0.000000,0.000000,0.000000,0.000000,,,,,,,,,,,,,,,,,,,,,,,,,,,,,,,,,,,,,,,,,,,,,,,,,,,,,,,,,,,,,,,,,,,,
1747914417.926881,1747914417.927270,35.000000,0.000000,4262.692383,4341.666504,4253.846191,4316.794922,4347.563965,4350.000000,4239.487305,4572.948730,4548.717773,4562.436035,4507.563965,5578.846191,4264.615234,4275.641113,0.000000,1.000000,18.000000,,,,0.000000,0.000000,0.000000,0.000000,0.000000,0.000000,0.000000,0.000000,0.000000,0.000000,0.000000,0.000000,0.000000,0.000000,0.000000,0.000000,,,,,,,,,,,,,,,,,,,,,,,,,,,,,,,,,,,,,,,,,,,,,,,,,,,,,,,,,,,,,,,,,,,,
1747914417.930785,1747914417.931174,36.000000,0.000000,4247.692383,4337.436035,4254.487305,4317.436035,4347.820313,4356.282227,4252.692383,4572.051270,4548.974121,4562.948730,4503.333496,5571.282227,4236.410156,4263.077148,0.000000,1.000000,18.000000,,,,0.000000,0.000000,0.000000,0.000000,0.000000,0.000000,0.000000,0.000000,0.000000,0.000000,0.000000,0.000000,0.000000,0.000000,0.000000,0.000000,,,,,,,,,,,,,,,,,,,,,,,,,,,,,,,,,,,,,,,,,,,,,,,,,,,,,,,,,,,,,,,,,,,,
1747914417.934689,1747914417.935078,37.000000,0.000000,4233.333496,4334.871582,4255.128418,4318.589844,4348.589844,4362.307617,4261.666504,4570.000000,4548.461426,4562.563965,4499.871582,5564.230957,4207.948730,4254.230957,0.000000,1.000000,18.000000,,,,0.000000,0.000000,0.000000,0.000000,0.000000,0.000000,0.000000,0.000000,0.000000,0.000000,0.000000,0.000000,0.000000,0.000000,0.000000,0.000000,,,,,,,,,,,,,,,,,,,,,,,,,,,,,,,,,,,,,,,,,,,,,,,,,,,,,,,,,,,,,,,,,,,,
1747914417.938593,1747914417.938883,38.000000,0.000000,4231.410156,4337.563965,4255.641113,4318.589844,4347.948730,4360.897461,4256.153809,4568.717773,4548.205078,4562.307617,4502.436035,5565.769043,4196.025879,4259.743652,0.000000,1.000000,18.000000,,,,0.000000,0.000000,0.000000,0.000000,0.000000,0.000000,0.000000,0.000000,0.000000,0.000000,0.000000,0.000000,0.000000,0.000000,0.000000,0.000000,,,,,,,,,,,,,,,,,,,,,,,,,,,,,,,,,,,,,,,,,,,,,,,,,,,,,,,,,,,,1.000000,0.000000,0.000000,0.000000,0.000000,1.000000,0.000000,2048.000000,0.005640
1747914417.942497,1747914417.942787,39.000000,0.000000,4236.025879,4341.922852,4255.897461,4317.436035,4346.538574,4355.128418,4243.589844,4568.974121,4548.205078,4562.307617,4508.717773,5572.948730,4196.538574,4272.820313,0.000000,1.000000,18.000000,,,,0.000000,0.000000,0.000000,0.000000,0.000000,0.000000,0.000000,0.000000,0.000000,0.000000,0.000000,0.000000,0.000000,0.000000,0.000000,0.000000,,,,,,,,,,,,,,,,,,,,,,,,,,,,,,,,,,,,,,,,,,,,,,,,,,,,,,,,,,,,,,,,,,,,
1747914417.946401,1747914417.946691,40.000000,0.000000,4236.153809,4341.794922,4256.410156,4316.794922,4346.538574,4353.717773,4242.563965,4570.000000,4547.563965,4561.794922,4511.282227,5575.641113,4199.358887,4277.948730,0.000000,1.000000,18.000000,,,,0.000000,0.000000,0.000000,0.000000,0.000000,0.000000,0.000000,0.000000,0.000000,0.000000,0.000000,0.000000,0.000000,0.000000,0.000000,0.000000,,,,,,,,,,,,,,,,,5.000000,0.000000,0.726632,-0.681580,0.062500,0.059570,-0.181663,-0.970822,0.080088,0.426231,-16.549673,34.679565,,,,,,,,,,,,,,,,,,,,,,,,,,,,,,,,,,,,,,,,
1747914417.950305,1747914417.950695,41.000000,0.000000,4229.230957,4337.307617,4257.563965,4317.436035,4348.717773,4359.230957,4257.820313,4570.128418,4546.410156,4560.512695,4507.179688,5569.615234,4198.461426,4270.000000,0.000000,1.000000,18.000000,,,,0.000000,0.000000,0.000000,0.000000,0.000000,0.000000,0.000000,0.000000,0.000000,0.000000,0.000000,0.000000,0.000000,0.000000,0.000000,0.000000,,,,,,,,,,,,,,,,,,,,,,,,,,,,,,,,,,,,,,,,,,,,,,,,,,,,,,,,,,,,,,,,,,,,
1747914417.954209,1747914417.954599,42.000000,0.000000,4227.179688,4334.487305,4259.230957,4318.333496,4351.025879,4365.000000,4272.051270,4569.102539,4545.769043,4559.487305,4501.794922,5562.820313,4202.692383,4260.128418,0.000000,1.000000,18.000000,,,,0.000000,0.000000,0.000000,0.000000,0.000000,0.000000,0.000000,0.000000,0.000000,0.000000,0.000000,0.000000,0.000000,0.000000,0.000000,0.000000,,,,,,,,,,,,,,,,,,,,,,,,,,,,,,,,,,,,,,,,,,,,,,,,,,,,,,,,,,,,,,,,,,,,
1747914417.958113,1747914417.958503,43.000000,0.000000,4241.282227,4337.051270,4260.128418,4317.307617,4351.153809,4363.717773,4269.871582,4568.205078,4547.051270,4559.487305,4502.179688,5564.230957,4224.487305,4261.153809,0.000000,1.000000,18.000000,,,,0.000000,0.000000,0.000000,0.000000,0.000000,0.000000,0.000000,0.000000,0.000000,0.000000,0.000000,0.000000,0.000000,0.000000,0.000000,0.000000,,,,,,,,,,,,,,,,,,,,,,,,,,,,,,,,,,,,,,,,,,,,,,,,,,,,,,,,,,,,,,,,,,,,
1747914417.962017,1747914417.962407,44.000000,0.000000,4261.794922,4341.410156,4258.846191,4314.743652,4349.230957,4357.179688,4254.487305,4568.974121,4549.230957,4560.000000,4507.692383,5572.692383,4250.641113,4270.769043,0.000000,1.000000,18.000000,,,,0.000000,0.000000,0.000000,0.000000,0.000000,0.000000,0.000000,0.000000,0.000000,0.000000,0.000000,0.000000,0.000000,0.000000,0.000000,0.000000,,,,,,,,,,,,,,,,,,,,,,,,,,,,,,,,,,,,,,,,,,,,,,,,,,,,,,,,,,,,,,,,,,,,
1747914417.965921,1747914417.966311,45.000000,0.000000,4267.820313,4340.641113,4255.256348,4312.820313,4347.948730,4353.717773,4243.846191,4570.641113,4550.256348,4559.743652,4511.153809,5578.205078,4256.666504,4275.641113,0.000000,1.000000,18.000000,,,,0.000000,0.000000,0.000000,0.000000,0.000000,0.000000,0.000000,0.000000,0.000000,0.000000,0.000000,0.000000,0.000000,0.000000,0.000000,0.000000,,,,,,,,,,,,,,,,,,,,,,,,,,,,,,,,,,,,,,,,,,,,,,,,,,,,,,,,,,,,,,,,,,,,
1747914417.969825,1747914417.970115,46.000000,0.000000,4253.205078,4334.615234,4251.282227,4313.589844,4348.589844,4357.051270,4245.000000,4572.051270,4548.717773,4558.846191,4508.077148,5574.487305,4237.692383,4269.230957,0.000000,1.000000,18.000000,,,,0.000000,0.000000,0.000000,0.000000,0.000000,0.000000,0.000000,0.000000,0.000000,0.000000,0.000000,0.000000,0.000000,0.000000,0.000000,0.000000,,,,,,,,,,,,,,,,,,,,,,,,,,,,,,,,,,,,,,,,,,,,,,,,,,,,,,,,,,,,,,,0.000000,0.000000,1.000000,0.000000,2048.000000,0.005640
1747914417.973729,1747914417.974020,47.000000,0.000000,4233.333496,4330.512695,4249.743652,4316.153809,4349.871582,4361.666504,4248.077148,4572.051270,4545.769043,4558.077148,4502.179688,5567.436035,4212.948730,4260.000000,0.000000,1.000000,18.000000,,,,0.000000,0.000000,0.000000,0.000000,0.000000,0.000000,0.000000,0.000000,0.000000,0.000000,0.000000,0.000000,0.000000,0.000000,0.000000,0.000000,,,,,,,,,,,,,,,,,,,,,,,,,,,,,,,,,,,,,,,,,,,,,,,,,,,,,,,,,,,,,,,,,,,,
1747914417.977633,1747914417.977924,48.000000,0.000000,4225.897461,4333.589844,4252.307617,4317.948730,4349.615234,4360.256348,4243.974121,4571.282227,4543.974121,4558.846191,4500.512695,5566.538574,4201.922852,4259.615234,0.000000,1.000000,18.000000,,,,0.000000,0.000000,0.000000,0.000000,0.000000,0.000000,0.000000,0.000000,0.000000,0.000000,0.000000,0.000000,0.000000,0.000000,0.000000,0.000000,,,,,,,,,,,,,,,,,6.000000,0.000000,0.726746,-0.681458,0.062561,0.059509,-0.171408,-0.987425,0.080088,0.416942,-16.511372,34.578274,,,,,,,,,,,,,,,,,,,,,,,,,,,,,,,,,,,,,,,,
1747914417.981537,1747914417.981828,49.000000,0.000000,4230.256348,4340.384766,4257.820313,4317.820313,4348.077148,4354.230957,4234.487305,4571.153809,4544.487305,4560.641113,4503.974121,5572.436035,4202.948730,4267.436035,0.000000,1.000000,18.000000,,,,0.000000,0.000000,0.000000,0.000000,0.000000,0.000000,0.000000,0.000000,0.000000,0.000000,0.000000,0.000000,0.000000,0.000000,0.000000,0.000000,,,,,,,,,,,,,,,,,,,,,,,,,,,,,,,,,,,,,,,,,,,,,,,,,,,,,,,,,,,,,,,,,,,,
1747914417.985442,1747914417.985632,50.000000,0.000000,4234.358887,4342.820313,4262.436035,4317.051270,4346.666504,4351.282227,4234.358887,4572.179688,4545.512695,4562.179688,4507.051270,5576.153809,4205.384766,4271.794922,0.000000,1.000000,18.000000,,,,0.000000,0.000000,0.000000,0.000000,0.000000,0.000000,0.000000,0.000000,0.000000,0.000000,0.000000,0.000000,0.000000,0.000000,0.000000,0.000000,,,,,,,,,,,,,,,,,,,,,,,,,,,,,,,,,,,,,,,,,,,,,,,,,,,,,,,,,,,,,,,,,,,,
1747914417.989346,1747914417.989536,51.000000,0.000000,4231.153809,4338.717773,4263.205078,4317.051270,4347.051270,4355.641113,4252.051270,4573.333496,4545.384766,4561.922852,4505.384766,5571.666504,4202.563965,4266.282227,0.000000,1.000000,18.000000,,,,0.000000,0.000000,0.000000,0.000000,0.000000,0.000000,0.000000,0.000000,0.000000,0.000000,0.000000,0.000000,0.000000,0.000000,0.000000,0.000000,,,,,,,,,,,,,,,,,,,,,,,,,,,,,,,,,,,,,,,,,,,,,,,,,,,,,,,,,,,,,,,,,,,,
1747914417.993250,1747914417.993440,52.000000,0.000000,4228.717773,4334.358887,4259.615234,4317.820313,4348.461426,4361.922852,4272.436035,4573.333496,4544.358887,4560.769043,4501.666504,5564.102539,4200.769043,4258.717773,0.000000,1.000000,18.000000,,,,0.000000,0.000000,0.000000,0.000000,0.000000,0.000000,0.000000,0.000000,0.000000,0.000000,0.000000,0.000000,0.000000,0.000000,0.000000,0.000000,,,,,,,,,,,,,,,,,,,,,,,,,,,,,,,,,,,,,,,,,,,,,,,,,,,,,,,,,,,,,,,,,,,,
1747914417.997154,1747914417.997444,53.000000,0.000000,4239.871582,4335.897461,4254.487305,4317.436035,4349.102539,4362.051270,4276.025879,4572.307617,4543.846191,4560.000000,4501.410156,5563.333496,4215.641113,4260.384766,0.000000,1.000000,18.000000,,,,0.000000,0.000000,0.000000,0.000000,0.000000,0.000000,0.000000,0.000000,0.000000,0.000000,0.000000,0.000000,0.000000,0.000000,0.000000,0.000000,,,,,,,,,,,,,,,,,,,,,,,,,,,,,,,,,,,,,,,,,,,,,,,,,,,,,,,,,,,,,,,,,,,,
1747914418.001058,1747914418.001348,54.000000,0.000000,4260.000000,4341.282227,4251.025879,4315.641113,4348.846191,4356.282227,4261.538574,4571.025879,4544.743652,4560.384766,4505.512695,5570.512695,4243.205078,4270.512695,0.000000,1.000000,18.000000,,,,0.000000,0.000000,0.000000,0.000000,0.000000,0.000000,0.000000,0.000000,0.000000,0.000000,0.000000,0.000000,0.000000,0.000000,0.000000,0.000000,,,,,,,,,,,,,,,,,,,,,,,,,,,,,,,,,,,,,,,,,,,,,,,,,,,,,,,,,,,,,,,0.000000,0.000000,1.000000,0.000000,2048.000000,0.005640
1747914418.004962,1747914418.005252,55.000000,0.000000,4269.102539,4343.205078,4251.025879,4314.102539,4348.974121,4352.436035,4244.871582,4570.256348,4545.384766,4560.641113,4508.589844,5576.410156,4259.102539,4277.051270,0.000000,1.000000,18.000000,,,,0.000000,0.000000,0.000000,0.000000,0.000000,0.000000,0.000000,0.000000,0.000000,0.000000,0.000000,0.000000,0.000000,0.000000,0.000000,0.000000,,,,,,,,,,,,,,,,,,,,,,,,,,,,,,,,,,,,,,,,,,,,,,,,,,,,,,,,,,,,,,,,,,,,
1747914418.008866,1747914418.009157,56.000000,0.000000,4257.307617,4339.230957,4253.717773,4314.743652,4350.000000,4355.384766,4237.820313,4570.000000,4544.871582,4559.871582,4506.410156,5573.333496,4248.717773,4271.794922,0.000000,1.000000,18.000000,,,,0.000000,0.000000,0.000000,0.000000,0.000000,0.000000,0.000000,0.000000,0.000000,0.000000,0.000000,0.000000,0.000000,0.000000,0.000000,0.000000,,,,,,,,,,,,,,,,,7.000000,0.000000,0.726808,-0.681396,0.062622,0.059387,-0.151386,-0.981565,0.062019,0.391914,-16.460236,34.587112,,,,,,,,,,,,,,,,,,,,,,,,,,,,,,,,,,,,,,,,
1747914418.012770,1747914418.013161,57.000000,0.000000,4236.922852,4335.128418,4256.666504,4316.666504,4351.025879,4360.769043,4234.358887,4569.615234,4543.846191,4558.846191,4501.538574,5564.871582,4223.333496,4262.051270,0.000000,1.000000,18.000000,,,,0.000000,0.000000,0.000000,0.000000,0.000000,0.000000,0.000000,0.000000,0.000000,0.000000,0.000000,0.000000,0.000000,0.000000,0.000000,0.000000,,,,,,,,,,,,,,,,,,,,,,,,,,,,,,,,,,,,,,,,,,,,,,,,,,,,,,,,,,,,,,,,,,,,
1747914418.016674,1747914418.017065,58.000000,0.000000,4227.179688,4337.563965,4257.820313,4317.436035,4350.384766,4360.512695,4228.077148,4569.230957,4543.974121,4558.974121,4500.256348,5561.794922,4203.589844,4260.641113,0.000000,1.000000,18.000000,,,,0.000000,0.000000,0.000000,0.000000,0.000000,0.000000,0.000000,0.000000,0.000000,0.000000,0.000000,0.000000,0.000000,0.000000,0.000000,0.000000,,,,,,,,,,,,,,,,,,,,,,,,,,,,,,,,,,,,,,,,,,,,,,,,,,,,,,,,,,,,,,,,,,,,
1747914418.020578,1747914418.020969,59.000000,0.000000,4232.051270,4343.974121,4256.666504,4315.641113,4348.333496,4354.358887,4221.922852,4569.230957,4545.641113,4560.384766,4504.230957,5567.820313,4195.512695,4270.128418,0.000000,1.000000,18.000000,,,,0.000000,0.000000,0.000000,0.000000,0.000000,0.000000,0.000000,0.000000,0.000000,0.000000,0.000000,0.000000,0.000000,0.000000,0.000000,0.000000,,,,,,,,,,,,,,,,,,,,,,,,,,,,,,,,,,,,,,,,,,,,,,,,,,,,,,,,,,,,,,,,,,,,
1747914418.024482,1747914418.024873,60.000000,0.000000,4240.256348,4345.769043,4254.487305,4313.461426,4347.051270,4350.384766,4229.743652,4570.128418,4547.307617,4561.538574,4508.333496,5575.128418,4193.589844,4278.846191,0.000000,1.000000,18.000000,,,,0.000000,0.000000,0.000000,0.000000,0.000000,0.000000,0.000000,0.000000,0.000000,0.000000,0.000000,0.000000,0.000000,0.000000,0.000000,0.000000,,,,,,,,,,,,,,,,,,,,,,,,,,,,,,,,,,,,,,,,,,,,,,,,,,,,,,,,,,,,,,,,,,,,
1747914418.028386,1747914418.028877,61.000000,0.000000,4239.743652,4338.717773,4253.077148,4313.333496,4348.077148,4354.358887,4259.487305,4571.282227,4547.563965,4560.769043,4507.692383,5574.743652,4192.307617,4276.666504,0.000000,1.000000,18.000000,,,,0.000000,0.000000,0.000000,0.000000,0.000000,0.000000,0.000000,0.000000,0.000000,0.000000,0.000000,0.000000,0.000000,0.000000,0.000000,0.000000,,,,,,,,,,,,,,,,,,,,,,,,,,,,,,,,,,,,,,,,,,,,,,,,,,,,,,,,,,,,,,,,,,,,
1747914418.032290,1747914418.032781,62.000000,0.000000,4232.563965,4329.358887,4253.077148,4315.641113,4349.871582,4361.666504,4292.179688,4571.794922,4546.794922,4558.461426,4504.102539,5567.820313,4194.230957,4267.307617,0.000000,1.000000,18.000000,,,,0.000000,0.000000,0.000000,0.000000,0.000000,0.000000,0.000000,0.000000,0.000000,0.000000,0.000000,0.000000,0.000000,0.000000,0.000000,0.000000,,,,,,,,,,,,,,,,,,,,,,,,,,,,,,,,,,,,,,,,,,,,,,,,,,,,,,,,,,,,,,,0.000000,0.000000,1.000000,0.000000,2048.000000,0.005640
1747914418.036194,1747914418.036685,63.000000,0.000000,4233.333496,4327.436035,4253.589844,4317.692383,4350.256348,4363.077148,4300.512695,4571.666504,4546.794922,4556.922852,4503.205078,5563.974121,4211.538574,4262.948730,0.000000,1.000000,18.000000,,,,0.000000,0.000000,0.000000,0.000000,0.000000,0.000000,0.000000,0.000000,0.000000,0.000000,0.000000,0.000000,0.000000,0.000000,0.000000,0.000000,,,,,,,,,,,,,,,,,,,,,,,,,,,,,,,,,,,,,,,,,,,,,,,,,,,,,,,,,,,,,,,,,,,,
1747914418.040098,1747914418.040589,64.000000,0.000000,4248.333496,4334.102539,4253.461426,4317.436035,4348.461426,4355.897461,4277.692383,4571.538574,4548.077148,4557.179688,4506.538574,5567.948730,4244.102539,4268.205078,0.000000,1.000000,18.000000,,,,0.000000,0.000000,0.000000,0.000000,0.000000,0.000000,0.000000,0.000000,0.000000,0.000000,0.000000,0.000000,0.000000,0.000000,0.000000,0.000000,,,,,,,,,,,,,,,,,8.000000,0.000000,0.726767,-0.681458,0.062378,0.059448,-0.170919,-0.987914,0.063973,0.436056,-16.480879,34.628403,,,,,,,,,,,,,,,,,,,,,,,,,,,,,,,,,,,,,,,,
1747914418.044002,1747914418.044393,65.000000,0.000000,4263.333496,4340.897461,4252.563965,4315.128418,4346.922852,4348.717773,4244.230957,4571.666504,4549.358887,4558.333496,4508.717773,5573.717773,4268.461426,4273.717773,0.000000,1.000000,18.000000,,,,0.000000,0.000000,0.000000,0.000000,0.000000,0.000000,0.000000,0.000000,0.000000,0.000000,0.000000,0.000000,0.000000,0.000000,0.000000,0.000000,,,,,,,,,,,,,,,,,,,,,,,,,,,,,,,,,,,,,,,,,,,,,,,,,,,,,,,,,,,,,,,,,,,,
1747914418.047906,1747914418.048297,66.000000,0.000000,4263.077148,4340.128418,4252.051270,4313.589844,4347.307617,4350.128418,4225.769043,4571.666504,4548.974121,4558.974121,4505.128418,5572.948730,4264.743652,4270.128418,0.000000,1.000000,18.000000,,,,0.000000,0.000000,0.000000,0.000000,0.000000,0.000000,0.000000,0.000000,0.000000,0.000000,0.000000,0.000000,0.000000,0.000000,0.000000,0.000000,,,,,,,,,,,,,,,,,,,,,,,,,,,,,,,,,,,,,,,,,,,,,,,,,,,,,,,,,,,,,,,,,,,,
1747914418.051810,1747914418.052202,67.000000,0.000000,4249.871582,4334.230957,4252.948730,4314.230957,4348.589844,4357.820313,4225.769043,4570.769043,4546.922852,4558.974121,4498.589844,5567.179688,4238.974121,4260.897461,0.000000,1.000000,18.000000,,,,0.000000,0.000000,0.000000,0.000000,0.000000,0.000000,0.000000,0.000000,0.000000,0.000000,0.000000,0.000000,0.000000,0.000000,0.000000,0.000000,,,,,,,,,,,,,,,,,,,,,,,,,,,,,,,,,,,,,,,,,,,,,,,,,,,,,,,,,,,,,,,,,,,,
1747914418.055714,1747914418.056106,68.000000,0.000000,4238.589844,4331.794922,4254.871582,4316.025879,4348.333496,4362.307617,4232.307617,4569.358887,4544.871582,4559.230957,4496.794922,5565.128418,4212.692383,4258.333496,0.000000,1.000000,18.000000,,,,0.000000,0.000000,0.000000,0.000000,0.000000,0.000000,0.000000,0.000000,0.000000,0.000000,0.000000,0.000000,0.000000,0.000000,0.000000,0.000000,,,,,,,,,,,,,,,,,,,,,,,,,,,,,,,,,,,,,,,,,,,,,,,,,,,,,,,,,,,,,,,,,,,,
1747914418.059618,1747914418.059910,69.000000,0.000000,4236.153809,4336.538574,4256.410156,4317.436035,4345.897461,4358.461426,4234.743652,4568.461426,4544.230957,4560.641113,4502.307617,5570.384766,4197.179688,4266.666504,0.000000,1.000000,18.000000,,,,0.000000,0.000000,0.000000,0.000000,0.000000,0.000000,0.000000,0.000000,0.000000,0.000000,0.000000,0.000000,0.000000,0.000000,0.000000,0.000000,,,,,,,,,,,,,,,,,,,,,,,,,,,,,,,,,,,,,,,,,,,,,,,,,,,,,,,,,,,,,,,,,,,,
1747914418.063522,1747914418.063814,70.000000,0.000000,4236.410156,4342.563965,4256.794922,4317.820313,4343.846191,4352.436035,4236.025879,4568.205078,4544.487305,4561.922852,4508.974121,5576.025879,4190.128418,4276.025879,0.000000,1.000000,18.000000,,,,0.000000,0.000000,0.000000,0.000000,0.000000,0.000000,0.000000,0.000000,0.000000,0.000000,0.000000,0.000000,0.000000,0.000000,0.000000,0.000000,,,,,,,,,,,,,,,,,,,,,,,,,,,,,,,,,,,,,,,,,,,,,,,,,,,,,,,,,,,,1.000000,0.000000,0.000000,0.000000,0.000000,1.000000,0.000000,2048.000000,0.009237
1747914418.067427,1747914418.067718,71.000000,0.000000,4231.922852,4342.820313,4256.538574,4317.948730,4344.615234,4352.692383,4249.230957,4568.461426,4544.487305,4562.179688,4509.743652,5573.461426,4187.179688,4274.871582,0.000000,1.000000,18.000000,,,,0.000000,0.000000,0.000000,0.000000,0.000000,0.000000,0.000000,0.000000,0.000000,0.000000,0.000000,0.000000,0.000000,0.000000,0.000000,0.000000,,,,,,,,,,,,,,,,,,,,,,,,,,,,,,,,,,,,,,,,,,,,,,,,,,,,,,,,,,,,,,,,,,,,
1747914418.071331,1747914418.071722,72.000000,0.000000,4226.153809,4337.436035,4256.666504,4317.820313,4347.436035,4358.974121,4269.871582,4568.846191,4543.974121,4561.794922,4505.000000,5564.230957,4188.333496,4264.871582,0.000000,1.000000,18.000000,,,,0.000000,0.000000,0.000000,0.000000,0.000000,0.000000,0.000000,0.000000,0.000000,0.000000,0.000000,0.000000,0.000000,0.000000,0.000000,0.000000,,,,,,,,,,,,,,,,,9.000000,0.000000,0.726772,-0.681458,0.062317,0.059448,-0.183616,-0.984984,0.064461,0.375784,-16.432791,34.548897,,,,,,,,,,,,,,,,,,,,,,,,,,,,,,,,,,,,,,,,
1747914418.075235,1747914418.075626,73.000000,0.000000,4231.538574,4333.589844,4257.179688,4316.410156,4349.358887,4362.692383,4278.846191,4569.615234,4544.230957,4562.051270,4501.410156,5558.846191,4204.230957,4258.846191,0.000000,1.000000,18.000000,,,,0.000000,0.000000,0.000000,0.000000,0.000000,0.000000,0.000000,0.000000,0.000000,0.000000,0.000000,0.000000,0.000000,0.000000,0.000000,0.000000,,,,,,,,,,,,,,,,,,,,,,,,,,,,,,,,,,,,,,,,,,,,,,,,,,,,,,,,,,,,,,,,,,,,
1747914418.079139,1747914418.079530,74.000000,0.000000,4251.922852,4335.641113,4256.922852,4313.974121,4348.717773,4359.230957,4267.179688,4570.641113,4546.153809,4563.461426,4503.333496,5563.461426,4239.230957,4264.230957,0.000000,1.000000,18.000000,,,,0.000000,0.000000,0.000000,0.000000,0.000000,0.000000,0.000000,0.000000,0.000000,0.000000,0.000000,0.000000,0.000000,0.000000,0.000000,0.000000,,,,,,,,,,,,,,,,,,,,,,,,,,,,,,,,,,,,,,,,,,,,,,,,,,,,,,,,,,,,,,,,,,,,
1747914418.083043,1747914418.083434,75.000000,0.000000,4271.794922,4340.512695,4255.256348,4312.051270,4347.179688,4353.589844,4247.307617,4571.538574,4548.461426,4564.487305,4507.179688,5571.922852,4271.282227,4273.205078,0.000000,1.000000,18.000000,,,,0.000000,0.000000,0.000000,0.000000,0.000000,0.000000,0.000000,0.000000,0.000000,0.000000,0.000000,0.000000,0.000000,0.000000,0.000000,0.000000,,,,,,,,,,,,,,,,,,,,,,,,,,,,,,,,,,,,,,,,,,,,,,,,,,,,,,,,,,,,,,,,,,,,
1747914418.086947,1747914418.087438,76.000000,0.000000,4273.077148,4341.538574,4254.102539,4312.948730,4347.179688,4353.333496,4237.436035,4571.410156,4548.717773,4563.589844,4506.794922,5573.846191,4274.487305,4273.589844,0.000000,1.000000,18.000000,,,,0.000000,0.000000,0.000000,0.000000,0.000000,0.000000,0.000000,0.000000,0.000000,0.000000,0.000000,0.000000,0.000000,0.000000,0.000000,0.000000,,,,,,,,,,,,,,,,,,,,,,,,,,,,,,,,,,,,,,,,,,,,,,,,,,,,,,,,,,,,,,,,,,,,
1747914418.090851,1747914418.091342,77.000000,0.000000,4256.025879,4337.948730,4255.128418,4316.410156,4348.974121,4358.205078,4239.487305,4570.256348,4546.794922,4561.153809,4502.436035,5567.307617,4248.205078,4265.000000,0.000000,1.000000,18.000000,,,,0.000000,0.000000,0.000000,0.000000,0.000000,0.000000,0.000000,0.000000,0.000000,0.000000,0.000000,0.000000,0.000000,0.000000,0.000000,0.000000,,,,,,,,,,,,,,,,,,,,,,,,,,,,,,,,,,,,,,,,,,,,,,,,,,,,,,,,,,,,,,,,,,,,
1747914418.094755,1747914418.095247,78.000000,0.000000,4238.846191,4335.000000,4258.333496,4319.743652,4350.256348,4360.512695,4242.692383,4568.717773,4544.743652,4559.358887,4500.384766,5561.410156,4215.384766,4259.615234,0.000000,1.000000,18.000000,,,,0.000000,0.000000,0.000000,0.000000,0.000000,0.000000,0.000000,0.000000,0.000000,0.000000,0.000000,0.000000,0.000000,0.000000,0.000000,0.000000,,,,,,,,,,,,,,,,,,,,,,,,,,,,,,,,,,,,,,,,,,,,,,,,,,,,,,,,,,,,,,,0.000000,0.000000,1.000000,0.000000,2048.000000,0.009237
