title:bread1, start timestamp:1737283919.408760, stop timestamp:1737283922.446108, headset type:EPOCX, headset serial:E50208A5, headset firmware:720, channels:168, sampling rate:eeg_128;mot_32;pm_0.1;pow_8, samples:390       , version:2.2, 
Timestamp,OriginalTimestamp,EEG.Counter,EEG.Interpolated,EEG.AF3,EEG.F7,EEG.F3,EEG.FC5,EEG.T7,EEG.P7,EEG.O1,EEG.O2,EEG.P8,EEG.T8,EEG.FC6,EEG.F4,EEG.F8,EEG.AF4,EEG.RawCq,EEG.Battery,EEG.BatteryPercent,MarkerIndex,MarkerType,MarkerValueInt,EEG.MarkerHardware,CQ.AF3,CQ.F7,CQ.F3,CQ.FC5,CQ.T7,CQ.P7,CQ.O1,CQ.O2,CQ.P8,CQ.T8,CQ.FC6,CQ.F4,CQ.F8,CQ.AF4,CQ.Overall,EQ.SampleRateQuality,EQ.OVERALL,EQ.AF3,EQ.F7,EQ.F3,EQ.FC5,EQ.T7,EQ.P7,EQ.O1,EQ.O2,EQ.P8,EQ.T8,EQ.FC6,EQ.F4,EQ.F8,EQ.AF4,MOT.CounterMems,MOT.InterpolatedMems,MOT.Q0,MOT.Q1,MOT.Q2,MOT.Q3,MOT.AccX,MOT.AccY,MOT.AccZ,MOT.MagX,MOT.MagY,MOT.MagZ,PM.Attention.IsActive,PM.Attention.Scaled,PM.Attention.Raw,PM.Attention.Min,PM.Attention.Max,PM.Engagement.IsActive,PM.Engagement.Scaled,PM.Engagement.Raw,PM.Engagement.Min,PM.Engagement.Max,PM.Excitement.IsActive,PM.Excitement.Scaled,PM.Excitement.Raw,PM.Excitement.Min,PM.Excitement.Max,PM.LongTermExcitement,PM.Stress.IsActive,PM.Stress.Scaled,PM.Stress.Raw,PM.Stress.Min,PM.Stress.Max,PM.Relaxation.IsActive,PM.Relaxation.Scaled,PM.Relaxation.Raw,PM.Relaxation.Min,PM.Relaxation.Max,PM.Interest.IsActive,PM.Interest.Scaled,PM.Interest.Raw,PM.Interest.Min,PM.Interest.Max,POW.AF3.Theta,POW.AF3.Alpha,POW.AF3.BetaL,POW.AF3.BetaH,POW.AF3.Gamma,POW.F7.Theta,POW.F7.Alpha,POW.F7.BetaL,POW.F7.BetaH,POW.F7.Gamma,POW.F3.Theta,POW.F3.Alpha,POW.F3.BetaL,POW.F3.BetaH,POW.F3.Gamma,POW.FC5.Theta,POW.FC5.Alpha,POW.FC5.BetaL,POW.FC5.BetaH,POW.FC5.Gamma,POW.T7.Theta,POW.T7.Alpha,POW.T7.BetaL,POW.T7.BetaH,POW.T7.Gamma,POW.P7.Theta,POW.P7.Alpha,POW.P7.BetaL,POW.P7.BetaH,POW.P7.Gamma,POW.O1.Theta,POW.O1.Alpha,POW.O1.BetaL,POW.O1.BetaH,POW.O1.Gamma,POW.O2.Theta,POW.O2.Alpha,POW.O2.BetaL,POW.O2.BetaH,POW.O2.Gamma,POW.P8.Theta,POW.P8.Alpha,POW.P8.BetaL,POW.P8.BetaH,POW.P8.Gamma,POW.T8.Theta,POW.T8.Alpha,POW.T8.BetaL,POW.T8.BetaH,POW.T8.Gamma,POW.FC6.Theta,POW.FC6.Alpha,POW.FC6.BetaL,POW.FC6.BetaH,POW.FC6.Gamma,POW.F4.Theta,POW.F4.Alpha,POW.F4.BetaL,POW.F4.BetaH,POW.F4.Gamma,POW.F8.Theta,POW.F8.Alpha,POW.F8.BetaL,POW.F8.BetaH,POW.F8.Gamma,POW.AF4.Theta,POW.AF4.Alpha,POW.AF4.BetaL,POW.AF4.BetaH,POW.AF4.Gamma
1737283919.408760,1737283919.409126,44.000000,0.000000,4335.512695,4351.282227,4267.436035,4321.922852,4352.436035,4358.205078,4365.000000,4556.025879,4551.153809,4564.102539,4497.051270,5649.230957,4305.512695,4263.333496,0.000000,1.000000,33.000000,,,,0.000000,0.000000,0.000000,0.000000,0.000000,0.000000,0.000000,0.000000,0.000000,0.000000,0.000000,0.000000,0.000000,0.000000,0.000000,0.000000,1.000000,0.000000,0.000000,0.000000,0.000000,0.000000,0.000000,0.000000,0.000000,0.000000,0.000000,0.000000,0.000000,0.000000,0.000000,0.000000,11.000000,0.000000,0.658862,-0.750183,0.017883,0.052979,-0.104505,-0.980588,-0.131364,15.120319,-30.773823,16.790245,,,,,,,,,,,,,,,,,,,,,,,,,,,,,,,,0.024997,0.044288,0.039319,0.023990,0.017105,0.023119,0.030472,0.030598,0.017355,0.026602,0.019603,0.026184,0.019067,0.021901,0.024721,0.043986,0.029190,0.025036,0.031010,0.029488,0.025106,0.011685,0.013007,0.016095,0.016506,0.027768,0.023268,0.026024,0.029021,0.034249,0.073130,0.024559,0.029666,0.019871,0.028275,0.020929,0.008570,0.016350,0.023401,0.026594,0.037580,0.037394,0.014659,0.023440,0.022409,0.029695,0.020335,0.020720,0.035426,0.038731,0.025798,0.043471,0.029233,0.024079,0.031321,0.005939,0.021729,0.018091,0.035264,0.024136,0.011263,0.022524,0.014809,0.024718,0.024443,0.012931,0.023760,0.018148,0.026478,0.050567
1737283919.416569,1737283919.416834,45.000000,0.000000,4334.358887,4350.641113,4264.102539,4315.512695,4353.205078,4361.153809,4366.666504,4554.743652,4553.846191,4564.358887,4496.025879,5648.461426,4306.025879,4257.563965,0.000000,1.000000,33.000000,,,,0.000000,0.000000,0.000000,0.000000,0.000000,0.000000,0.000000,0.000000,0.000000,0.000000,0.000000,0.000000,0.000000,0.000000,0.000000,0.000000,,,,,,,,,,,,,,,,,,,,,,,,,,,,,,,,,,,,,,,,,,,,,,,,,,,,,,,,,,,,,,,,,,,,,,,,,,,,,,,,,,,,,,,,,,,,,,,,,,,,,,,,,,,,,,,,,,,,,,,,,,,,,,,,,
1737283919.424377,1737283919.424642,46.000000,0.000000,4331.666504,4352.051270,4268.846191,4322.051270,4354.230957,4360.256348,4366.025879,4555.384766,4554.230957,4563.589844,4493.077148,5645.384766,4307.563965,4261.153809,0.000000,1.000000,33.000000,,,,0.000000,0.000000,0.000000,0.000000,0.000000,0.000000,0.000000,0.000000,0.000000,0.000000,0.000000,0.000000,0.000000,0.000000,0.000000,0.000000,,,,,,,,,,,,,,,,,,,,,,,,,,,,,,,,,,,,,,,,,,,,,,,,,,,,,,,,,,,,,,,,,,,,,,,,,,,,,,,,,,,,,,,,,,,,,,,,,,,,,,,,,,,,,,,,,,,,,,,,,,,,,,,,,
1737283919.432185,1737283919.432350,47.000000,0.000000,4333.461426,4352.307617,4271.794922,4326.666504,4352.948730,4358.846191,4366.538574,4555.512695,4552.563965,4563.974121,4493.461426,5644.871582,4303.974121,4263.717773,0.000000,1.000000,33.000000,,,,0.000000,0.000000,0.000000,0.000000,0.000000,0.000000,0.000000,0.000000,0.000000,0.000000,0.000000,0.000000,0.000000,0.000000,0.000000,0.000000,,,,,,,,,,,,,,,,,,,,,,,,,,,,,,,,,,,,,,,,,,,,,,,,,,,,,,,,,,,,,,,,,,,,,,,,,,,,,,,,,,,,,,,,,,,,,,,,,,,,,,,,,,,,,,,,,,,,,,,,,,,,,,,,,
1737283919.439993,1737283919.440158,48.000000,0.000000,4332.563965,4353.589844,4269.615234,4320.769043,4352.436035,4360.128418,4365.897461,4555.769043,4551.794922,4563.589844,4496.282227,5646.538574,4302.179688,4259.871582,0.000000,1.000000,33.000000,,,,0.000000,0.000000,0.000000,0.000000,0.000000,0.000000,0.000000,0.000000,0.000000,0.000000,0.000000,0.000000,0.000000,0.000000,0.000000,0.000000,,,,,,,,,,,,,,,,,12.000000,0.000000,0.658862,-0.750183,0.017883,0.052979,-0.108412,-0.973752,-0.125504,15.008287,-30.696440,16.711222,,,,,,,,,,,,,,,,,,,,,,,,,,,,,,,,,,,,,,,,,,,,,,,,,,,,,,,,,,,,,,,,,,,,,,,,,,,,,,,,,,,,,,,,,,,,,,,,,,,,,
1737283919.447801,1737283919.447866,49.000000,0.000000,4332.820313,4356.538574,4269.358887,4320.256348,4353.717773,4361.025879,4363.589844,4556.282227,4552.051270,4563.461426,4495.641113,5648.333496,4305.641113,4262.307617,0.000000,1.000000,33.000000,,,,0.000000,0.000000,0.000000,0.000000,0.000000,0.000000,0.000000,0.000000,0.000000,0.000000,0.000000,0.000000,0.000000,0.000000,0.000000,0.000000,,,,,,,,,,,,,,,,,,,,,,,,,,,,,,,,,,,,,,,,,,,,,,,,,,,,,,,,,,,,,,,,,,,,,,,,,,,,,,,,,,,,,,,,,,,,,,,,,,,,,,,,,,,,,,,,,,,,,,,,,,,,,,,,,
1737283919.455609,1737283919.455774,50.000000,0.000000,4333.974121,4351.153809,4267.307617,4321.153809,4353.205078,4360.384766,4366.410156,4556.153809,4552.179688,4564.615234,4491.666504,5644.871582,4304.487305,4262.692383,0.000000,1.000000,33.000000,,,,0.000000,0.000000,0.000000,0.000000,0.000000,0.000000,0.000000,0.000000,0.000000,0.000000,0.000000,0.000000,0.000000,0.000000,0.000000,0.000000,,,,,,,,,,,,,,,,,,,,,,,,,,,,,,,,,,,,,,,,,,,,,,,,,,,,,,,,,,,,,,,,,,,,,,,,,,,,,,,,,,,,,,,,,,,,,,,,,,,,,,,,,,,,,,,,,,,,,,,,,,,,,,,,,
1737283919.463417,1737283919.463582,51.000000,0.000000,4336.922852,4348.333496,4269.230957,4322.307617,4352.307617,4358.205078,4366.025879,4553.333496,4552.051270,4563.333496,4495.000000,5645.641113,4307.051270,4264.102539,0.000000,1.000000,33.000000,,,,0.000000,0.000000,0.000000,0.000000,0.000000,0.000000,0.000000,0.000000,0.000000,0.000000,0.000000,0.000000,0.000000,0.000000,0.000000,0.000000,,,,,,,,,,,,,,,,,,,,,,,,,,,,,,,,,,,,,,,,,,,,,,,,,,,,,,,,,,,,,,,,,,,,,,,,,,,,,,,,,,,,,,,,,,,,,,,,,,,,,,,,,,,,,,,,,,,,,,,,,,,,,,,,,
1737283919.471225,1737283919.471490,52.000000,0.000000,4336.794922,4351.282227,4270.384766,4323.205078,4353.846191,4359.230957,4366.282227,4552.563965,4553.846191,4561.538574,4496.282227,5645.641113,4307.820313,4262.051270,0.000000,1.000000,33.000000,,,,0.000000,0.000000,0.000000,0.000000,0.000000,0.000000,0.000000,0.000000,0.000000,0.000000,0.000000,0.000000,0.000000,0.000000,0.000000,0.000000,,,,,,,,,,,,,,,,,13.000000,0.000000,0.658865,-0.750183,0.017761,0.052979,-0.104993,-0.979612,-0.127945,15.207458,-30.760130,16.640099,,,,,,,,,,,,,,,,,,,,,,,,,,,,,,,,,,,,,,,,,,,,,,,,,,,,,,,,,,,,,,,,,,,,,,,,,,,,,,,,,,,,,,,,,,,,,,,,,,,,,
1737283919.479033,1737283919.479298,53.000000,0.000000,4332.179688,4353.205078,4269.102539,4320.256348,4354.615234,4363.461426,4367.692383,4556.153809,4555.256348,4564.102539,4492.948730,5643.205078,4304.487305,4259.615234,0.000000,1.000000,33.000000,,,,0.000000,0.000000,0.000000,0.000000,0.000000,0.000000,0.000000,0.000000,0.000000,0.000000,0.000000,0.000000,0.000000,0.000000,0.000000,0.000000,,,,,,,,,,,,,,,,,,,,,,,,,,,,,,,,,,,,,,,,,,,,,,,,,,,,,,,,,,,,,,,,,,,,,,,,,,,,,,,,,,,,,,,,,,,,,,,,,,,,,,,,,,,,,,,,,,,,,,,,,,,,,,,,,
1737283919.486841,1737283919.487207,54.000000,0.000000,4331.922852,4352.820313,4272.948730,4319.358887,4354.743652,4362.820313,4362.179688,4555.384766,4552.436035,4564.358887,4497.307617,5645.128418,4307.179688,4264.743652,0.000000,1.000000,33.000000,,,,0.000000,0.000000,0.000000,0.000000,0.000000,0.000000,0.000000,0.000000,0.000000,0.000000,0.000000,0.000000,0.000000,0.000000,0.000000,0.000000,,,,,,,,,,,,,,,,,,,,,,,,,,,,,,,,,,,,,,,,,,,,,,,,,,,,,,,,,,,,,,,,,,,,,,,,,,,,,,,,,,,,,,,,,,,,,,,,,,,,,,,,,,,,,,,,,,,,,,,,,,,,,,,,,
1737283919.494650,1737283919.495015,55.000000,0.000000,4333.589844,4350.641113,4271.282227,4320.897461,4355.384766,4360.256348,4361.666504,4552.692383,4550.512695,4562.692383,4497.179688,5643.846191,4305.897461,4261.922852,0.000000,1.000000,33.000000,,,,0.000000,0.000000,0.000000,0.000000,0.000000,0.000000,0.000000,0.000000,0.000000,0.000000,0.000000,0.000000,0.000000,0.000000,0.000000,0.000000,,,,,,,,,,,,,,,,,,,,,,,,,,,,,,,,,,,,,,,,,,,,,,,,,,,,,,,,,,,,,,,,,,,,,,,,,,,,,,,,,,,,,,,,,,,,,,,,,,,,,,,,,,,,,,,,,,,,,,,,,,,,,,,,,
1737283919.502458,1737283919.502923,56.000000,0.000000,4335.256348,4351.922852,4267.692383,4322.436035,4354.743652,4362.051270,4363.846191,4552.179688,4552.307617,4561.282227,4493.205078,5644.230957,4304.871582,4261.666504,0.000000,1.000000,33.000000,,,,0.000000,0.000000,0.000000,0.000000,0.000000,0.000000,0.000000,0.000000,0.000000,0.000000,0.000000,0.000000,0.000000,0.000000,0.000000,0.000000,,,,,,,,,,,,,,,,,14.000000,0.000000,0.658931,-0.750122,0.017700,0.053040,-0.105482,-0.978635,-0.121597,15.220046,-30.917450,16.492756,,,,,,,,,,,,,,,,,,,,,,,,,,,,,,,,,,,,,,,,,,,,,,,,,,,,,,,,,,,,,,,,,,,,,,,,,,,,,,,,,,,,,,,,,,,,,,,,,,,,,
1737283919.510266,1737283919.510731,57.000000,0.000000,4334.230957,4353.717773,4268.589844,4321.153809,4352.051270,4363.589844,4363.589844,4552.179688,4553.846191,4557.948730,4493.717773,5645.769043,4308.333496,4265.256348,0.000000,1.000000,33.000000,,,,0.000000,0.000000,0.000000,0.000000,0.000000,0.000000,0.000000,0.000000,0.000000,0.000000,0.000000,0.000000,0.000000,0.000000,0.000000,0.000000,,,,,,,,,,,,,,,,,,,,,,,,,,,,,,,,,,,,,,,,,,,,,,,,,,,,,,,,,,,,,,,,,,,,,,,,,,,,,,,,,,,,,,,,,,,,,,,,,,,,,,,,,,,,,,,,,,,,,,,,,,,,,,,,,
1737283919.518074,1737283919.518639,58.000000,0.000000,4331.794922,4351.538574,4267.179688,4319.615234,4352.820313,4360.769043,4366.153809,4555.384766,4553.974121,4558.589844,4494.487305,5644.230957,4305.769043,4263.077148,0.000000,1.000000,33.000000,,,,0.000000,0.000000,0.000000,0.000000,0.000000,0.000000,0.000000,0.000000,0.000000,0.000000,0.000000,0.000000,0.000000,0.000000,0.000000,0.000000,,,,,,,,,,,,,,,,,,,,,,,,,,,,,,,,,,,,,,,,,,,,,,,,,,,,,,,,,,,,,,,,,,,,,,,,,,,,,,,,,,,,,,,,,,,,,,,,,,,,,,,,,,,,,,,,,,,,,,,,,,,,,,,,,
1737283919.525882,1737283919.526447,59.000000,0.000000,4333.333496,4351.025879,4268.333496,4321.666504,4355.256348,4358.461426,4365.769043,4556.922852,4554.487305,4562.948730,4495.512695,5647.563965,4303.333496,4265.897461,0.000000,1.000000,33.000000,,,,0.000000,0.000000,0.000000,0.000000,0.000000,0.000000,0.000000,0.000000,0.000000,0.000000,0.000000,0.000000,0.000000,0.000000,0.000000,0.000000,,,,,,,,,,,,,,,,,,,,,,,,,,,,,,,,,,,,,,,,,,,,,,,,,,,,,,,,,,,,,,,,,,,,,,,,,,,,,,,,,,,,,,,,,,,,,,,,,,,,,,,,,,,,,,,,,,,,,,,,,,,,,,,,,
1737283919.533690,1737283919.534355,60.000000,0.000000,4332.820313,4351.538574,4270.000000,4320.897461,4352.692383,4360.897461,4363.717773,4556.666504,4552.563965,4563.077148,4494.487305,5647.436035,4304.487305,4265.000000,0.000000,1.000000,33.000000,,,,0.000000,0.000000,0.000000,0.000000,0.000000,0.000000,0.000000,0.000000,0.000000,0.000000,0.000000,0.000000,0.000000,0.000000,0.000000,0.000000,,,,,,,,,,,,,,,,,15.000000,0.000000,0.658860,-0.750183,0.017761,0.053040,-0.097668,-0.984984,-0.127457,15.014709,-30.875706,16.526814,,,,,,,,,,,,,,,,,,,,,,,,,,,,,,,,0.031120,0.057586,0.045274,0.026571,0.016749,0.028757,0.035547,0.035480,0.015089,0.025500,0.017811,0.023234,0.014153,0.021895,0.025809,0.049707,0.026955,0.022184,0.027283,0.027391,0.022134,0.010319,0.011343,0.015349,0.015573,0.027668,0.021448,0.026825,0.027016,0.032030,0.079224,0.020368,0.028275,0.017849,0.028986,0.022914,0.007141,0.017217,0.026735,0.025823,0.032752,0.029450,0.014944,0.020752,0.019708,0.031053,0.022065,0.023488,0.034214,0.037519,0.024231,0.048379,0.027804,0.024617,0.030573,0.005712,0.022981,0.014514,0.033268,0.023351,0.012535,0.023112,0.016529,0.026128,0.022744,0.012609,0.022871,0.014654,0.028190,0.052901
1737283919.541498,1737283919.542163,61.000000,0.000000,4332.179688,4350.000000,4271.538574,4318.333496,4352.692383,4361.922852,4362.692383,4556.410156,4550.512695,4561.794922,4494.358887,5645.897461,4306.794922,4263.077148,0.000000,1.000000,33.000000,,,,0.000000,0.000000,0.000000,0.000000,0.000000,0.000000,0.000000,0.000000,0.000000,0.000000,0.000000,0.000000,0.000000,0.000000,0.000000,0.000000,,,,,,,,,,,,,,,,,,,,,,,,,,,,,,,,,,,,,,,,,,,,,,,,,,,,,,,,,,,,,,,,,,,,,,,,,,,,,,,,,,,,,,,,,,,,,,,,,,,,,,,,,,,,,,,,,,,,,,,,,,,,,,,,,
1737283919.549306,1737283919.549971,62.000000,0.000000,4332.692383,4350.128418,4272.820313,4319.487305,4355.641113,4358.974121,4362.307617,4556.025879,4551.922852,4565.000000,4497.179688,5647.820313,4307.436035,4266.025879,0.000000,1.000000,33.000000,,,,0.000000,0.000000,0.000000,0.000000,0.000000,0.000000,0.000000,0.000000,0.000000,0.000000,0.000000,0.000000,0.000000,0.000000,0.000000,0.000000,,,,,,,,,,,,,,,,,,,,,,,,,,,,,,,,,,,,,,,,,,,,,,,,,,,,,,,,,,,,,,,,,,,,,,,,,,,,,,,,,,,,,,,,,,,,,,,,,,,,,,,,,,,,,,,,,,,,,,,,,,,,,,,,,
1737283919.557114,1737283919.557779,63.000000,0.000000,4332.948730,4351.538574,4268.077148,4320.641113,4353.589844,4359.230957,4362.948730,4556.538574,4552.307617,4566.410156,4496.666504,5646.538574,4302.436035,4265.641113,0.000000,1.000000,33.000000,,,,0.000000,0.000000,0.000000,0.000000,0.000000,0.000000,0.000000,0.000000,0.000000,0.000000,0.000000,0.000000,0.000000,0.000000,0.000000,0.000000,,,,,,,,,,,,,,,,,,,,,,,,,,,,,,,,,,,,,,,,,,,,,,,,,,,,,,,,,,,,,,,,,,,,,,,,,,,,,,,,,,,,,,,,,,,,,,,,,,,,,,,,,,,,,,,,,,,,,,,,,,,,,,,,,
1737283919.564922,1737283919.565487,64.000000,0.000000,4335.384766,4350.769043,4266.794922,4320.512695,4353.077148,4361.282227,4364.102539,4554.358887,4551.922852,4564.230957,4494.487305,5649.230957,4302.051270,4265.769043,0.000000,1.000000,33.000000,,,,0.000000,0.000000,0.000000,0.000000,0.000000,0.000000,0.000000,0.000000,0.000000,0.000000,0.000000,0.000000,0.000000,0.000000,0.000000,0.000000,,,,,,,,,,,,,,,,,16.000000,0.000000,0.658868,-0.750183,0.017639,0.052979,-0.110365,-0.981077,-0.136247,15.029904,-30.904802,16.707466,,,,,,,,,,,,,,,,,,,,,,,,,,,,,,,,,,,,,,,,,,,,,,,,,,,,,,,,,,,,,,,,,,,,,,,,,,,,,,,,,,,,,,,,,,,,,,,,,,,,,
1737283919.572730,1737283919.573395,65.000000,0.000000,4332.948730,4350.128418,4267.948730,4320.512695,4355.128418,4361.538574,4366.410156,4552.692383,4552.563965,4562.436035,4496.153809,5648.846191,4304.871582,4261.538574,0.000000,1.000000,33.000000,,,,0.000000,0.000000,0.000000,0.000000,0.000000,0.000000,0.000000,0.000000,0.000000,0.000000,0.000000,0.000000,0.000000,0.000000,0.000000,0.000000,,,,,,,,,,,,,,,,,,,,,,,,,,,,,,,,,,,,,,,,,,,,,,,,,,,,,,,,,,,,,,,,,,,,,,,,,,,,,,,,,,,,,,,,,,,,,,,,,,,,,,,,,,,,,,,,,,,,,,,,,,,,,,,,,
1737283919.580538,1737283919.581203,66.000000,0.000000,4330.384766,4352.179688,4268.974121,4320.897461,4354.358887,4360.769043,4363.589844,4553.589844,4552.692383,4561.794922,4498.974121,5645.128418,4305.897461,4259.102539,0.000000,1.000000,33.000000,,,,0.000000,0.000000,0.000000,0.000000,0.000000,0.000000,0.000000,0.000000,0.000000,0.000000,0.000000,0.000000,0.000000,0.000000,0.000000,0.000000,,,,,,,,,,,,,,,,,,,,,,,,,,,,,,,,,,,,,,,,,,,,,,,,,,,,,,,,,,,,,,,,,,,,,,,,,,,,,,,,,,,,,,,,,,,,,,,,,,,,,,,,,,,,,,,,,,,,,,,,,,,,,,,,,
1737283919.588347,1737283919.589011,67.000000,0.000000,4333.205078,4352.563965,4271.666504,4321.922852,4353.333496,4359.487305,4362.436035,4555.512695,4551.153809,4563.205078,4497.179688,5647.179688,4305.256348,4263.205078,0.000000,1.000000,33.000000,,,,0.000000,0.000000,0.000000,0.000000,0.000000,0.000000,0.000000,0.000000,0.000000,0.000000,0.000000,0.000000,0.000000,0.000000,0.000000,0.000000,,,,,,,,,,,,,,,,,,,,,,,,,,,,,,,,,,,,,,,,,,,,,,,,,,,,,,,,,,,,,,,,,,,,,,,,,,,,,,,,,,,,,,,,,,,,,,,,,,,,,,,,,,,,,,,,,,,,,,,,,,,,,,,,,
1737283919.596155,1737283919.596719,68.000000,0.000000,4332.307617,4351.794922,4267.563965,4321.153809,4354.743652,4359.615234,4365.512695,4556.025879,4551.922852,4562.820313,4493.205078,5643.717773,4303.077148,4260.897461,0.000000,1.000000,33.000000,,,,0.000000,0.000000,0.000000,0.000000,0.000000,0.000000,0.000000,0.000000,0.000000,0.000000,0.000000,0.000000,0.000000,0.000000,0.000000,0.000000,,,,,,,,,,,,,,,,,17.000000,0.000000,0.658863,-0.750183,0.017639,0.053040,-0.104993,-0.977170,-0.125992,15.143580,-30.780989,16.753386,,,,,,,,,,,,,,,,,,,,,,,,,,,,,,,,,,,,,,,,,,,,,,,,,,,,,,,,,,,,,,,,,,,,,,,,,,,,,,,,,,,,,,,,,,,,,,,,,,,,,
1737283919.603963,1737283919.604627,69.000000,0.000000,4331.153809,4356.410156,4267.563965,4319.230957,4354.102539,4361.666504,4363.077148,4553.461426,4552.051270,4561.538574,4495.128418,5642.692383,4306.410156,4260.000000,0.000000,1.000000,33.000000,,,,0.000000,0.000000,0.000000,0.000000,0.000000,0.000000,0.000000,0.000000,0.000000,0.000000,0.000000,0.000000,0.000000,0.000000,0.000000,0.000000,,,,,,,,,,,,,,,,,,,,,,,,,,,,,,,,,,,,,,,,,,,,,,,,,,,,,,,,,,,,,,,,,,,,,,,,,,,,,,,,,,,,,,,,,,,,,,,,,,,,,,,,,,,,,,,,,,,,,,,,,,,,,,,,,
1737283919.611771,1737283919.612436,70.000000,0.000000,4332.051270,4352.820313,4269.230957,4318.333496,4350.641113,4361.666504,4363.846191,4554.230957,4548.974121,4563.333496,4494.102539,5646.025879,4305.897461,4260.769043,0.000000,1.000000,33.000000,,,,0.000000,0.000000,0.000000,0.000000,0.000000,0.000000,0.000000,0.000000,0.000000,0.000000,0.000000,0.000000,0.000000,0.000000,0.000000,0.000000,,,,,,,,,,,,,,,,,,,,,,,,,,,,,,,,,,,,,,,,,,,,,,,,,,,,,,,,,,,,,,,,,,,,,,,,,,,,,,,,,,,,,,,,,,,,,,,,,,,,,,,,,,,,,,,,,,,,,,,,,,,,,,,,,
1737283919.619579,1737283919.620244,71.000000,0.000000,4334.358887,4347.051270,4269.102539,4321.282227,4351.410156,4360.641113,4366.794922,4555.256348,4548.974121,4565.384766,4492.692383,5643.717773,4299.871582,4260.000000,0.000000,1.000000,33.000000,,,,0.000000,0.000000,0.000000,0.000000,0.000000,0.000000,0.000000,0.000000,0.000000,0.000000,0.000000,0.000000,0.000000,0.000000,0.000000,0.000000,,,,,,,,,,,,,,,,,,,,,,,,,,,,,,,,,,,,,,,,,,,,,,,,,,,,,,,,,,,,,,,,,,,,,,,,,,,,,,,,,,,,,,,,,,,,,,,,,,,,,,,,,,,,,,,,,,,,,,,,,,,,,,,,,
1737283919.627387,1737283919.627952,72.000000,0.000000,4335.256348,4352.948730,4269.487305,4325.128418,4355.769043,4363.589844,4364.102539,4553.461426,4553.205078,4563.077148,4495.897461,5641.922852,4301.794922,4264.230957,0.000000,1.000000,33.000000,,,,0.000000,0.000000,0.000000,0.000000,0.000000,0.000000,0.000000,0.000000,0.000000,0.000000,0.000000,0.000000,0.000000,0.000000,0.000000,0.000000,,,,,,,,,,,,,,,,,18.000000,0.000000,0.658787,-0.750244,0.017700,0.053101,-0.103040,-0.975705,-0.119155,15.062555,-30.736223,16.661381,,,,,,,,,,,,,,,,,,,,,,,,,,,,,,,,,,,,,,,,,,,,,,,,,,,,,,,,,,,,,,,,,,,,,,,,,,,,,,,,,,,,,,,,,,,,,,,,,,,,,
1737283919.635195,1737283919.635760,73.000000,0.000000,4330.897461,4353.461426,4266.153809,4321.025879,4356.538574,4364.615234,4363.974121,4555.128418,4555.512695,4559.487305,4494.230957,5641.666504,4304.743652,4263.077148,0.000000,1.000000,33.000000,,,,0.000000,0.000000,0.000000,0.000000,0.000000,0.000000,0.000000,0.000000,0.000000,0.000000,0.000000,0.000000,0.000000,0.000000,0.000000,0.000000,,,,,,,,,,,,,,,,,,,,,,,,,,,,,,,,,,,,,,,,,,,,,,,,,,,,,,,,,,,,,,,,,,,,,,,,,,,,,,,,,,,,,,,,,,,,,,,,,,,,,,,,,,,,,,,,,,,,,,,,,,,,,,,,,
1737283919.643003,1737283919.643468,74.000000,0.000000,4330.256348,4348.974121,4267.692383,4319.358887,4353.461426,4360.384766,4365.256348,4558.589844,4552.179688,4560.256348,4495.512695,5646.282227,4305.000000,4262.051270,0.000000,1.000000,33.000000,,,,0.000000,0.000000,0.000000,0.000000,0.000000,0.000000,0.000000,0.000000,0.000000,0.000000,0.000000,0.000000,0.000000,0.000000,0.000000,0.000000,,,,,,,,,,,,,,,,,,,,,,,,,,,,,,,,,,,,,,,,,,,,,,,,,,,,,,,,,,,,,,,,,,,,,,,,,,,,,,,,,,,,,,,,,,,,,,,,,,,,,,,,,,,,,,,,,,,,,,,,,,,,,,,,,
1737283919.650811,1737283919.651376,75.000000,0.000000,4332.179688,4349.871582,4268.589844,4321.410156,4352.436035,4360.641113,4365.512695,4557.563965,4549.615234,4562.563965,4497.051270,5648.717773,4306.538574,4262.692383,0.000000,1.000000,33.000000,,,,0.000000,0.000000,0.000000,0.000000,0.000000,0.000000,0.000000,0.000000,0.000000,0.000000,0.000000,0.000000,0.000000,0.000000,0.000000,0.000000,,,,,,,,,,,,,,,,,,,,,,,,,,,,,,,,,,,,,,,,,,,,,,,,,,,,,,,,,,,,,,,,,,,,,,,,,,,,,,,,,,,,,,,,,,,,,,,,,,,,,,,,,,,,,,,,,,,,,,,,,,,,,,,,,
1737283919.658620,1737283919.659184,76.000000,0.000000,4332.692383,4352.307617,4267.307617,4319.102539,4353.846191,4364.615234,4364.102539,4554.358887,4552.692383,4563.205078,4493.589844,5645.256348,4307.051270,4260.256348,0.000000,1.000000,33.000000,,,,0.000000,0.000000,0.000000,0.000000,0.000000,0.000000,0.000000,0.000000,0.000000,0.000000,0.000000,0.000000,0.000000,0.000000,0.000000,0.000000,,,,,,,,,,,,,,,,,19.000000,0.000000,0.658787,-0.750244,0.017700,0.053101,-0.096691,-0.989379,-0.115737,15.006300,-30.845934,16.545242,,,,,,,,,,,,,,,,,,,,,,,,,,,,,,,,0.039316,0.068420,0.050314,0.027469,0.017372,0.035194,0.040834,0.037534,0.014411,0.025697,0.015593,0.022342,0.010863,0.020996,0.025688,0.050703,0.023501,0.020328,0.025277,0.025368,0.018941,0.008525,0.009617,0.014342,0.014482,0.027569,0.019014,0.026139,0.023421,0.029683,0.079925,0.017586,0.027374,0.016976,0.029363,0.023196,0.007419,0.022041,0.030981,0.024046,0.028166,0.023242,0.015471,0.017932,0.018055,0.032504,0.026219,0.026337,0.031310,0.035655,0.023413,0.049978,0.026958,0.024611,0.029909,0.005685,0.024737,0.011662,0.029091,0.023502,0.014176,0.023048,0.017753,0.027162,0.021512,0.016809,0.023541,0.012091,0.031289,0.052943
1737283919.666427,1737283919.666992,77.000000,0.000000,4333.717773,4353.077148,4271.153809,4320.000000,4354.487305,4363.333496,4360.512695,4553.461426,4554.358887,4563.077148,4495.256348,5646.538574,4306.794922,4260.641113,0.000000,1.000000,33.000000,,,,0.000000,0.000000,0.000000,0.000000,0.000000,0.000000,0.000000,0.000000,0.000000,0.000000,0.000000,0.000000,0.000000,0.000000,0.000000,0.000000,,,,,,,,,,,,,,,,,,,,,,,,,,,,,,,,,,,,,,,,,,,,,,,,,,,,,,,,,,,,,,,,,,,,,,,,,,,,,,,,,,,,,,,,,,,,,,,,,,,,,,,,,,,,,,,,,,,,,,,,,,,,,,,,,
1737283919.674236,1737283919.674701,78.000000,0.000000,4332.179688,4350.256348,4268.846191,4320.897461,4354.487305,4358.846191,4363.205078,4554.102539,4552.563965,4563.589844,4496.538574,5644.615234,4302.692383,4256.538574,0.000000,1.000000,33.000000,,,,0.000000,0.000000,0.000000,0.000000,0.000000,0.000000,0.000000,0.000000,0.000000,0.000000,0.000000,0.000000,0.000000,0.000000,0.000000,0.000000,,,,,,,,,,,,,,,,,,,,,,,,,,,,,,,,,,,,,,,,,,,,,,,,,,,,,,,,,,,,,,,,,,,,,,,,,,,,,,,,,,,,,,,,,,,,,,,,,,,,,,,,,,,,,,,,,,,,,,,,,,,,,,,,,
1737283919.682044,1737283919.682609,79.000000,0.000000,4332.820313,4350.256348,4266.153809,4321.025879,4353.974121,4357.563965,4367.051270,4555.769043,4551.666504,4563.589844,4495.769043,5643.461426,4301.538574,4258.205078,0.000000,1.000000,33.000000,,,,0.000000,0.000000,0.000000,0.000000,0.000000,0.000000,0.000000,0.000000,0.000000,0.000000,0.000000,0.000000,0.000000,0.000000,0.000000,0.000000,,,,,,,,,,,,,,,,,,,,,,,,,,,,,,,,,,,,,,,,,,,,,,,,,,,,,,,,,,,,,,,,,,,,,,,,,,,,,,,,,,,,,,,,,,,,,,,,,,,,,,,,,,,,,,,,,,,,,,,,,,,,,,,,,
1737283919.689852,1737283919.690417,80.000000,0.000000,4335.769043,4353.077148,4269.230957,4319.871582,4352.307617,4360.641113,4364.615234,4555.897461,4551.794922,4560.769043,4495.897461,5645.641113,4304.615234,4261.410156,0.000000,1.000000,33.000000,,,,0.000000,0.000000,0.000000,0.000000,0.000000,0.000000,0.000000,0.000000,0.000000,0.000000,0.000000,0.000000,0.000000,0.000000,0.000000,0.000000,,,,,,,,,,,,,,,,,20.000000,0.000000,0.658787,-0.750244,0.017700,0.053101,-0.092785,-0.979612,-0.122085,15.105670,-30.928007,16.590717,,,,,,,,,,,,,,,,,,,,,,,,,,,,,,,,,,,,,,,,,,,,,,,,,,,,,,,,,,,,,,,,,,,,,,,,,,,,,,,,,,,,,,,,,,,,,,,,,,,,,
1737283919.697660,1737283919.698325,81.000000,0.000000,4333.846191,4352.563965,4269.743652,4318.717773,4353.461426,4363.205078,4362.051270,4553.846191,4551.538574,4560.384766,4494.230957,5645.000000,4306.538574,4257.436035,0.000000,1.000000,33.000000,,,,0.000000,0.000000,0.000000,0.000000,0.000000,0.000000,0.000000,0.000000,0.000000,0.000000,0.000000,0.000000,0.000000,0.000000,0.000000,0.000000,,,,,,,,,,,,,,,,,,,,,,,,,,,,,,,,,,,,,,,,,,,,,,,,,,,,,,,,,,,,,,,,,,,,,,,,,,,,,,,,,,,,,,,,,,,,,,,,,,,,,,,,,,,,,,,,,,,,,,,,,,,,,,,,,
1737283919.705468,1737283919.706133,82.000000,0.000000,4333.077148,4349.358887,4270.128418,4321.025879,4356.153809,4360.897461,4359.102539,4553.077148,4553.717773,4561.025879,4493.589844,5646.666504,4306.922852,4263.077148,0.000000,1.000000,33.000000,,,,0.000000,0.000000,0.000000,0.000000,0.000000,0.000000,0.000000,0.000000,0.000000,0.000000,0.000000,0.000000,0.000000,0.000000,0.000000,0.000000,,,,,,,,,,,,,,,,,,,,,,,,,,,,,,,,,,,,,,,,,,,,,,,,,,,,,,,,,,,,,,,,,,,,,,,,,,,,,,,,,,,,,,,,,,,,,,,,,,,,,,,,,,,,,,,,,,,,,,,,,,,,,,,,,
1737283919.713276,1737283919.714041,83.000000,0.000000,4332.307617,4348.846191,4271.666504,4320.641113,4355.000000,4360.769043,4360.000000,4552.692383,4555.128418,4559.615234,4495.000000,5646.153809,4305.384766,4263.333496,0.000000,1.000000,33.000000,,,,0.000000,0.000000,0.000000,0.000000,0.000000,0.000000,0.000000,0.000000,0.000000,0.000000,0.000000,0.000000,0.000000,0.000000,0.000000,0.000000,,,,,,,,,,,,,,,,,,,,,,,,,,,,,,,,,,,,,,,,,,,,,,,,,,,,,,,,,,,,,,,,,,,,,,,,,,,,,,,,,,,,,,,,,,,,,,,,,,,,,,,,,,,,,,,,,,,,,,,,,,,,,,,,,
1737283919.721084,1737283919.721849,84.000000,0.000000,4331.538574,4351.538574,4270.256348,4320.256348,4354.871582,4364.102539,4361.666504,4553.974121,4553.974121,4560.769043,4495.897461,5645.256348,4306.025879,4258.461426,0.000000,1.000000,33.000000,,,,0.000000,0.000000,0.000000,0.000000,0.000000,0.000000,0.000000,0.000000,0.000000,0.000000,0.000000,0.000000,0.000000,0.000000,0.000000,0.000000,,,,,,,,,,,,,,,,,21.000000,0.000000,0.658863,-0.750183,0.017639,0.053040,-0.102552,-0.978147,-0.124039,14.978436,-30.868540,16.631647,,,,,,,,,,,,,,,,,,,,,,,,,,,,,,,,,,,,,,,,,,,,,,,,,,,,,,,,,,,,,,,,,,,,,,,,,,,,,,,,,,,,,,,,,,,,,,,,,,,,,
1737283919.728892,1737283919.729557,85.000000,0.000000,4332.692383,4350.897461,4267.820313,4321.153809,4356.666504,4362.436035,4360.512695,4556.922852,4552.948730,4563.846191,4494.230957,5645.512695,4304.102539,4260.641113,0.000000,1.000000,33.000000,,,,0.000000,0.000000,0.000000,0.000000,0.000000,0.000000,0.000000,0.000000,0.000000,0.000000,0.000000,0.000000,0.000000,0.000000,0.000000,0.000000,,,,,,,,,,,,,,,,,,,,,,,,,,,,,,,,,,,,,,,,,,,,,,,,,,,,,,,,,,,,,,,,,,,,,,,,,,,,,,,,,,,,,,,,,,,,,,,,,,,,,,,,,,,,,,,,,,,,,,,,,,,,,,,,,
1737283919.736700,1737283919.737365,86.000000,0.000000,4333.589844,4349.358887,4265.769043,4319.102539,4353.717773,4360.128418,4362.051270,4556.922852,4553.846191,4562.820313,4491.410156,5642.692383,4302.051270,4261.538574,0.000000,1.000000,33.000000,,,,0.000000,0.000000,0.000000,0.000000,0.000000,0.000000,0.000000,0.000000,0.000000,0.000000,0.000000,0.000000,0.000000,0.000000,0.000000,0.000000,,,,,,,,,,,,,,,,,,,,,,,,,,,,,,,,,,,,,,,,,,,,,,,,,,,,,,,,,,,,,,,,,,,,,,,,,,,,,,,,,,,,,,,,,,,,,,,,,,,,,,,,,,,,,,,,,,,,,,,,,,,,,,,,,
1737283919.744508,1737283919.745073,87.000000,0.000000,4334.871582,4352.948730,4266.666504,4319.487305,4351.666504,4361.025879,4361.666504,4555.384766,4553.461426,4562.692383,4492.948730,5643.846191,4308.717773,4262.051270,0.000000,1.000000,33.000000,,,,0.000000,0.000000,0.000000,0.000000,0.000000,0.000000,0.000000,0.000000,0.000000,0.000000,0.000000,0.000000,0.000000,0.000000,0.000000,0.000000,,,,,,,,,,,,,,,,,,,,,,,,,,,,,,,,,,,,,,,,,,,,,,,,,,,,,,,,,,,,,,,,,,,,,,,,,,,,,,,,,,,,,,,,,,,,,,,,,,,,,,,,,,,,,,,,,,,,,,,,,,,,,,,,,
1737283919.752317,1737283919.752881,88.000000,0.000000,4331.153809,4351.666504,4266.025879,4320.641113,4353.333496,4360.384766,4362.307617,4556.153809,4550.384766,4564.358887,4492.563965,5645.256348,4307.436035,4259.487305,0.000000,1.000000,33.000000,,,,0.000000,0.000000,0.000000,0.000000,0.000000,0.000000,0.000000,0.000000,0.000000,0.000000,0.000000,0.000000,0.000000,0.000000,0.000000,0.000000,,,,,,,,,,,,,,,,,22.000000,0.000000,0.658868,-0.750183,0.017639,0.052979,-0.097180,-0.980588,-0.131852,14.947260,-31.031685,16.668482,,,,,,,,,,,,,,,,,,,,,,,,,,,,,,,,,,,,,,,,,,,,,,,,,,,,,,,,,,,,,,,,,,,,,,,,,,,,,,,,,,,,,,,,,,,,,,,,,,,,,
1737283919.760125,1737283919.760589,89.000000,0.000000,4330.512695,4347.436035,4265.769043,4320.256348,4353.717773,4358.974121,4365.000000,4556.282227,4550.384766,4562.820313,4491.025879,5645.512695,4301.666504,4261.922852,0.000000,1.000000,33.000000,,,,0.000000,0.000000,0.000000,0.000000,0.000000,0.000000,0.000000,0.000000,0.000000,0.000000,0.000000,0.000000,0.000000,0.000000,0.000000,0.000000,,,,,,,,,,,,,,,,,,,,,,,,,,,,,,,,,,,,,,,,,,,,,,,,,,,,,,,,,,,,,,,,,,,,,,,,,,,,,,,,,,,,,,,,,,,,,,,,,,,,,,,,,,,,,,,,,,,,,,,,,,,,,,,,,
1737283919.767933,1737283919.768397,90.000000,0.000000,4335.641113,4351.153809,4268.589844,4320.512695,4353.717773,4360.256348,4363.717773,4555.897461,4552.820313,4562.436035,4491.666504,5645.512695,4305.384766,4266.153809,0.000000,1.000000,33.000000,,,,0.000000,0.000000,0.000000,0.000000,0.000000,0.000000,0.000000,0.000000,0.000000,0.000000,0.000000,0.000000,0.000000,0.000000,0.000000,0.000000,,,,,,,,,,,,,,,,,,,,,,,,,,,,,,,,,,,,,,,,,,,,,,,,,,,,,,,,,,,,,,,,,,,,,,,,,,,,,,,,,,,,,,,,,,,,,,,,,,,,,,,,,,,,,,,,,,,,,,,,,,,,,,,,,
1737283919.775741,1737283919.776105,91.000000,0.000000,4333.846191,4353.205078,4269.871582,4321.410156,4353.717773,4361.538574,4362.563965,4556.794922,4550.897461,4563.589844,4489.615234,5642.820313,4306.025879,4260.128418,0.000000,1.000000,33.000000,,,,0.000000,0.000000,0.000000,0.000000,0.000000,0.000000,0.000000,0.000000,0.000000,0.000000,0.000000,0.000000,0.000000,0.000000,0.000000,0.000000,,,,,,,,,,,,,,,,,,,,,,,,,,,,,,,,,,,,,,,,,,,,,,,,,,,,,,,,,,,,,,,,,,,,,,,,,,,,,,,,,,,,,,,,,,,,,,,,,,,,,,,,,,,,,,,,,,,,,,,,,,,,,,,,,
1737283919.783549,1737283919.783913,92.000000,0.000000,4330.641113,4353.974121,4271.410156,4320.897461,4354.487305,4360.384766,4362.948730,4554.358887,4548.589844,4562.948730,4493.974121,5644.487305,4302.307617,4261.410156,0.000000,1.000000,33.000000,,,,0.000000,0.000000,0.000000,0.000000,0.000000,0.000000,0.000000,0.000000,0.000000,0.000000,0.000000,0.000000,0.000000,0.000000,0.000000,0.000000,,,,,,,,,,,,,,,,,23.000000,0.000000,0.658943,-0.750122,0.017639,0.052917,-0.107435,-0.986937,-0.124527,14.885867,-31.045183,16.618299,,,,,,,,,,,,,,,,,,,,,,,,,,,,,,,,0.049534,0.074016,0.052753,0.026898,0.018941,0.040578,0.044573,0.035881,0.016192,0.027534,0.012772,0.023502,0.008990,0.019911,0.024189,0.046829,0.019772,0.020882,0.024847,0.024014,0.016172,0.006741,0.008212,0.013196,0.013130,0.026773,0.016759,0.024519,0.019129,0.027942,0.074998,0.017266,0.027199,0.017659,0.029500,0.022109,0.009441,0.030146,0.035314,0.021829,0.024013,0.019959,0.016776,0.016026,0.017493,0.034468,0.032078,0.028447,0.027124,0.033246,0.022358,0.048322,0.028249,0.023693,0.029456,0.006368,0.026726,0.010435,0.024003,0.024911,0.016009,0.023525,0.018028,0.027610,0.021101,0.026737,0.026732,0.011076,0.035257,0.051368
1737283919.791357,1737283919.791621,93.000000,0.000000,4330.641113,4353.846191,4268.589844,4320.256348,4354.358887,4362.051270,4365.769043,4552.179688,4553.846191,4562.307617,4498.974121,5645.000000,4302.692383,4266.666504,0.000000,1.000000,33.000000,,,,0.000000,0.000000,0.000000,0.000000,0.000000,0.000000,0.000000,0.000000,0.000000,0.000000,0.000000,0.000000,0.000000,0.000000,0.000000,0.000000,,,,,,,,,,,,,,,,,,,,,,,,,,,,,,,,,,,,,,,,,,,,,,,,,,,,,,,,,,,,,,,,,,,,,,,,,,,,,,,,,,,,,,,,,,,,,,,,,,,,,,,,,,,,,,,,,,,,,,,,,,,,,,,,,
1737283919.799165,1737283919.799429,94.000000,0.000000,4331.666504,4349.871582,4266.410156,4322.948730,4353.333496,4362.692383,4367.307617,4552.692383,4555.512695,4560.897461,4493.461426,5643.333496,4305.512695,4263.974121,0.000000,1.000000,33.000000,,,,0.000000,0.000000,0.000000,0.000000,0.000000,0.000000,0.000000,0.000000,0.000000,0.000000,0.000000,0.000000,0.000000,0.000000,0.000000,0.000000,,,,,,,,,,,,,,,,,,,,,,,,,,,,,,,,,,,,,,,,,,,,,,,,,,,,,,,,,,,,,,,,,,,,,,,,,,,,,,,,,,,,,,,,,,,,,,,,,,,,,,,,,,,,,,,,,,,,,,,,,,,,,,,,,
1737283919.806973,1737283919.807137,95.000000,0.000000,4335.128418,4348.589844,4270.384766,4324.615234,4354.102539,4359.487305,4366.153809,4553.077148,4550.384766,4560.769043,4488.974121,5644.230957,4306.794922,4261.410156,0.000000,1.000000,33.000000,,,,0.000000,0.000000,0.000000,0.000000,0.000000,0.000000,0.000000,0.000000,0.000000,0.000000,0.000000,0.000000,0.000000,0.000000,0.000000,0.000000,,,,,,,,,,,,,,,,,,,,,,,,,,,,,,,,,,,,,,,,,,,,,,,,,,,,,,,,,,,,,,,,,,,,,,,,,,,,,,,,,,,,,,,,,,,,,,,,,,,,,,,,,,,,,,,,,,,,,,,,,,,,,,,,,
1737283919.814781,1737283919.814945,96.000000,0.000000,4335.000000,4351.666504,4268.846191,4320.512695,4355.512695,4358.974121,4365.384766,4553.717773,4549.615234,4562.307617,4490.897461,5640.897461,4305.897461,4261.153809,0.000000,1.000000,33.000000,,,,0.000000,0.000000,0.000000,0.000000,0.000000,0.000000,0.000000,0.000000,0.000000,0.000000,0.000000,0.000000,0.000000,0.000000,0.000000,0.000000,,,,,,,,,,,,,,,,,24.000000,0.000000,0.658938,-0.750122,0.017639,0.052979,-0.087413,-0.977658,-0.128922,14.963947,-31.040665,16.673138,,,,,,,,,,,,,,,,,,,,,,,,,,,,,,,,,,,,,,,,,,,,,,,,,,,,,,,,,,,,,,,,,,,,,,,,,,,,,,,,,,,,,,,,,,,,,,,,,,,,,
1737283919.822589,1737283919.822653,97.000000,0.000000,4333.846191,4353.205078,4265.897461,4318.077148,4354.743652,4360.384766,4363.589844,4552.692383,4550.384766,4562.307617,4493.717773,5642.820313,4306.666504,4263.205078,0.000000,1.000000,33.000000,,,,0.000000,0.000000,0.000000,0.000000,0.000000,0.000000,0.000000,0.000000,0.000000,0.000000,0.000000,0.000000,0.000000,0.000000,0.000000,0.000000,,,,,,,,,,,,,,,,,,,,,,,,,,,,,,,,,,,,,,,,,,,,,,,,,,,,,,,,,,,,,,,,,,,,,,,,,,,,,,,,,,,,,,,,,,,,,,,,,,,,,,,,,,,,,,,,,,,,,,,,,,,,,,,,,
1737283919.830397,1737283919.830561,98.000000,0.000000,4333.589844,4349.358887,4267.436035,4318.077148,4353.974121,4360.384766,4364.358887,4553.589844,4552.948730,4559.615234,4491.794922,5646.153809,4304.615234,4261.666504,0.000000,1.000000,33.000000,,,,0.000000,0.000000,0.000000,0.000000,0.000000,0.000000,0.000000,0.000000,0.000000,0.000000,0.000000,0.000000,0.000000,0.000000,0.000000,0.000000,,,,,,,,,,,,,,,,,,,,,,,,,,,,,,,,,,,,,,,,,,,,,,,,,,,,,,,,,,,,,,,,,,,,,,,,,,,,,,,,,,,,,,,,,,,,,,,,,,,,,,,,,,,,,,,,,,,,,,,,,,,,,,,,,
1737283919.838205,1737283919.838370,99.000000,0.000000,4331.538574,4349.615234,4269.615234,4318.846191,4355.897461,4360.512695,4366.025879,4554.871582,4555.384766,4559.102539,4491.666504,5642.563965,4301.410156,4258.333496,0.000000,1.000000,33.000000,,,,0.000000,0.000000,0.000000,0.000000,0.000000,0.000000,0.000000,0.000000,0.000000,0.000000,0.000000,0.000000,0.000000,0.000000,0.000000,0.000000,,,,,,,,,,,,,,,,,,,,,,,,,,,,,,,,,,,,,,,,,,,,,,,,,,,,,,,,,,,,,,,,,,,,,,,,,,,,,,,,,,,,,,,,,,,,,,,,,,,,,,,,,,,,,,,,,,,,,,,,,,,,,,,,,
1737283919.846014,1737283919.846178,100.000000,0.000000,4333.589844,4354.358887,4269.230957,4320.769043,4357.051270,4360.641113,4363.589844,4553.077148,4551.025879,4563.589844,4495.128418,5643.974121,4305.512695,4261.794922,0.000000,1.000000,33.000000,,,,0.000000,0.000000,0.000000,0.000000,0.000000,0.000000,0.000000,0.000000,0.000000,0.000000,0.000000,0.000000,0.000000,0.000000,0.000000,0.000000,,,,,,,,,,,,,,,,,25.000000,0.000000,0.659007,-0.750061,0.017639,0.052979,-0.100598,-0.991332,-0.121109,14.950886,-30.853266,16.639156,,,,,,,,,,,,,,,,,,,,,,,,,,,,,,,,,,,,,,,,,,,,,,,,,,,,,,,,,,,,,,,,,,,,,,,,,,,,,,,,,,,,,,,,,,,,,,,,,,,,,
1737283919.853822,1737283919.853886,101.000000,0.000000,4335.128418,4353.077148,4267.563965,4318.589844,4356.922852,4360.769043,4365.256348,4553.205078,4548.717773,4567.307617,4494.615234,5645.512695,4307.820313,4263.205078,0.000000,1.000000,33.000000,,,,0.000000,0.000000,0.000000,0.000000,0.000000,0.000000,0.000000,0.000000,0.000000,0.000000,0.000000,0.000000,0.000000,0.000000,0.000000,0.000000,,,,,,,,,,,,,,,,,,,,,,,,,,,,,,,,,,,,,,,,,,,,,,,,,,,,,,,,,,,,,,,,,,,,,,,,,,,,,,,,,,,,,,,,,,,,,,,,,,,,,,,,,,,,,,,,,,,,,,,,,,,,,,,,,
1737283919.861630,1737283919.861794,102.000000,0.000000,4332.820313,4350.512695,4270.897461,4317.563965,4355.641113,4361.410156,4364.743652,4553.974121,4553.717773,4565.897461,4493.205078,5644.487305,4307.307617,4263.461426,0.000000,1.000000,33.000000,,,,0.000000,0.000000,0.000000,0.000000,0.000000,0.000000,0.000000,0.000000,0.000000,0.000000,0.000000,0.000000,0.000000,0.000000,0.000000,0.000000,,,,,,,,,,,,,,,,,,,,,,,,,,,,,,,,,,,,,,,,,,,,,,,,,,,,,,,,,,,,,,,,,,,,,,,,,,,,,,,,,,,,,,,,,,,,,,,,,,,,,,,,,,,,,,,,,,,,,,,,,,,,,,,,,
1737283919.869438,1737283919.869602,103.000000,0.000000,4330.641113,4350.384766,4270.897461,4321.282227,4353.333496,4360.641113,4361.666504,4553.333496,4556.282227,4563.333496,4493.717773,5644.615234,4307.692383,4263.846191,0.000000,1.000000,33.000000,,,,0.000000,0.000000,0.000000,0.000000,0.000000,0.000000,0.000000,0.000000,0.000000,0.000000,0.000000,0.000000,0.000000,0.000000,0.000000,0.000000,,,,,,,,,,,,,,,,,,,,,,,,,,,,,,,,,,,,,,,,,,,,,,,,,,,,,,,,,,,,,,,,,,,,,,,,,,,,,,,,,,,,,,,,,,,,,,,,,,,,,,,,,,,,,,,,,,,,,,,,,,,,,,,,,
1737283919.877246,1737283919.877510,104.000000,0.000000,4332.436035,4349.102539,4267.051270,4322.948730,4353.846191,4359.487305,4364.871582,4552.563965,4553.589844,4563.205078,4493.205078,5642.436035,4306.025879,4260.384766,0.000000,1.000000,33.000000,,,,0.000000,0.000000,0.000000,0.000000,0.000000,0.000000,0.000000,0.000000,0.000000,0.000000,0.000000,0.000000,0.000000,0.000000,0.000000,0.000000,,,,,,,,,,,,,,,,,26.000000,0.000000,0.659077,-0.750000,0.017639,0.052979,-0.103040,-0.988890,-0.122574,14.972464,-30.884605,16.891907,,,,,,,,,,,,,,,,,,,,,,,,,,,,,,,,,,,,,,,,,,,,,,,,,,,,,,,,,,,,,,,,,,,,,,,,,,,,,,,,,,,,,,,,,,,,,,,,,,,,,
1737283919.885054,1737283919.885318,105.000000,0.000000,4336.153809,4349.871582,4269.871582,4322.436035,4355.000000,4359.743652,4366.025879,4552.051270,4551.922852,4564.743652,4494.102539,5644.487305,4307.051270,4263.333496,0.000000,1.000000,33.000000,,,,0.000000,0.000000,0.000000,0.000000,0.000000,0.000000,0.000000,0.000000,0.000000,0.000000,0.000000,0.000000,0.000000,0.000000,0.000000,0.000000,,,,,,,,,,,,,,,,,,,,,,,,,,,,,,,,,,,,,,,,,,,,,,,,,,,,,,,,,,,,,,,,,,,,,,,,,,,,,,,,,,,,,,,,,,,,,,,,,,,,,,,,,,,,,,,,,,,,,,,,,,,,,,,,,
1737283919.892862,1737283919.893226,106.000000,0.000000,4335.512695,4351.025879,4269.102539,4317.307617,4355.128418,4358.717773,4366.538574,4552.820313,4553.077148,4563.205078,4493.333496,5646.794922,4303.974121,4264.230957,0.000000,1.000000,33.000000,,,,0.000000,0.000000,0.000000,0.000000,0.000000,0.000000,0.000000,0.000000,0.000000,0.000000,0.000000,0.000000,0.000000,0.000000,0.000000,0.000000,,,,,,,,,,,,,,,,,,,,,,,,,,,,,,,,,,,,,,,,,,,,,,,,,,,,,,,,,,,,,,,,,,,,,,,,,,,,,,,,,,,,,,,,,,,,,,,,,,,,,,,,,,,,,,,,,,,,,,,,,,,,,,,,,
1737283919.900670,1737283919.901034,107.000000,0.000000,4336.153809,4351.282227,4268.589844,4316.153809,4354.487305,4357.692383,4366.794922,4554.230957,4554.487305,4560.897461,4492.692383,5643.589844,4302.179688,4261.666504,0.000000,1.000000,33.000000,,,,0.000000,0.000000,0.000000,0.000000,0.000000,0.000000,0.000000,0.000000,0.000000,0.000000,0.000000,0.000000,0.000000,0.000000,0.000000,0.000000,,,,,,,,,,,,,,,,,,,,,,,,,,,,,,,,,,,,,,,,,,,,,,,,,,,,,,,,,,,,,,,,,,,,,,,,,,,,,,,,,,,,,,,,,,,,,,,,,,,,,,,,,,,,,,,,,,,,,,,,,,,,,,,,,
1737283919.908478,1737283919.908942,108.000000,0.000000,4335.897461,4351.922852,4273.846191,4322.948730,4353.717773,4360.128418,4363.333496,4553.974121,4552.563965,4563.461426,4493.974121,5641.666504,4306.282227,4262.563965,0.000000,1.000000,33.000000,,,,0.000000,0.000000,0.000000,0.000000,0.000000,0.000000,0.000000,0.000000,0.000000,0.000000,0.000000,0.000000,0.000000,0.000000,0.000000,0.000000,1.000000,0.000000,0.000000,0.000000,0.000000,0.000000,0.000000,0.000000,0.000000,0.000000,0.000000,0.000000,0.000000,0.000000,0.000000,0.000000,27.000000,0.000000,0.659073,-0.750000,0.017761,0.052979,-0.107435,-0.974728,-0.127945,15.191884,-30.729479,16.902718,,,,,,,,,,,,,,,,,,,,,,,,,,,,,,,,0.059932,0.073212,0.051775,0.025617,0.021383,0.043056,0.045183,0.030857,0.020489,0.030572,0.010045,0.025913,0.008255,0.019685,0.021706,0.039013,0.016377,0.023823,0.025290,0.023691,0.014073,0.005359,0.007378,0.012140,0.011625,0.024957,0.015079,0.022893,0.015217,0.027215,0.065886,0.019754,0.027497,0.020002,0.029375,0.020309,0.013183,0.039813,0.038800,0.019704,0.020101,0.018792,0.018972,0.015822,0.017614,0.037089,0.038259,0.029538,0.022588,0.030405,0.020431,0.044213,0.032581,0.021696,0.029232,0.009016,0.028653,0.010952,0.019477,0.027468,0.017746,0.025069,0.017390,0.027469,0.021551,0.042060,0.032454,0.011594,0.038859,0.048934
1737283919.916286,1737283919.916750,109.000000,0.000000,4331.538574,4348.589844,4271.282227,4324.102539,4353.589844,4362.051270,4364.230957,4555.128418,4550.384766,4564.358887,4491.410156,5643.589844,4306.025879,4261.153809,0.000000,1.000000,33.000000,,,,0.000000,0.000000,0.000000,0.000000,0.000000,0.000000,0.000000,0.000000,0.000000,0.000000,0.000000,0.000000,0.000000,0.000000,0.000000,0.000000,,,,,,,,,,,,,,,,,,,,,,,,,,,,,,,,,,,,,,,,,,,,,,,,,,,,,,,,,,,,,,,,,,,,,,,,,,,,,,,,,,,,,,,,,,,,,,,,,,,,,,,,,,,,,,,,,,,,,,,,,,,,,,,,,
1737283919.924095,1737283919.924458,110.000000,0.000000,4334.230957,4348.333496,4267.179688,4322.307617,4352.820313,4360.897461,4366.025879,4555.512695,4550.384766,4561.153809,4494.230957,5646.025879,4305.000000,4265.256348,0.000000,1.000000,33.000000,,,,0.000000,0.000000,0.000000,0.000000,0.000000,0.000000,0.000000,0.000000,0.000000,0.000000,0.000000,0.000000,0.000000,0.000000,0.000000,0.000000,,,,,,,,,,,,,,,,,,,,,,,,,,,,,,,,,,,,,,,,,,,,,,,,,,,,,,,,,,,,,,,,,,,,,,,,,,,,,,,,,,,,,,,,,,,,,,,,,,,,,,,,,,,,,,,,,,,,,,,,,,,,,,,,,
1737283919.931903,1737283919.932266,111.000000,0.000000,4335.000000,4351.282227,4268.077148,4322.179688,4352.436035,4361.025879,4365.769043,4553.974121,4551.025879,4560.512695,4497.563965,5642.692383,4305.000000,4265.769043,0.000000,1.000000,33.000000,,,,0.000000,0.000000,0.000000,0.000000,0.000000,0.000000,0.000000,0.000000,0.000000,0.000000,0.000000,0.000000,0.000000,0.000000,0.000000,0.000000,,,,,,,,,,,,,,,,,,,,,,,,,,,,,,,,,,,,,,,,,,,,,,,,,,,,,,,,,,,,,,,,,,,,,,,,,,,,,,,,,,,,,,,,,,,,,,,,,,,,,,,,,,,,,,,,,,,,,,,,,,,,,,,,,
1737283919.939711,1737283919.939974,112.000000,0.000000,4330.897461,4352.051270,4270.641113,4322.563965,4353.077148,4362.051270,4363.717773,4552.948730,4552.179688,4562.563965,4492.179688,5642.820313,4306.153809,4262.179688,0.000000,1.000000,33.000000,,,,0.000000,0.000000,0.000000,0.000000,0.000000,0.000000,0.000000,0.000000,0.000000,0.000000,0.000000,0.000000,0.000000,0.000000,0.000000,0.000000,,,,,,,,,,,,,,,,,28.000000,0.000000,0.658994,-0.750061,0.017761,0.053101,-0.099133,-0.981565,-0.121109,15.072696,-30.706530,16.845778,,,,,,,,,,,,,,,,,,,,,,,,,,,,,,,,,,,,,,,,,,,,,,,,,,,,,,,,,,,,,,,,,,,,,,,,,,,,,,,,,,,,,,,,,,,,,,,,,,,,,
1737283919.947519,1737283919.947782,113.000000,0.000000,4332.820313,4350.897461,4270.641113,4322.820313,4353.717773,4362.692383,4363.974121,4553.589844,4553.333496,4563.205078,4490.641113,5647.692383,4306.025879,4262.948730,0.000000,1.000000,33.000000,,,,0.000000,0.000000,0.000000,0.000000,0.000000,0.000000,0.000000,0.000000,0.000000,0.000000,0.000000,0.000000,0.000000,0.000000,0.000000,0.000000,,,,,,,,,,,,,,,,,,,,,,,,,,,,,,,,,,,,,,,,,,,,,,,,,,,,,,,,,,,,,,,,,,,,,,,,,,,,,,,,,,,,,,,,,,,,,,,,,,,,,,,,,,,,,,,,,,,,,,,,,,,,,,,,,
1737283919.955327,1737283919.955490,114.000000,0.000000,4333.846191,4350.897461,4266.025879,4319.487305,4354.230957,4364.871582,4367.820313,4556.922852,4552.436035,4562.563965,4495.256348,5644.743652,4303.846191,4261.538574,0.000000,1.000000,33.000000,,,,0.000000,0.000000,0.000000,0.000000,0.000000,0.000000,0.000000,0.000000,0.000000,0.000000,0.000000,0.000000,0.000000,0.000000,0.000000,0.000000,,,,,,,,,,,,,,,,,,,,,,,,,,,,,,,,,,,,,,,,,,,,,,,,,,,,,,,,,,,,,,,,,,,,,,,,,,,,,,,,,,,,,,,,,,,,,,,,,,,,,,,,,,,,,,,,,,,,,,,,,,,,,,,,,
1737283919.963135,1737283919.963298,115.000000,0.000000,4332.820313,4353.333496,4268.974121,4319.615234,4354.487305,4362.948730,4365.000000,4556.538574,4550.897461,4562.948730,4496.666504,5643.974121,4305.384766,4265.384766,0.000000,1.000000,33.000000,,,,0.000000,0.000000,0.000000,0.000000,0.000000,0.000000,0.000000,0.000000,0.000000,0.000000,0.000000,0.000000,0.000000,0.000000,0.000000,0.000000,,,,,,,,,,,,,,,,,,,,,,,,,,,,,,,,,,,,,,,,,,,,,,,,,,,,,,,,,,,,,,,,,,,,,,,,,,,,,,,,,,,,,,,,,,,,,,,,,,,,,,,,,,,,,,,,,,,,,,,,,,,,,,,,,
1737283919.970943,1737283919.971006,116.000000,0.000000,4335.641113,4354.230957,4271.666504,4321.794922,4353.333496,4359.358887,4363.846191,4553.077148,4550.512695,4562.820313,4492.692383,5644.743652,4306.282227,4265.641113,0.000000,1.000000,33.000000,,,,0.000000,0.000000,0.000000,0.000000,0.000000,0.000000,0.000000,0.000000,0.000000,0.000000,0.000000,0.000000,0.000000,0.000000,0.000000,0.000000,,,,,,,,,,,,,,,,,29.000000,0.000000,0.658994,-0.750061,0.017761,0.053101,-0.099622,-0.984495,-0.122574,14.965425,-30.735878,16.927868,,,,,,,,,,,,,,,,,,,,,,,,,,,,,,,,,,,,,,,,,,,,,,,,,,,,,,,,,,,,,,,,,,,,,,,,,,,,,,,,,,,,,,,,,,,,,,,,,,,,,
1737283919.978751,1737283919.978814,117.000000,0.000000,4335.256348,4353.333496,4267.563965,4321.025879,4353.205078,4361.410156,4368.717773,4553.974121,4551.282227,4562.692383,4491.922852,5642.179688,4306.922852,4261.282227,0.000000,1.000000,33.000000,,,,0.000000,0.000000,0.000000,0.000000,0.000000,0.000000,0.000000,0.000000,0.000000,0.000000,0.000000,0.000000,0.000000,0.000000,0.000000,0.000000,,,,,,,,,,,,,,,,,,,,,,,,,,,,,,,,,,,,,,,,,,,,,,,,,,,,,,,,,,,,,,,,,,,,,,,,,,,,,,,,,,,,,,,,,,,,,,,,,,,,,,,,,,,,,,,,,,,,,,,,,,,,,,,,,
1737283919.986559,1737283919.986522,118.000000,0.000000,4331.794922,4352.179688,4268.589844,4321.410156,4354.487305,4364.102539,4368.077148,4555.384766,4552.307617,4563.461426,4494.102539,5645.256348,4308.589844,4263.205078,0.000000,1.000000,33.000000,,,,0.000000,0.000000,0.000000,0.000000,0.000000,0.000000,0.000000,0.000000,0.000000,0.000000,0.000000,0.000000,0.000000,0.000000,0.000000,0.000000,,,,,,,,,,,,,,,,,,,,,,,,,,,,,,,,,,,,,,,,,,,,,,,,,,,,,,,,,,,,,,,,,,,,,,,,,,,,,,,,,,,,,,,,,,,,,,,,,,,,,,,,,,,,,,,,,,,,,,,,,,,,,,,,,
1737283919.994367,1737283919.994431,119.000000,0.000000,4332.948730,4351.282227,4272.179688,4322.563965,4353.589844,4362.563965,4366.410156,4554.743652,4552.051270,4563.205078,4494.230957,5645.000000,4305.769043,4262.563965,0.000000,1.000000,33.000000,,,,0.000000,0.000000,0.000000,0.000000,0.000000,0.000000,0.000000,0.000000,0.000000,0.000000,0.000000,0.000000,0.000000,0.000000,0.000000,0.000000,,,,,,,,,,,,,,,,,,,,,,,,,,,,,,,,,,,,,,,,,,,,,,,,,,,,,,,,,,,,,,,,,,,,,,,,,,,,,,,,,,,,,,,,,,,,,,,,,,,,,,,,,,,,,,,,,,,,,,,,,,,,,,,,,
1737283920.002175,1737283920.002239,120.000000,0.000000,4336.538574,4352.436035,4270.641113,4322.179688,4352.179688,4361.025879,4366.410156,4556.153809,4552.179688,4562.307617,4494.487305,5646.666504,4303.333496,4263.589844,0.000000,1.000000,33.000000,,,,0.000000,0.000000,0.000000,0.000000,0.000000,0.000000,0.000000,0.000000,0.000000,0.000000,0.000000,0.000000,0.000000,0.000000,0.000000,0.000000,,,,,,,,,,,,,,,,,30.000000,0.000000,0.658989,-0.750061,0.017761,0.053162,-0.117690,-0.980588,-0.125015,14.852217,-30.728956,16.985081,,,,,,,,,,,,,,,,,,,,,,,,,,,,,,,,,,,,,,,,,,,,,,,,,,,,,,,,,,,,,,,,,,,,,,,,,,,,,,,,,,,,,,,,,,,,,,,,,,,,,
1737283920.009983,1737283920.010047,121.000000,0.000000,4335.769043,4350.384766,4269.230957,4321.794922,4353.846191,4360.512695,4364.487305,4557.820313,4553.717773,4562.051270,4495.256348,5650.000000,4305.256348,4266.282227,0.000000,1.000000,33.000000,,,,0.000000,0.000000,0.000000,0.000000,0.000000,0.000000,0.000000,0.000000,0.000000,0.000000,0.000000,0.000000,0.000000,0.000000,0.000000,0.000000,,,,,,,,,,,,,,,,,,,,,,,,,,,,,,,,,,,,,,,,,,,,,,,,,,,,,,,,,,,,,,,,,,,,,,,,,,,,,,,,,,,,,,,,,,,,,,,,,,,,,,,,,,,,,,,,,,,,,,,,,,,,,,,,,
1737283920.017792,1737283920.017755,122.000000,0.000000,4333.205078,4347.820313,4270.000000,4323.077148,4354.487305,4359.871582,4364.358887,4557.563965,4553.461426,4563.333496,4496.025879,5646.538574,4303.846191,4262.179688,0.000000,1.000000,33.000000,,,,0.000000,0.000000,0.000000,0.000000,0.000000,0.000000,0.000000,0.000000,0.000000,0.000000,0.000000,0.000000,0.000000,0.000000,0.000000,0.000000,,,,,,,,,,,,,,,,,,,,,,,,,,,,,,,,,,,,,,,,,,,,,,,,,,,,,,,,,,,,,,,,,,,,,,,,,,,,,,,,,,,,,,,,,,,,,,,,,,,,,,,,,,,,,,,,,,,,,,,,,,,,,,,,,
1737283920.025600,1737283920.025663,123.000000,0.000000,4333.846191,4351.025879,4271.282227,4322.307617,4354.358887,4360.512695,4365.769043,4554.743652,4550.256348,4561.410156,4496.666504,5645.128418,4303.974121,4261.538574,0.000000,1.000000,33.000000,,,,0.000000,0.000000,0.000000,0.000000,0.000000,0.000000,0.000000,0.000000,0.000000,0.000000,0.000000,0.000000,0.000000,0.000000,0.000000,0.000000,,,,,,,,,,,,,,,,,,,,,,,,,,,,,,,,,,,,,,,,,,,,,,,,,,,,,,,,,,,,,,,,,,,,,,,,,,,,,,,,,,,,,,,,,,,,,,,,,,,,,,,,,,,,,,,,,,,,,,,,,,,,,,,,,
1737283920.033408,1737283920.033471,124.000000,0.000000,4331.153809,4352.948730,4268.974121,4320.512695,4354.102539,4362.179688,4365.897461,4552.820313,4549.487305,4560.000000,4494.743652,5645.128418,4305.256348,4263.717773,0.000000,1.000000,33.000000,,,,0.000000,0.000000,0.000000,0.000000,0.000000,0.000000,0.000000,0.000000,0.000000,0.000000,0.000000,0.000000,0.000000,0.000000,0.000000,0.000000,,,,,,,,,,,,,,,,,31.000000,0.000000,0.658988,-0.750061,0.017822,0.053162,-0.110853,-0.980588,-0.124527,14.933661,-30.789394,16.753239,,,,,,,,,,,,,,,,,,,,,,,,,,,,,,,,0.067363,0.066740,0.047563,0.024301,0.024350,0.041632,0.042106,0.024088,0.026382,0.033893,0.008347,0.028469,0.008757,0.021049,0.019015,0.029758,0.013636,0.027801,0.025893,0.024304,0.012507,0.004548,0.007260,0.011427,0.010329,0.022466,0.013870,0.022218,0.012476,0.027400,0.055884,0.024436,0.027587,0.023882,0.028870,0.018549,0.018581,0.048591,0.040644,0.017998,0.016707,0.018026,0.021590,0.017472,0.018036,0.039752,0.043268,0.030193,0.018959,0.027366,0.017753,0.038807,0.039186,0.018979,0.029212,0.014409,0.030236,0.012791,0.016562,0.030482,0.019080,0.027241,0.016319,0.027208,0.022683,0.060075,0.039606,0.013490,0.040578,0.046154
1737283920.041216,1737283920.041380,125.000000,0.000000,4329.743652,4351.794922,4266.410156,4319.871582,4354.230957,4363.205078,4363.846191,4554.230957,4553.589844,4563.974121,4494.358887,5646.922852,4302.820313,4265.641113,0.000000,1.000000,33.000000,,,,0.000000,0.000000,0.000000,0.000000,0.000000,0.000000,0.000000,0.000000,0.000000,0.000000,0.000000,0.000000,0.000000,0.000000,0.000000,0.000000,,,,,,,,,,,,,,,,,,,,,,,,,,,,,,,,,,,,,,,,,,,,,,,,,,,,,,,,,,,,,,,,,,,,,,,,,,,,,,,,,,,,,,,,,,,,,,,,,,,,,,,,,,,,,,,,,,,,,,,,,,,,,,,,,
1737283920.049024,1737283920.049188,126.000000,0.000000,4331.794922,4350.641113,4268.461426,4320.000000,4354.358887,4362.563965,4367.179688,4555.769043,4553.589844,4562.692383,4497.820313,5647.820313,4302.563965,4264.487305,0.000000,1.000000,33.000000,,,,0.000000,0.000000,0.000000,0.000000,0.000000,0.000000,0.000000,0.000000,0.000000,0.000000,0.000000,0.000000,0.000000,0.000000,0.000000,0.000000,,,,,,,,,,,,,,,,,,,,,,,,,,,,,,,,,,,,,,,,,,,,,,,,,,,,,,,,,,,,,,,,,,,,,,,,,,,,,,,,,,,,,,,,,,,,,,,,,,,,,,,,,,,,,,,,,,,,,,,,,,,,,,,,,
1737283920.056832,1737283920.057096,127.000000,0.000000,4332.692383,4348.974121,4270.128418,4321.666504,4354.615234,4360.641113,4371.153809,4555.256348,4550.897461,4559.102539,4497.563965,5644.743652,4304.487305,4260.384766,33.000000,1.000000,33.000000,,,,0.000000,0.000000,0.000000,0.000000,0.000000,0.000000,0.000000,0.000000,0.000000,0.000000,0.000000,0.000000,0.000000,0.000000,0.000000,0.000000,,,,,,,,,,,,,,,,,,,,,,,,,,,,,,,,,,,,,,,,,,,,,,,,,,,,,,,,,,,,,,,,,,,,,,,,,,,,,,,,,,,,,,,,,,,,,,,,,,,,,,,,,,,,,,,,,,,,,,,,,,,,,,,,,
1737283920.064640,1737283920.064904,0.000000,0.000000,4335.769043,4351.282227,4272.563965,4323.461426,4356.025879,4359.358887,4365.256348,4552.948730,4550.512695,4561.538574,4494.102539,5646.666504,4305.769043,4265.000000,0.000000,1.000000,33.000000,,,,0.000000,0.000000,0.000000,0.000000,0.000000,0.000000,0.000000,0.000000,0.000000,0.000000,0.000000,0.000000,0.000000,0.000000,0.000000,0.000000,,,,,,,,,,,,,,,,,0.000000,0.000000,0.658988,-0.750061,0.017822,0.053162,-0.107923,-0.987425,-0.117690,15.056962,-30.943789,16.761248,,,,,,,,,,,,,,,,,,,,,,,,,,,,,,,,,,,,,,,,,,,,,,,,,,,,,,,,,,,,,,,,,,,,,,,,,,,,,,,,,,,,,,,,,,,,,,,,,,,,,
1737283920.072448,1737283920.072812,1.000000,0.000000,4334.743652,4353.589844,4270.000000,4322.692383,4356.282227,4360.000000,4361.922852,4553.333496,4552.948730,4562.692383,4491.538574,5647.948730,4304.358887,4265.384766,0.000000,1.000000,33.000000,,,,0.000000,0.000000,0.000000,0.000000,0.000000,0.000000,0.000000,0.000000,0.000000,0.000000,0.000000,0.000000,0.000000,0.000000,0.000000,0.000000,,,,,,,,,,,,,,,,,,,,,,,,,,,,,,,,,,,,,,,,,,,,,,,,,,,,,,,,,,,,,,,,,,,,,,,,,,,,,,,,,,,,,,,,,,,,,,,,,,,,,,,,,,,,,,,,,,,,,,,,,,,,,,,,,
1737283920.080256,1737283920.080620,2.000000,0.000000,4332.692383,4353.333496,4268.846191,4322.307617,4354.743652,4359.743652,4364.743652,4554.487305,4553.205078,4561.666504,4495.000000,5644.230957,4303.333496,4260.897461,0.000000,1.000000,33.000000,,,,0.000000,0.000000,0.000000,0.000000,0.000000,0.000000,0.000000,0.000000,0.000000,0.000000,0.000000,0.000000,0.000000,0.000000,0.000000,0.000000,,,,,,,,,,,,,,,,,,,,,,,,,,,,,,,,,,,,,,,,,,,,,,,,,,,,,,,,,,,,,,,,,,,,,,,,,,,,,,,,,,,,,,,,,,,,,,,,,,,,,,,,,,,,,,,,,,,,,,,,,,,,,,,,,
1737283920.088065,1737283920.088528,3.000000,0.000000,4332.563965,4353.205078,4272.692383,4323.717773,4353.846191,4358.461426,4366.282227,4551.922852,4550.000000,4561.922852,4498.333496,5643.205078,4302.563965,4260.897461,0.000000,1.000000,33.000000,,,,0.000000,0.000000,0.000000,0.000000,0.000000,0.000000,0.000000,0.000000,0.000000,0.000000,0.000000,0.000000,0.000000,0.000000,0.000000,0.000000,,,,,,,,,,,,,,,,,,,,,,,,,,,,,,,,,,,,,,,,,,,,,,,,,,,,,,,,,,,,,,,,,,,,,,,,,,,,,,,,,,,,,,,,,,,,,,,,,,,,,,,,,,,,,,,,,,,,,,,,,,,,,,,,,
1737283920.095873,1737283920.096336,4.000000,0.000000,4332.307617,4352.436035,4268.717773,4320.512695,4354.358887,4358.589844,4366.666504,4553.077148,4550.512695,4561.153809,4493.205078,5643.461426,4299.102539,4258.333496,0.000000,1.000000,33.000000,,,,0.000000,0.000000,0.000000,0.000000,0.000000,0.000000,0.000000,0.000000,0.000000,0.000000,0.000000,0.000000,0.000000,0.000000,0.000000,0.000000,,,,,,,,,,,,,,,,,1.000000,0.000000,0.658988,-0.750061,0.017822,0.053162,-0.103528,-0.988890,-0.116713,15.084599,-30.982742,16.851789,,,,,,,,,,,,,,,,,,,,,,,,,,,,,,,,,,,,,,,,,,,,,,,,,,,,,,,,,,,,,,,,,,,,,,,,,,,,,,,,,,,,,,,,,,,,,,,,,,,,,
1737283920.103681,1737283920.104144,5.000000,0.000000,4335.769043,4353.461426,4267.948730,4319.230957,4355.512695,4359.871582,4363.717773,4556.922852,4552.179688,4559.871582,4494.487305,5642.948730,4304.743652,4262.692383,0.000000,1.000000,33.000000,,,,0.000000,0.000000,0.000000,0.000000,0.000000,0.000000,0.000000,0.000000,0.000000,0.000000,0.000000,0.000000,0.000000,0.000000,0.000000,0.000000,,,,,,,,,,,,,,,,,,,,,,,,,,,,,,,,,,,,,,,,,,,,,,,,,,,,,,,,,,,,,,,,,,,,,,,,,,,,,,,,,,,,,,,,,,,,,,,,,,,,,,,,,,,,,,,,,,,,,,,,,,,,,,,,,
1737283920.111489,1737283920.111952,6.000000,0.000000,4335.256348,4353.589844,4270.256348,4321.538574,4354.615234,4362.692383,4362.948730,4555.897461,4552.051270,4559.743652,4497.307617,5641.794922,4307.307617,4266.538574,0.000000,1.000000,33.000000,,,,0.000000,0.000000,0.000000,0.000000,0.000000,0.000000,0.000000,0.000000,0.000000,0.000000,0.000000,0.000000,0.000000,0.000000,0.000000,0.000000,,,,,,,,,,,,,,,,,,,,,,,,,,,,,,,,,,,,,,,,,,,,,,,,,,,,,,,,,,,,,,,,,,,,,,,,,,,,,,,,,,,,,,,,,,,,,,,,,,,,,,,,,,,,,,,,,,,,,,,,,,,,,,,,,
1737283920.119297,1737283920.119660,7.000000,0.000000,4331.538574,4353.589844,4267.692383,4320.897461,4354.102539,4362.820313,4366.025879,4553.205078,4551.025879,4560.384766,4495.000000,5643.461426,4301.153809,4262.179688,0.000000,1.000000,33.000000,,,,0.000000,0.000000,0.000000,0.000000,0.000000,0.000000,0.000000,0.000000,0.000000,0.000000,0.000000,0.000000,0.000000,0.000000,0.000000,0.000000,,,,,,,,,,,,,,,,,,,,,,,,,,,,,,,,,,,,,,,,,,,,,,,,,,,,,,,,,,,,,,,,,,,,,,,,,,,,,,,,,,,,,,,,,,,,,,,,,,,,,,,,,,,,,,,,,,,,,,,,,,,,,,,,,
1737283920.127105,1737283920.127468,8.000000,0.000000,4333.846191,4352.820313,4266.153809,4320.256348,4357.051270,4359.358887,4366.538574,4555.128418,4551.410156,4561.666504,4495.384766,5649.102539,4301.538574,4260.897461,0.000000,1.000000,33.000000,,,,0.000000,0.000000,0.000000,0.000000,0.000000,0.000000,0.000000,0.000000,0.000000,0.000000,0.000000,0.000000,0.000000,0.000000,0.000000,0.000000,,,,,,,,,,,,,,,,,2.000000,0.000000,0.658986,-0.750061,0.017700,0.053223,-0.107923,-0.992309,-0.127457,15.209473,-31.084469,16.783278,,,,,,,,,,,,,,,,,,,,,,,,,,,,,,,,,,,,,,,,,,,,,,,,,,,,,,,,,,,,,,,,,,,,,,,,,,,,,,,,,,,,,,,,,,,,,,,,,,,,,
1737283920.134913,1737283920.135176,9.000000,0.000000,4334.871582,4348.333496,4266.794922,4322.307617,4356.666504,4359.230957,4366.666504,4556.153809,4551.282227,4563.077148,4495.000000,5647.051270,4304.358887,4261.538574,0.000000,1.000000,33.000000,,,,0.000000,0.000000,0.000000,0.000000,0.000000,0.000000,0.000000,0.000000,0.000000,0.000000,0.000000,0.000000,0.000000,0.000000,0.000000,0.000000,,,,,,,,,,,,,,,,,,,,,,,,,,,,,,,,,,,,,,,,,,,,,,,,,,,,,,,,,,,,,,,,,,,,,,,,,,,,,,,,,,,,,,,,,,,,,,,,,,,,,,,,,,,,,,,,,,,,,,,,,,,,,,,,,
1737283920.142721,1737283920.142984,10.000000,0.000000,4332.307617,4347.563965,4267.820313,4325.384766,4352.436035,4360.641113,4366.153809,4554.102539,4551.922852,4562.179688,4495.384766,5644.743652,4303.589844,4262.692383,0.000000,1.000000,33.000000,,,,0.000000,0.000000,0.000000,0.000000,0.000000,0.000000,0.000000,0.000000,0.000000,0.000000,0.000000,0.000000,0.000000,0.000000,0.000000,0.000000,,,,,,,,,,,,,,,,,,,,,,,,,,,,,,,,,,,,,,,,,,,,,,,,,,,,,,,,,,,,,,,,,,,,,,,,,,,,,,,,,,,,,,,,,,,,,,,,,,,,,,,,,,,,,,,,,,,,,,,,,,,,,,,,,
1737283920.150529,1737283920.150692,11.000000,0.000000,4333.205078,4350.897461,4266.282227,4323.974121,4353.205078,4358.461426,4366.025879,4554.615234,4555.641113,4560.897461,4496.666504,5645.769043,4300.256348,4259.487305,0.000000,1.000000,33.000000,,,,0.000000,0.000000,0.000000,0.000000,0.000000,0.000000,0.000000,0.000000,0.000000,0.000000,0.000000,0.000000,0.000000,0.000000,0.000000,0.000000,,,,,,,,,,,,,,,,,,,,,,,,,,,,,,,,,,,,,,,,,,,,,,,,,,,,,,,,,,,,,,,,,,,,,,,,,,,,,,,,,,,,,,,,,,,,,,,,,,,,,,,,,,,,,,,,,,,,,,,,,,,,,,,,,
1737283920.158337,1737283920.158500,12.000000,0.000000,4335.512695,4353.077148,4266.025879,4321.794922,4355.769043,4357.692383,4367.307617,4556.538574,4555.769043,4559.230957,4496.282227,5645.128418,4301.922852,4255.769043,0.000000,1.000000,33.000000,,,,0.000000,0.000000,0.000000,0.000000,0.000000,0.000000,0.000000,0.000000,0.000000,0.000000,0.000000,0.000000,0.000000,0.000000,0.000000,0.000000,,,,,,,,,,,,,,,,,3.000000,0.000000,0.659057,-0.750000,0.017639,0.053223,-0.108412,-0.992797,-0.125992,15.405192,-31.142689,16.854950,,,,,,,,,,,,,,,,,,,,,,,,,,,,,,,,0.068993,0.056796,0.041386,0.023285,0.027280,0.036693,0.036240,0.017693,0.032310,0.036570,0.008078,0.030434,0.010904,0.024003,0.016958,0.021601,0.011478,0.030960,0.026439,0.025462,0.011326,0.004263,0.007931,0.011300,0.009649,0.020228,0.013056,0.022919,0.011090,0.027900,0.048250,0.029415,0.026561,0.028654,0.027811,0.017219,0.025361,0.053938,0.040475,0.016709,0.014611,0.016294,0.023774,0.020284,0.018782,0.041594,0.046164,0.030923,0.017209,0.024407,0.015319,0.033080,0.045842,0.016450,0.029421,0.021987,0.031169,0.015038,0.015570,0.032847,0.019805,0.028837,0.015480,0.027661,0.024214,0.076450,0.046448,0.016648,0.039448,0.043282
1737283920.166145,1737283920.166208,13.000000,0.000000,4334.487305,4351.922852,4269.487305,4322.436035,4354.102539,4360.256348,4365.384766,4556.282227,4553.205078,4558.589844,4492.820313,5646.410156,4306.282227,4258.461426,0.000000,1.000000,33.000000,,,,0.000000,0.000000,0.000000,0.000000,0.000000,0.000000,0.000000,0.000000,0.000000,0.000000,0.000000,0.000000,0.000000,0.000000,0.000000,0.000000,,,,,,,,,,,,,,,,,,,,,,,,,,,,,,,,,,,,,,,,,,,,,,,,,,,,,,,,,,,,,,,,,,,,,,,,,,,,,,,,,,,,,,,,,,,,,,,,,,,,,,,,,,,,,,,,,,,,,,,,,,,,,,,,,
1737283920.173953,1737283920.174116,14.000000,0.000000,4334.487305,4350.641113,4269.487305,4321.794922,4352.179688,4360.128418,4362.563965,4555.512695,4552.436035,4560.128418,4492.051270,5645.128418,4303.461426,4257.692383,0.000000,1.000000,33.000000,,,,0.000000,0.000000,0.000000,0.000000,0.000000,0.000000,0.000000,0.000000,0.000000,0.000000,0.000000,0.000000,0.000000,0.000000,0.000000,0.000000,,,,,,,,,,,,,,,,,,,,,,,,,,,,,,,,,,,,,,,,,,,,,,,,,,,,,,,,,,,,,,,,,,,,,,,,,,,,,,,,,,,,,,,,,,,,,,,,,,,,,,,,,,,,,,,,,,,,,,,,,,,,,,,,,
1737283920.181762,1737283920.181924,15.000000,0.000000,4336.410156,4353.461426,4268.974121,4322.563965,4354.743652,4359.358887,4362.179688,4556.153809,4552.820313,4562.307617,4495.897461,5643.205078,4303.717773,4258.461426,0.000000,1.000000,33.000000,,,,0.000000,0.000000,0.000000,0.000000,0.000000,0.000000,0.000000,0.000000,0.000000,0.000000,0.000000,0.000000,0.000000,0.000000,0.000000,0.000000,,,,,,,,,,,,,,,,,,,,,,,,,,,,,,,,,,,,,,,,,,,,,,,,,,,,,,,,,,,,,,,,,,,,,,,,,,,,,,,,,,,,,,,,,,,,,,,,,,,,,,,,,,,,,,,,,,,,,,,,,,,,,,,,,
1737283920.189570,1737283920.189732,16.000000,0.000000,4334.358887,4352.820313,4271.025879,4321.666504,4355.769043,4361.153809,4364.102539,4555.769043,4553.333496,4561.410156,4494.487305,5642.820313,4305.512695,4260.769043,0.000000,1.000000,33.000000,,,,0.000000,0.000000,0.000000,0.000000,0.000000,0.000000,0.000000,0.000000,0.000000,0.000000,0.000000,0.000000,0.000000,0.000000,0.000000,0.000000,,,,,,,,,,,,,,,,,4.000000,0.000000,0.659057,-0.750000,0.017639,0.053223,-0.103040,-0.980588,-0.125992,15.314672,-31.078419,16.886122,,,,,,,,,,,,,,,,,,,,,,,,,,,,,,,,,,,,,,,,,,,,,,,,,,,,,,,,,,,,,,,,,,,,,,,,,,,,,,,,,,,,,,,,,,,,,,,,,,,,,
1737283920.197378,1737283920.197440,17.000000,0.000000,4330.384766,4349.871582,4270.769043,4318.717773,4353.077148,4361.282227,4365.128418,4555.897461,4552.948730,4557.820313,4490.128418,5643.205078,4303.846191,4259.743652,0.000000,1.000000,33.000000,,,,0.000000,0.000000,0.000000,0.000000,0.000000,0.000000,0.000000,0.000000,0.000000,0.000000,0.000000,0.000000,0.000000,0.000000,0.000000,0.000000,,,,,,,,,,,,,,,,,,,,,,,,,,,,,,,,,,,,,,,,,,,,,,,,,,,,,,,,,,,,,,,,,,,,,,,,,,,,,,,,,,,,,,,,,,,,,,,,,,,,,,,,,,,,,,,,,,,,,,,,,,,,,,,,,
1737283920.205186,1737283920.205248,18.000000,0.000000,4331.666504,4354.487305,4268.333496,4320.641113,4353.717773,4359.487305,4363.077148,4556.538574,4551.538574,4559.102539,4492.563965,5646.153809,4305.000000,4263.205078,0.000000,1.000000,33.000000,,,,0.000000,0.000000,0.000000,0.000000,0.000000,0.000000,0.000000,0.000000,0.000000,0.000000,0.000000,0.000000,0.000000,0.000000,0.000000,0.000000,,,,,,,,,,,,,,,,,,,,,,,,,,,,,,,,,,,,,,,,,,,,,,,,,,,,,,,,,,,,,,,,,,,,,,,,,,,,,,,,,,,,,,,,,,,,,,,,,,,,,,,,,,,,,,,,,,,,,,,,,,,,,,,,,
1737283920.212994,1737283920.212956,19.000000,0.000000,4333.333496,4355.256348,4263.974121,4323.846191,4356.153809,4361.025879,4363.846191,4556.922852,4551.538574,4562.948730,4491.666504,5647.307617,4305.641113,4262.563965,0.000000,1.000000,33.000000,,,,0.000000,0.000000,0.000000,0.000000,0.000000,0.000000,0.000000,0.000000,0.000000,0.000000,0.000000,0.000000,0.000000,0.000000,0.000000,0.000000,,,,,,,,,,,,,,,,,,,,,,,,,,,,,,,,,,,,,,,,,,,,,,,,,,,,,,,,,,,,,,,,,,,,,,,,,,,,,,,,,,,,,,,,,,,,,,,,,,,,,,,,,,,,,,,,,,,,,,,,,,,,,,,,,
1737283920.220802,1737283920.220764,20.000000,0.000000,4333.589844,4349.487305,4264.487305,4323.589844,4356.922852,4360.897461,4364.871582,4555.000000,4552.563965,4562.563965,4491.025879,5651.282227,4304.743652,4262.692383,0.000000,1.000000,33.000000,,,,0.000000,0.000000,0.000000,0.000000,0.000000,0.000000,0.000000,0.000000,0.000000,0.000000,0.000000,0.000000,0.000000,0.000000,0.000000,0.000000,,,,,,,,,,,,,,,,,5.000000,0.000000,0.659067,-0.750000,0.017639,0.053101,-0.093761,-0.997680,-0.119155,15.233206,-30.970577,16.880842,,,,,,,,,,,,,,,,,,,,,,,,,,,,,,,,,,,,,,,,,,,,,,,,,,,,,,,,,,,,,,,,,,,,,,,,,,,,,,,,,,,,,,,,,,,,,,,,,,,,,
1737283920.228610,1737283920.228473,21.000000,0.000000,4333.205078,4351.538574,4268.717773,4320.000000,4356.153809,4358.846191,4363.717773,4555.128418,4553.461426,4562.820313,4496.794922,5648.974121,4304.358887,4263.846191,0.000000,1.000000,33.000000,,,,0.000000,0.000000,0.000000,0.000000,0.000000,0.000000,0.000000,0.000000,0.000000,0.000000,0.000000,0.000000,0.000000,0.000000,0.000000,0.000000,,,,,,,,,,,,,,,,,,,,,,,,,,,,,,,,,,,,,,,,,,,,,,,,,,,,,,,,,,,,,,,,,,,,,,,,,,,,,,,,,,,,,,,,,,,,,,,,,,,,,,,,,,,,,,,,,,,,,,,,,,,,,,,,,
1737283920.236418,1737283920.236280,22.000000,0.000000,4331.794922,4354.358887,4267.051270,4318.077148,4353.333496,4360.512695,4362.692383,4558.205078,4556.538574,4564.358887,4494.871582,5639.487305,4303.589844,4259.487305,0.000000,1.000000,33.000000,,,,0.000000,0.000000,0.000000,0.000000,0.000000,0.000000,0.000000,0.000000,0.000000,0.000000,0.000000,0.000000,0.000000,0.000000,0.000000,0.000000,,,,,,,,,,,,,,,,,,,,,,,,,,,,,,,,,,,,,,,,,,,,,,,,,,,,,,,,,,,,,,,,,,,,,,,,,,,,,,,,,,,,,,,,,,,,,,,,,,,,,,,,,,,,,,,,,,,,,,,,,,,,,,,,,
1737283920.244226,1737283920.243989,23.000000,0.000000,4334.615234,4352.436035,4267.307617,4321.153809,4351.282227,4361.025879,4360.384766,4553.461426,4555.769043,4564.871582,4490.128418,5642.563965,4304.487305,4263.205078,0.000000,1.000000,33.000000,,,,0.000000,0.000000,0.000000,0.000000,0.000000,0.000000,0.000000,0.000000,0.000000,0.000000,0.000000,0.000000,0.000000,0.000000,0.000000,0.000000,,,,,,,,,,,,,,,,,,,,,,,,,,,,,,,,,,,,,,,,,,,,,,,,,,,,,,,,,,,,,,,,,,,,,,,,,,,,,,,,,,,,,,,,,,,,,,,,,,,,,,,,,,,,,,,,,,,,,,,,,,,,,,,,,
1737283920.252034,1737283920.251897,24.000000,0.000000,4333.717773,4351.153809,4268.974121,4321.153809,4352.307617,4358.846191,4364.487305,4550.512695,4552.436035,4563.974121,4490.769043,5645.512695,4304.230957,4263.461426,0.000000,1.000000,33.000000,,,,0.000000,0.000000,0.000000,0.000000,0.000000,0.000000,0.000000,0.000000,0.000000,0.000000,0.000000,0.000000,0.000000,0.000000,0.000000,0.000000,,,,,,,,,,,,,,,,,6.000000,0.000000,0.659067,-0.750000,0.017639,0.053101,-0.098645,-0.979123,-0.118178,15.243218,-31.006853,16.826092,,,,,,,,,,,,,,,,,,,,,,,,,,,,,,,,,,,,,,,,,,,,,,,,,,,,,,,,,,,,,,,,,,,,,,,,,,,,,,,,,,,,,,,,,,,,,,,,,,,,,
1737283920.259843,1737283920.259705,25.000000,0.000000,4331.538574,4352.692383,4269.230957,4319.743652,4354.615234,4357.820313,4369.102539,4555.512695,4551.025879,4561.282227,4491.666504,5639.743652,4302.692383,4257.563965,0.000000,1.000000,33.000000,,,,0.000000,0.000000,0.000000,0.000000,0.000000,0.000000,0.000000,0.000000,0.000000,0.000000,0.000000,0.000000,0.000000,0.000000,0.000000,0.000000,,,,,,,,,,,,,,,,,,,,,,,,,,,,,,,,,,,,,,,,,,,,,,,,,,,,,,,,,,,,,,,,,,,,,,,,,,,,,,,,,,,,,,,,,,,,,,,,,,,,,,,,,,,,,,,,,,,,,,,,,,,,,,,,,
1737283920.267650,1737283920.267613,26.000000,0.000000,4333.461426,4355.256348,4269.487305,4321.666504,4354.743652,4358.589844,4365.641113,4558.974121,4551.794922,4561.666504,4493.077148,5640.256348,4304.615234,4261.538574,0.000000,1.000000,33.000000,,,,0.000000,0.000000,0.000000,0.000000,0.000000,0.000000,0.000000,0.000000,0.000000,0.000000,0.000000,0.000000,0.000000,0.000000,0.000000,0.000000,,,,,,,,,,,,,,,,,,,,,,,,,,,,,,,,,,,,,,,,,,,,,,,,,,,,,,,,,,,,,,,,,,,,,,,,,,,,,,,,,,,,,,,,,,,,,,,,,,,,,,,,,,,,,,,,,,,,,,,,,,,,,,,,,
1737283920.275459,1737283920.275421,27.000000,0.000000,4332.436035,4353.205078,4268.077148,4321.410156,4353.333496,4360.897461,4366.922852,4556.410156,4552.948730,4564.871582,4493.461426,5643.077148,4305.000000,4262.948730,0.000000,1.000000,33.000000,,,,0.000000,0.000000,0.000000,0.000000,0.000000,0.000000,0.000000,0.000000,0.000000,0.000000,0.000000,0.000000,0.000000,0.000000,0.000000,0.000000,,,,,,,,,,,,,,,,,,,,,,,,,,,,,,,,,,,,,,,,,,,,,,,,,,,,,,,,,,,,,,,,,,,,,,,,,,,,,,,,,,,,,,,,,,,,,,,,,,,,,,,,,,,,,,,,,,,,,,,,,,,,,,,,,
1737283920.283267,1737283920.283329,28.000000,0.000000,4333.846191,4351.025879,4271.282227,4322.436035,4352.307617,4361.410156,4368.589844,4552.820313,4551.538574,4563.717773,4494.358887,5643.846191,4304.871582,4262.051270,0.000000,1.000000,33.000000,,,,0.000000,0.000000,0.000000,0.000000,0.000000,0.000000,0.000000,0.000000,0.000000,0.000000,0.000000,0.000000,0.000000,0.000000,0.000000,0.000000,,,,,,,,,,,,,,,,,7.000000,0.000000,0.659067,-0.750000,0.017639,0.053101,-0.111830,-0.987914,-0.124039,15.285563,-31.039501,16.776815,,,,,,,,,,,,,,,,,,,,,,,,,,,,,,,,0.063850,0.046232,0.034802,0.022810,0.029600,0.030062,0.029801,0.013304,0.036577,0.038035,0.008892,0.031580,0.014558,0.027640,0.016231,0.016269,0.009837,0.032490,0.026820,0.026700,0.010885,0.004418,0.009288,0.011846,0.009712,0.019242,0.012724,0.024908,0.010757,0.028033,0.044780,0.032478,0.024043,0.033232,0.026202,0.016687,0.032635,0.053950,0.038449,0.015648,0.014411,0.013478,0.024733,0.023226,0.020143,0.041713,0.047046,0.031676,0.017421,0.021849,0.014092,0.027803,0.049962,0.014945,0.029869,0.029996,0.031245,0.016668,0.016130,0.033551,0.020129,0.028715,0.015384,0.029544,0.025867,0.086990,0.051305,0.020740,0.035285,0.040526
1737283920.291075,1737283920.291237,29.000000,0.000000,4333.461426,4351.538574,4270.256348,4325.256348,4352.820313,4361.538574,4367.307617,4556.025879,4552.307617,4561.410156,4493.205078,5641.025879,4305.641113,4259.743652,0.000000,1.000000,33.000000,,,,0.000000,0.000000,0.000000,0.000000,0.000000,0.000000,0.000000,0.000000,0.000000,0.000000,0.000000,0.000000,0.000000,0.000000,0.000000,0.000000,,,,,,,,,,,,,,,,,,,,,,,,,,,,,,,,,,,,,,,,,,,,,,,,,,,,,,,,,,,,,,,,,,,,,,,,,,,,,,,,,,,,,,,,,,,,,,,,,,,,,,,,,,,,,,,,,,,,,,,,,,,,,,,,,
1737283920.298883,1737283920.299045,30.000000,0.000000,4330.128418,4351.794922,4264.615234,4322.820313,4354.230957,4361.410156,4366.282227,4557.820313,4555.512695,4562.820313,4491.922852,5641.666504,4306.410156,4257.179688,0.000000,1.000000,33.000000,,,,0.000000,0.000000,0.000000,0.000000,0.000000,0.000000,0.000000,0.000000,0.000000,0.000000,0.000000,0.000000,0.000000,0.000000,0.000000,0.000000,,,,,,,,,,,,,,,,,,,,,,,,,,,,,,,,,,,,,,,,,,,,,,,,,,,,,,,,,,,,,,,,,,,,,,,,,,,,,,,,,,,,,,,,,,,,,,,,,,,,,,,,,,,,,,,,,,,,,,,,,,,,,,,,,
1737283920.306691,1737283920.306854,31.000000,0.000000,4331.410156,4351.794922,4266.794922,4321.410156,4352.692383,4359.743652,4361.794922,4555.769043,4553.846191,4561.410156,4492.692383,5646.922852,4307.051270,4261.794922,0.000000,1.000000,33.000000,,,,0.000000,0.000000,0.000000,0.000000,0.000000,0.000000,0.000000,0.000000,0.000000,0.000000,0.000000,0.000000,0.000000,0.000000,0.000000,0.000000,,,,,,,,,,,,,,,,,,,,,,,,,,,,,,,,,,,,,,,,,,,,,,,,,,,,,,,,,,,,,,,,,,,,,,,,,,,,,,,,,,,,,,,,,,,,,,,,,,,,,,,,,,,,,,,,,,,,,,,,,,,,,,,,,
1737283920.314499,1737283920.314562,32.000000,0.000000,4334.358887,4351.282227,4267.563965,4322.563965,4352.179688,4360.512695,4362.051270,4554.615234,4549.615234,4558.333496,4491.538574,5643.205078,4303.717773,4261.794922,0.000000,1.000000,33.000000,,,,0.000000,0.000000,0.000000,0.000000,0.000000,0.000000,0.000000,0.000000,0.000000,0.000000,0.000000,0.000000,0.000000,0.000000,0.000000,0.000000,,,,,,,,,,,,,,,,,8.000000,0.000000,0.658997,-0.750061,0.017639,0.053101,-0.103528,-0.985472,-0.121109,15.223674,-31.002218,16.799135,,,,,,,,,,,,,,,,,,,,,,,,,,,,,,,,,,,,,,,,,,,,,,,,,,,,,,,,,,,,,,,,,,,,,,,,,,,,,,,,,,,,,,,,,,,,,,,,,,,,,
1737283920.322307,1737283920.322370,33.000000,0.000000,4335.897461,4351.282227,4266.538574,4322.692383,4355.128418,4361.410156,4366.282227,4553.717773,4551.922852,4559.743652,4492.307617,5641.025879,4304.615234,4260.512695,0.000000,1.000000,33.000000,,,,0.000000,0.000000,0.000000,0.000000,0.000000,0.000000,0.000000,0.000000,0.000000,0.000000,0.000000,0.000000,0.000000,0.000000,0.000000,0.000000,,,,,,,,,,,,,,,,,,,,,,,,,,,,,,,,,,,,,,,,,,,,,,,,,,,,,,,,,,,,,,,,,,,,,,,,,,,,,,,,,,,,,,,,,,,,,,,,,,,,,,,,,,,,,,,,,,,,,,,,,,,,,,,,,
1737283920.330115,1737283920.330078,34.000000,0.000000,4335.128418,4350.128418,4267.307617,4321.410156,4355.128418,4359.487305,4365.897461,4552.563965,4554.358887,4561.794922,4495.641113,5645.384766,4306.410156,4261.153809,0.000000,1.000000,33.000000,,,,0.000000,0.000000,0.000000,0.000000,0.000000,0.000000,0.000000,0.000000,0.000000,0.000000,0.000000,0.000000,0.000000,0.000000,0.000000,0.000000,,,,,,,,,,,,,,,,,,,,,,,,,,,,,,,,,,,,,,,,,,,,,,,,,,,,,,,,,,,,,,,,,,,,,,,,,,,,,,,,,,,,,,,,,,,,,,,,,,,,,,,,,,,,,,,,,,,,,,,,,,,,,,,,,
1737283920.337923,1737283920.337986,35.000000,0.000000,4332.307617,4349.487305,4266.410156,4320.128418,4352.179688,4360.128418,4364.230957,4552.948730,4550.769043,4561.794922,4496.025879,5645.641113,4304.487305,4260.897461,0.000000,1.000000,33.000000,,,,0.000000,0.000000,0.000000,0.000000,0.000000,0.000000,0.000000,0.000000,0.000000,0.000000,0.000000,0.000000,0.000000,0.000000,0.000000,0.000000,,,,,,,,,,,,,,,,,,,,,,,,,,,,,,,,,,,,,,,,,,,,,,,,,,,,,,,,,,,,,,,,,,,,,,,,,,,,,,,,,,,,,,,,,,,,,,,,,,,,,,,,,,,,,,,,,,,,,,,,,,,,,,,,,
1737283920.345731,1737283920.345794,36.000000,0.000000,4331.153809,4352.307617,4266.922852,4321.922852,4353.077148,4362.948730,4366.922852,4553.846191,4551.410156,4563.205078,4494.871582,5645.512695,4305.384766,4264.615234,0.000000,1.000000,33.000000,,,,0.000000,0.000000,0.000000,0.000000,0.000000,0.000000,0.000000,0.000000,0.000000,0.000000,0.000000,0.000000,0.000000,0.000000,0.000000,0.000000,,,,,,,,,,,,,,,,,9.000000,0.000000,0.658993,-0.750061,0.017639,0.053162,-0.111342,-0.984007,-0.130875,15.184640,-30.951996,16.885887,,,,,,,,,,,,,,,,,,,,,,,,,,,,,,,,,,,,,,,,,,,,,,,,,,,,,,,,,,,,,,,,,,,,,,,,,,,,,,,,,,,,,,,,,,,,,,,,,,,,,
1737283920.353540,1737283920.353602,37.000000,0.000000,4332.436035,4353.589844,4267.948730,4322.051270,4354.102539,4362.563965,4369.871582,4554.230957,4554.358887,4562.948730,4495.000000,5642.820313,4302.820313,4262.948730,0.000000,1.000000,33.000000,,,,0.000000,0.000000,0.000000,0.000000,0.000000,0.000000,0.000000,0.000000,0.000000,0.000000,0.000000,0.000000,0.000000,0.000000,0.000000,0.000000,,,,,,,,,,,,,,,,,,,,,,,,,,,,,,,,,,,,,,,,,,,,,,,,,,,,,,,,,,,,,,,,,,,,,,,,,,,,,,,,,,,,,,,,,,,,,,,,,,,,,,,,,,,,,,,,,,,,,,,,,,,,,,,,,
1737283920.361348,1737283920.361310,38.000000,0.000000,4333.461426,4353.974121,4270.256348,4321.025879,4352.692383,4361.794922,4364.871582,4555.769043,4553.077148,4562.179688,4495.256348,5641.666504,4301.922852,4261.922852,0.000000,1.000000,33.000000,,,,0.000000,0.000000,0.000000,0.000000,0.000000,0.000000,0.000000,0.000000,0.000000,0.000000,0.000000,0.000000,0.000000,0.000000,0.000000,0.000000,,,,,,,,,,,,,,,,,,,,,,,,,,,,,,,,,,,,,,,,,,,,,,,,,,,,,,,,,,,,,,,,,,,,,,,,,,,,,,,,,,,,,,,,,,,,,,,,,,,,,,,,,,,,,,,,,,,,,,,,,,,,,,,,,
1737283920.369156,1737283920.369118,39.000000,0.000000,4332.563965,4353.461426,4270.512695,4321.538574,4354.358887,4363.333496,4361.922852,4555.897461,4551.153809,4563.717773,4494.358887,5644.358887,4304.743652,4262.563965,0.000000,1.000000,33.000000,,,,0.000000,0.000000,0.000000,0.000000,0.000000,0.000000,0.000000,0.000000,0.000000,0.000000,0.000000,0.000000,0.000000,0.000000,0.000000,0.000000,,,,,,,,,,,,,,,,,,,,,,,,,,,,,,,,,,,,,,,,,,,,,,,,,,,,,,,,,,,,,,,,,,,,,,,,,,,,,,,,,,,,,,,,,,,,,,,,,,,,,,,,,,,,,,,,,,,,,,,,,,,,,,,,,
1737283920.376964,1737283920.376826,40.000000,0.000000,4330.000000,4350.512695,4270.512695,4321.666504,4356.922852,4362.307617,4364.358887,4555.128418,4552.051270,4561.922852,4492.563965,5645.256348,4302.051270,4259.487305,0.000000,1.000000,33.000000,,,,0.000000,0.000000,0.000000,0.000000,0.000000,0.000000,0.000000,0.000000,0.000000,0.000000,0.000000,0.000000,0.000000,0.000000,0.000000,0.000000,,,,,,,,,,,,,,,,,10.000000,0.000000,0.658997,-0.750061,0.017639,0.053101,-0.109877,-0.984007,-0.126969,15.366176,-30.990129,16.880632,,,,,,,,,,,,,,,,,,,,,,,,,,,,,,,,,,,,,,,,,,,,,,,,,,,,,,,,,,,,,,,,,,,,,,,,,,,,,,,,,,,,,,,,,,,,,,,,,,,,,
1737283920.384772,1737283920.384734,41.000000,0.000000,4332.051270,4350.641113,4274.358887,4322.051270,4355.384766,4359.743652,4363.205078,4554.487305,4552.307617,4558.846191,4493.461426,5645.641113,4301.794922,4261.922852,0.000000,1.000000,33.000000,,,,0.000000,0.000000,0.000000,0.000000,0.000000,0.000000,0.000000,0.000000,0.000000,0.000000,0.000000,0.000000,0.000000,0.000000,0.000000,0.000000,,,,,,,,,,,,,,,,,,,,,,,,,,,,,,,,,,,,,,,,,,,,,,,,,,,,,,,,,,,,,,,,,,,,,,,,,,,,,,,,,,,,,,,,,,,,,,,,,,,,,,,,,,,,,,,,,,,,,,,,,,,,,,,,,
1737283920.392580,1737283920.392543,42.000000,0.000000,4332.820313,4351.282227,4269.871582,4322.051270,4353.077148,4359.358887,4363.589844,4555.128418,4550.769043,4560.769043,4494.615234,5645.000000,4307.436035,4261.282227,0.000000,1.000000,33.000000,,,,0.000000,0.000000,0.000000,0.000000,0.000000,0.000000,0.000000,0.000000,0.000000,0.000000,0.000000,0.000000,0.000000,0.000000,0.000000,0.000000,,,,,,,,,,,,,,,,,,,,,,,,,,,,,,,,,,,,,,,,,,,,,,,,,,,,,,,,,,,,,,,,,,,,,,,,,,,,,,,,,,,,,,,,,,,,,,,,,,,,,,,,,,,,,,,,,,,,,,,,,,,,,,,,,
1737283920.400388,1737283920.400451,43.000000,0.000000,4330.128418,4353.974121,4265.641113,4322.563965,4353.974121,4358.461426,4365.000000,4556.025879,4550.641113,4565.000000,4494.358887,5644.743652,4310.128418,4258.717773,0.000000,1.000000,33.000000,,,,0.000000,0.000000,0.000000,0.000000,0.000000,0.000000,0.000000,0.000000,0.000000,0.000000,0.000000,0.000000,0.000000,0.000000,0.000000,0.000000,,,,,,,,,,,,,,,,,,,,,,,,,,,,,,,,,,,,,,,,,,,,,,,,,,,,,,,,,,,,,,,,,,,,,,,,,,,,,,,,,,,,,,,,,,,,,,,,,,,,,,,,,,,,,,,,,,,,,,,,,,,,,,,,,
1737283920.408196,1737283920.408259,44.000000,0.000000,4331.410156,4355.000000,4268.333496,4323.589844,4355.512695,4357.692383,4362.692383,4554.743652,4553.077148,4565.000000,4492.948730,5643.077148,4305.256348,4261.153809,0.000000,1.000000,33.000000,,,,0.000000,0.000000,0.000000,0.000000,0.000000,0.000000,0.000000,0.000000,0.000000,0.000000,0.000000,0.000000,0.000000,0.000000,0.000000,0.000000,1.000000,0.000000,0.000000,0.000000,0.000000,0.000000,0.000000,0.000000,0.000000,0.000000,0.000000,0.000000,0.000000,0.000000,0.000000,0.000000,11.000000,0.000000,0.658918,-0.750122,0.017822,0.053162,-0.099133,-0.979612,-0.131364,15.312891,-30.991117,16.992569,,,,,,,,,,,,,,,,,,,,,,,,,,,,,,,,0.053198,0.037263,0.029026,0.022931,0.030897,0.023931,0.025110,0.011688,0.038090,0.038225,0.010003,0.032160,0.019014,0.030536,0.017113,0.014159,0.008961,0.033105,0.026810,0.027613,0.011525,0.004928,0.011055,0.012820,0.010314,0.019363,0.013056,0.027995,0.011145,0.027408,0.045217,0.032507,0.020827,0.036408,0.024425,0.017168,0.038929,0.048347,0.035409,0.014725,0.016027,0.010523,0.024281,0.025413,0.022304,0.039438,0.046610,0.031891,0.019036,0.020031,0.014309,0.023483,0.050126,0.014808,0.030627,0.036740,0.030481,0.017660,0.017669,0.032279,0.020031,0.026400,0.016065,0.032816,0.027488,0.089285,0.053214,0.025434,0.028861,0.038148
1737283920.416004,1737283920.416167,45.000000,0.000000,4333.461426,4350.512695,4267.820313,4323.077148,4355.384766,4360.128418,4364.230957,4554.615234,4556.025879,4562.820313,4491.153809,5640.897461,4301.025879,4260.512695,0.000000,1.000000,33.000000,,,,0.000000,0.000000,0.000000,0.000000,0.000000,0.000000,0.000000,0.000000,0.000000,0.000000,0.000000,0.000000,0.000000,0.000000,0.000000,0.000000,,,,,,,,,,,,,,,,,,,,,,,,,,,,,,,,,,,,,,,,,,,,,,,,,,,,,,,,,,,,,,,,,,,,,,,,,,,,,,,,,,,,,,,,,,,,,,,,,,,,,,,,,,,,,,,,,,,,,,,,,,,,,,,,,
1737283920.423812,1737283920.423975,46.000000,0.000000,4333.461426,4350.000000,4269.358887,4323.589844,4352.820313,4362.436035,4365.000000,4553.974121,4551.538574,4563.205078,4493.846191,5645.512695,4306.282227,4264.358887,0.000000,1.000000,33.000000,,,,0.000000,0.000000,0.000000,0.000000,0.000000,0.000000,0.000000,0.000000,0.000000,0.000000,0.000000,0.000000,0.000000,0.000000,0.000000,0.000000,,,,,,,,,,,,,,,,,,,,,,,,,,,,,,,,,,,,,,,,,,,,,,,,,,,,,,,,,,,,,,,,,,,,,,,,,,,,,,,,,,,,,,,,,,,,,,,,,,,,,,,,,,,,,,,,,,,,,,,,,,,,,,,,,
1737283920.431620,1737283920.431883,47.000000,0.000000,4330.897461,4351.025879,4270.128418,4323.077148,4351.666504,4363.333496,4364.743652,4553.205078,4548.205078,4562.820313,4494.230957,5646.282227,4308.589844,4264.487305,0.000000,1.000000,33.000000,,,,0.000000,0.000000,0.000000,0.000000,0.000000,0.000000,0.000000,0.000000,0.000000,0.000000,0.000000,0.000000,0.000000,0.000000,0.000000,0.000000,,,,,,,,,,,,,,,,,,,,,,,,,,,,,,,,,,,,,,,,,,,,,,,,,,,,,,,,,,,,,,,,,,,,,,,,,,,,,,,,,,,,,,,,,,,,,,,,,,,,,,,,,,,,,,,,,,,,,,,,,,,,,,,,,
1737283920.439428,1737283920.439692,48.000000,0.000000,4331.794922,4350.128418,4267.436035,4322.820313,4355.256348,4363.846191,4364.230957,4554.102539,4553.461426,4562.563965,4492.307617,5643.205078,4305.384766,4261.153809,0.000000,1.000000,33.000000,,,,0.000000,0.000000,0.000000,0.000000,0.000000,0.000000,0.000000,0.000000,0.000000,0.000000,0.000000,0.000000,0.000000,0.000000,0.000000,0.000000,,,,,,,,,,,,,,,,,12.000000,0.000000,0.658921,-0.750122,0.017883,0.053101,-0.097668,-0.986449,-0.131364,15.431602,-31.075338,16.926645,,,,,,,,,,,,,,,,,,,,,,,,,,,,,,,,,,,,,,,,,,,,,,,,,,,,,,,,,,,,,,,,,,,,,,,,,,,,,,,,,,,,,,,,,,,,,,,,,,,,,
1737283920.447237,1737283920.447600,49.000000,0.000000,4335.769043,4352.563965,4268.461426,4323.205078,4356.282227,4361.922852,4363.589844,4554.871582,4553.461426,4561.538574,4495.769043,5646.153809,4305.384766,4262.820313,0.000000,1.000000,33.000000,,,,0.000000,0.000000,0.000000,0.000000,0.000000,0.000000,0.000000,0.000000,0.000000,0.000000,0.000000,0.000000,0.000000,0.000000,0.000000,0.000000,,,,,,,,,,,,,,,,,,,,,,,,,,,,,,,,,,,,,,,,,,,,,,,,,,,,,,,,,,,,,,,,,,,,,,,,,,,,,,,,,,,,,,,,,,,,,,,,,,,,,,,,,,,,,,,,,,,,,,,,,,,,,,,,,
1737283920.455045,1737283920.455408,50.000000,0.000000,4333.205078,4354.358887,4270.897461,4322.307617,4353.077148,4361.282227,4365.384766,4554.743652,4548.846191,4560.769043,4495.128418,5644.102539,4304.871582,4262.307617,0.000000,1.000000,33.000000,,,,0.000000,0.000000,0.000000,0.000000,0.000000,0.000000,0.000000,0.000000,0.000000,0.000000,0.000000,0.000000,0.000000,0.000000,0.000000,0.000000,,,,,,,,,,,,,,,,,,,,,,,,,,,,,,,,,,,,,,,,,,,,,,,,,,,,,,,,,,,,,,,,,,,,,,,,,,,,,,,,,,,,,,,,,,,,,,,,,,,,,,,,,,,,,,,,,,,,,,,,,,,,,,,,,
1737283920.462853,1737283920.463316,51.000000,0.000000,4330.256348,4353.461426,4271.153809,4325.000000,4354.102539,4362.948730,4364.871582,4553.846191,4550.256348,4560.769043,4492.051270,5640.256348,4304.871582,4262.436035,0.000000,1.000000,33.000000,,,,0.000000,0.000000,0.000000,0.000000,0.000000,0.000000,0.000000,0.000000,0.000000,0.000000,0.000000,0.000000,0.000000,0.000000,0.000000,0.000000,,,,,,,,,,,,,,,,,,,,,,,,,,,,,,,,,,,,,,,,,,,,,,,,,,,,,,,,,,,,,,,,,,,,,,,,,,,,,,,,,,,,,,,,,,,,,,,,,,,,,,,,,,,,,,,,,,,,,,,,,,,,,,,,,
1737283920.470661,1737283920.471124,52.000000,0.000000,4331.538574,4353.205078,4270.000000,4324.615234,4356.025879,4362.692383,4366.410156,4553.846191,4553.461426,4558.205078,4492.436035,5642.179688,4304.615234,4260.641113,0.000000,1.000000,33.000000,,,,0.000000,0.000000,0.000000,0.000000,0.000000,0.000000,0.000000,0.000000,0.000000,0.000000,0.000000,0.000000,0.000000,0.000000,0.000000,0.000000,,,,,,,,,,,,,,,,,13.000000,0.000000,0.658925,-0.750122,0.017944,0.053040,-0.120620,-0.993285,-0.118178,15.205109,-30.967804,16.917315,,,,,,,,,,,,,,,,,,,,,,,,,,,,,,,,,,,,,,,,,,,,,,,,,,,,,,,,,,,,,,,,,,,,,,,,,,,,,,,,,,,,,,,,,,,,,,,,,,,,,
1737283920.478469,1737283920.479032,53.000000,0.000000,4334.743652,4353.589844,4269.871582,4320.897461,4354.102539,4362.307617,4368.461426,4554.487305,4552.436035,4558.333496,4495.384766,5645.897461,4303.461426,4260.128418,0.000000,1.000000,33.000000,,,,0.000000,0.000000,0.000000,0.000000,0.000000,0.000000,0.000000,0.000000,0.000000,0.000000,0.000000,0.000000,0.000000,0.000000,0.000000,0.000000,,,,,,,,,,,,,,,,,,,,,,,,,,,,,,,,,,,,,,,,,,,,,,,,,,,,,,,,,,,,,,,,,,,,,,,,,,,,,,,,,,,,,,,,,,,,,,,,,,,,,,,,,,,,,,,,,,,,,,,,,,,,,,,,,
1737283920.486277,1737283920.486840,54.000000,0.000000,4335.128418,4353.974121,4271.025879,4320.512695,4351.922852,4360.897461,4363.717773,4553.589844,4552.051270,4563.461426,4496.922852,5646.538574,4305.000000,4263.205078,0.000000,1.000000,33.000000,,,,0.000000,0.000000,0.000000,0.000000,0.000000,0.000000,0.000000,0.000000,0.000000,0.000000,0.000000,0.000000,0.000000,0.000000,0.000000,0.000000,,,,,,,,,,,,,,,,,,,,,,,,,,,,,,,,,,,,,,,,,,,,,,,,,,,,,,,,,,,,,,,,,,,,,,,,,,,,,,,,,,,,,,,,,,,,,,,,,,,,,,,,,,,,,,,,,,,,,,,,,,,,,,,,,
1737283920.494085,1737283920.494548,55.000000,0.000000,4331.794922,4354.230957,4271.538574,4322.179688,4350.897461,4360.128418,4362.436035,4552.051270,4551.794922,4563.589844,4495.512695,5643.077148,4305.512695,4261.794922,0.000000,1.000000,33.000000,,,,0.000000,0.000000,0.000000,0.000000,0.000000,0.000000,0.000000,0.000000,0.000000,0.000000,0.000000,0.000000,0.000000,0.000000,0.000000,0.000000,,,,,,,,,,,,,,,,,,,,,,,,,,,,,,,,,,,,,,,,,,,,,,,,,,,,,,,,,,,,,,,,,,,,,,,,,,,,,,,,,,,,,,,,,,,,,,,,,,,,,,,,,,,,,,,,,,,,,,,,,,,,,,,,,
1737283920.501893,1737283920.502356,56.000000,0.000000,4331.666504,4353.589844,4270.897461,4323.205078,4352.051270,4360.512695,4365.897461,4551.794922,4552.307617,4559.102539,4494.871582,5646.538574,4305.641113,4262.820313,0.000000,1.000000,33.000000,,,,0.000000,0.000000,0.000000,0.000000,0.000000,0.000000,0.000000,0.000000,0.000000,0.000000,0.000000,0.000000,0.000000,0.000000,0.000000,0.000000,,,,,,,,,,,,,,,,,14.000000,0.000000,0.658928,-0.750122,0.018005,0.052979,-0.103040,-0.988402,-0.129410,15.084598,-31.104357,16.992250,,,,,,,,,,,,,,,,,,,,,,,,,,,,,,,,,,,,,,,,,,,,,,,,,,,,,,,,,,,,,,,,,,,,,,,,,,,,,,,,,,,,,,,,,,,,,,,,,,,,,
1737283920.509701,1737283920.510064,57.000000,0.000000,4332.820313,4352.820313,4267.179688,4323.077148,4353.589844,4360.128418,4368.205078,4554.743652,4555.897461,4561.153809,4494.615234,5649.358887,4305.000000,4263.717773,0.000000,1.000000,33.000000,,,,0.000000,0.000000,0.000000,0.000000,0.000000,0.000000,0.000000,0.000000,0.000000,0.000000,0.000000,0.000000,0.000000,0.000000,0.000000,0.000000,,,,,,,,,,,,,,,,,,,,,,,,,,,,,,,,,,,,,,,,,,,,,,,,,,,,,,,,,,,,,,,,,,,,,,,,,,,,,,,,,,,,,,,,,,,,,,,,,,,,,,,,,,,,,,,,,,,,,,,,,,,,,,,,,
1737283920.517510,1737283920.517872,58.000000,0.000000,4332.436035,4351.666504,4263.077148,4321.666504,4353.461426,4361.282227,4366.794922,4557.436035,4554.743652,4563.846191,4494.358887,5644.358887,4301.794922,4261.282227,0.000000,1.000000,33.000000,,,,0.000000,0.000000,0.000000,0.000000,0.000000,0.000000,0.000000,0.000000,0.000000,0.000000,0.000000,0.000000,0.000000,0.000000,0.000000,0.000000,,,,,,,,,,,,,,,,,,,,,,,,,,,,,,,,,,,,,,,,,,,,,,,,,,,,,,,,,,,,,,,,,,,,,,,,,,,,,,,,,,,,,,,,,,,,,,,,,,,,,,,,,,,,,,,,,,,,,,,,,,,,,,,,,
1737283920.525318,1737283920.525580,59.000000,0.000000,4334.230957,4351.666504,4267.563965,4321.025879,4352.820313,4362.436035,4363.205078,4554.230957,4551.025879,4563.077148,4495.256348,5646.282227,4301.794922,4262.692383,0.000000,1.000000,33.000000,,,,0.000000,0.000000,0.000000,0.000000,0.000000,0.000000,0.000000,0.000000,0.000000,0.000000,0.000000,0.000000,0.000000,0.000000,0.000000,0.000000,,,,,,,,,,,,,,,,,,,,,,,,,,,,,,,,,,,,,,,,,,,,,,,,,,,,,,,,,,,,,,,,,,,,,,,,,,,,,,,,,,,,,,,,,,,,,,,,,,,,,,,,,,,,,,,,,,,,,,,,,,,,,,,,,
1737283920.533126,1737283920.533388,60.000000,0.000000,4331.282227,4352.051270,4271.794922,4321.538574,4353.589844,4360.128418,4363.589844,4551.922852,4554.102539,4562.692383,4495.128418,5647.051270,4304.230957,4262.307617,0.000000,1.000000,33.000000,,,,0.000000,0.000000,0.000000,0.000000,0.000000,0.000000,0.000000,0.000000,0.000000,0.000000,0.000000,0.000000,0.000000,0.000000,0.000000,0.000000,,,,,,,,,,,,,,,,,15.000000,0.000000,0.658999,-0.750061,0.017944,0.052979,-0.103040,-0.974240,-0.125015,15.092805,-31.160589,17.043024,,,,,,,,,,,,,,,,,,,,,,,,,,,,,,,,0.039973,0.031045,0.024812,0.023520,0.031062,0.020331,0.023542,0.012552,0.036788,0.037378,0.010718,0.033561,0.023200,0.031586,0.019332,0.014718,0.009009,0.034091,0.026140,0.027974,0.013047,0.005748,0.012666,0.013802,0.011124,0.019863,0.014374,0.031774,0.011974,0.025978,0.047839,0.029983,0.018731,0.037488,0.023217,0.018932,0.042787,0.038541,0.032181,0.014088,0.018685,0.008533,0.022989,0.026338,0.025045,0.035389,0.045594,0.030835,0.021196,0.019124,0.015362,0.020197,0.046453,0.015990,0.031778,0.041080,0.029662,0.019421,0.019882,0.029648,0.019440,0.022692,0.017097,0.036406,0.028844,0.083481,0.052215,0.030328,0.021771,0.036425
1737283920.540934,1737283920.541096,61.000000,0.000000,4328.717773,4354.358887,4271.538574,4322.820313,4353.461426,4356.922852,4364.871582,4555.000000,4555.128418,4559.871582,4494.487305,5644.871582,4304.871582,4262.948730,0.000000,1.000000,33.000000,,,,0.000000,0.000000,0.000000,0.000000,0.000000,0.000000,0.000000,0.000000,0.000000,0.000000,0.000000,0.000000,0.000000,0.000000,0.000000,0.000000,,,,,,,,,,,,,,,,,,,,,,,,,,,,,,,,,,,,,,,,,,,,,,,,,,,,,,,,,,,,,,,,,,,,,,,,,,,,,,,,,,,,,,,,,,,,,,,,,,,,,,,,,,,,,,,,,,,,,,,,,,,,,,,,,
1737283920.548742,1737283920.548904,62.000000,0.000000,4332.436035,4354.358887,4270.000000,4321.794922,4352.820313,4357.820313,4364.358887,4555.769043,4550.897461,4559.487305,4494.615234,5646.922852,4304.102539,4263.589844,0.000000,1.000000,33.000000,,,,0.000000,0.000000,0.000000,0.000000,0.000000,0.000000,0.000000,0.000000,0.000000,0.000000,0.000000,0.000000,0.000000,0.000000,0.000000,0.000000,,,,,,,,,,,,,,,,,,,,,,,,,,,,,,,,,,,,,,,,,,,,,,,,,,,,,,,,,,,,,,,,,,,,,,,,,,,,,,,,,,,,,,,,,,,,,,,,,,,,,,,,,,,,,,,,,,,,,,,,,,,,,,,,,
1737283920.556550,1737283920.556612,63.000000,0.000000,4333.461426,4350.641113,4267.820313,4320.897461,4353.461426,4361.153809,4366.282227,4554.230957,4551.282227,4563.077148,4495.000000,5644.487305,4301.794922,4257.051270,0.000000,1.000000,33.000000,,,,0.000000,0.000000,0.000000,0.000000,0.000000,0.000000,0.000000,0.000000,0.000000,0.000000,0.000000,0.000000,0.000000,0.000000,0.000000,0.000000,,,,,,,,,,,,,,,,,,,,,,,,,,,,,,,,,,,,,,,,,,,,,,,,,,,,,,,,,,,,,,,,,,,,,,,,,,,,,,,,,,,,,,,,,,,,,,,,,,,,,,,,,,,,,,,,,,,,,,,,,,,,,,,,,
1737283920.564358,1737283920.564420,64.000000,0.000000,4332.948730,4351.794922,4271.538574,4324.743652,4354.102539,4362.051270,4366.538574,4554.487305,4556.153809,4562.820313,4497.051270,5644.102539,4302.436035,4260.641113,0.000000,1.000000,33.000000,,,,0.000000,0.000000,0.000000,0.000000,0.000000,0.000000,0.000000,0.000000,0.000000,0.000000,0.000000,0.000000,0.000000,0.000000,0.000000,0.000000,,,,,,,,,,,,,,,,,16.000000,0.000000,0.658994,-0.750061,0.017944,0.053040,-0.109388,-0.982542,-0.130387,15.100191,-31.211197,16.838722,,,,,,,,,,,,,,,,,,,,,,,,,,,,,,,,,,,,,,,,,,,,,,,,,,,,,,,,,,,,,,,,,,,,,,,,,,,,,,,,,,,,,,,,,,,,,,,,,,,,,
1737283920.572166,1737283920.572128,65.000000,0.000000,4332.692383,4351.666504,4272.948730,4324.871582,4355.384766,4361.282227,4366.922852,4555.641113,4554.871582,4560.512695,4493.205078,5646.666504,4301.794922,4265.769043,0.000000,1.000000,33.000000,,,,0.000000,0.000000,0.000000,0.000000,0.000000,0.000000,0.000000,0.000000,0.000000,0.000000,0.000000,0.000000,0.000000,0.000000,0.000000,0.000000,,,,,,,,,,,,,,,,,,,,,,,,,,,,,,,,,,,,,,,,,,,,,,,,,,,,,,,,,,,,,,,,,,,,,,,,,,,,,,,,,,,,,,,,,,,,,,,,,,,,,,,,,,,,,,,,,,,,,,,,,,,,,,,,,
1737283920.579974,1737283920.579936,66.000000,0.000000,4333.077148,4350.512695,4271.538574,4321.922852,4356.666504,4360.897461,4367.051270,4554.743652,4551.538574,4563.205078,4490.000000,5646.666504,4302.051270,4260.641113,0.000000,1.000000,33.000000,,,,0.000000,0.000000,0.000000,0.000000,0.000000,0.000000,0.000000,0.000000,0.000000,0.000000,0.000000,0.000000,0.000000,0.000000,0.000000,0.000000,,,,,,,,,,,,,,,,,,,,,,,,,,,,,,,,,,,,,,,,,,,,,,,,,,,,,,,,,,,,,,,,,,,,,,,,,,,,,,,,,,,,,,,,,,,,,,,,,,,,,,,,,,,,,,,,,,,,,,,,,,,,,,,,,
1737283920.587782,1737283920.587644,67.000000,0.000000,4332.307617,4351.153809,4270.512695,4324.230957,4354.871582,4361.922852,4366.538574,4553.333496,4553.461426,4562.563965,4492.692383,5646.794922,4305.769043,4260.897461,0.000000,1.000000,33.000000,,,,0.000000,0.000000,0.000000,0.000000,0.000000,0.000000,0.000000,0.000000,0.000000,0.000000,0.000000,0.000000,0.000000,0.000000,0.000000,0.000000,,,,,,,,,,,,,,,,,,,,,,,,,,,,,,,,,,,,,,,,,,,,,,,,,,,,,,,,,,,,,,,,,,,,,,,,,,,,,,,,,,,,,,,,,,,,,,,,,,,,,,,,,,,,,,,,,,,,,,,,,,,,,,,,,
1737283920.595590,1737283920.595552,68.000000,0.000000,4331.153809,4352.692383,4267.692383,4323.333496,4351.538574,4362.051270,4369.230957,4555.000000,4556.153809,4559.743652,4492.563965,5644.743652,4304.487305,4264.102539,0.000000,1.000000,33.000000,,,,0.000000,0.000000,0.000000,0.000000,0.000000,0.000000,0.000000,0.000000,0.000000,0.000000,0.000000,0.000000,0.000000,0.000000,0.000000,0.000000,,,,,,,,,,,,,,,,,17.000000,0.000000,0.658999,-0.750061,0.017944,0.052979,-0.094738,-0.985472,-0.134782,15.106838,-31.023409,16.688183,,,,,,,,,,,,,,,,,,,,,,,,,,,,,,,,,,,,,,,,,,,,,,,,,,,,,,,,,,,,,,,,,,,,,,,,,,,,,,,,,,,,,,,,,,,,,,,,,,,,,
1737283920.603398,1737283920.603360,69.000000,0.000000,4334.358887,4355.512695,4270.512695,4322.307617,4352.051270,4359.230957,4367.307617,4556.153809,4553.589844,4561.794922,4494.743652,5646.410156,4304.487305,4265.128418,0.000000,1.000000,33.000000,,,,0.000000,0.000000,0.000000,0.000000,0.000000,0.000000,0.000000,0.000000,0.000000,0.000000,0.000000,0.000000,0.000000,0.000000,0.000000,0.000000,,,,,,,,,,,,,,,,,,,,,,,,,,,,,,,,,,,,,,,,,,,,,,,,,,,,,,,,,,,,,,,,,,,,,,,,,,,,,,,,,,,,,,,,,,,,,,,,,,,,,,,,,,,,,,,,,,,,,,,,,,,,,,,,,
1737283920.611207,1737283920.611268,70.000000,0.000000,4333.589844,4353.333496,4270.000000,4323.461426,4354.230957,4360.897461,4364.615234,4554.487305,4550.641113,4562.436035,4495.128418,5645.256348,4305.256348,4262.820313,0.000000,1.000000,33.000000,,,,0.000000,0.000000,0.000000,0.000000,0.000000,0.000000,0.000000,0.000000,0.000000,0.000000,0.000000,0.000000,0.000000,0.000000,0.000000,0.000000,,,,,,,,,,,,,,,,,,,,,,,,,,,,,,,,,,,,,,,,,,,,,,,,,,,,,,,,,,,,,,,,,,,,,,,,,,,,,,,,,,,,,,,,,,,,,,,,,,,,,,,,,,,,,,,,,,,,,,,,,,,,,,,,,
1737283920.619015,1737283920.619077,71.000000,0.000000,4332.820313,4350.641113,4266.025879,4323.205078,4353.846191,4362.563965,4366.025879,4555.769043,4552.051270,4560.897461,4493.205078,5642.436035,4305.384766,4262.436035,0.000000,1.000000,33.000000,,,,0.000000,0.000000,0.000000,0.000000,0.000000,0.000000,0.000000,0.000000,0.000000,0.000000,0.000000,0.000000,0.000000,0.000000,0.000000,0.000000,,,,,,,,,,,,,,,,,,,,,,,,,,,,,,,,,,,,,,,,,,,,,,,,,,,,,,,,,,,,,,,,,,,,,,,,,,,,,,,,,,,,,,,,,,,,,,,,,,,,,,,,,,,,,,,,,,,,,,,,,,,,,,,,,
1737283920.626823,1737283920.626985,72.000000,0.000000,4335.000000,4351.538574,4268.461426,4323.333496,4354.487305,4357.179688,4366.666504,4557.051270,4551.282227,4561.025879,4495.512695,5649.230957,4305.512695,4263.461426,0.000000,1.000000,33.000000,,,,0.000000,0.000000,0.000000,0.000000,0.000000,0.000000,0.000000,0.000000,0.000000,0.000000,0.000000,0.000000,0.000000,0.000000,0.000000,0.000000,,,,,,,,,,,,,,,,,18.000000,0.000000,0.658994,-0.750061,0.017944,0.053040,-0.092296,-0.980588,-0.133317,15.046155,-31.021069,16.486032,,,,,,,,,,,,,,,,,,,,,,,,,,,,,,,,,,,,,,,,,,,,,,,,,,,,,,,,,,,,,,,,,,,,,,,,,,,,,,,,,,,,,,,,,,,,,,,,,,,,,
1737283920.634631,1737283920.634793,73.000000,0.000000,4330.128418,4351.025879,4269.487305,4322.436035,4355.384766,4355.641113,4366.666504,4556.282227,4549.358887,4561.794922,4493.589844,5648.205078,4302.692383,4258.717773,0.000000,1.000000,33.000000,,,,0.000000,0.000000,0.000000,0.000000,0.000000,0.000000,0.000000,0.000000,0.000000,0.000000,0.000000,0.000000,0.000000,0.000000,0.000000,0.000000,,,,,,,,,,,,,,,,,,,,,,,,,,,,,,,,,,,,,,,,,,,,,,,,,,,,,,,,,,,,,,,,,,,,,,,,,,,,,,,,,,,,,,,,,,,,,,,,,,,,,,,,,,,,,,,,,,,,,,,,,,,,,,,,,
1737283920.642439,1737283920.642701,74.000000,0.000000,4328.846191,4349.743652,4270.128418,4320.512695,4354.230957,4360.384766,4363.717773,4556.922852,4551.153809,4561.666504,4490.897461,5642.436035,4305.128418,4261.794922,0.000000,1.000000,33.000000,,,,0.000000,0.000000,0.000000,0.000000,0.000000,0.000000,0.000000,0.000000,0.000000,0.000000,0.000000,0.000000,0.000000,0.000000,0.000000,0.000000,,,,,,,,,,,,,,,,,,,,,,,,,,,,,,,,,,,,,,,,,,,,,,,,,,,,,,,,,,,,,,,,,,,,,,,,,,,,,,,,,,,,,,,,,,,,,,,,,,,,,,,,,,,,,,,,,,,,,,,,,,,,,,,,,
1737283920.650247,1737283920.650509,75.000000,0.000000,4335.897461,4349.743652,4271.538574,4319.358887,4354.487305,4362.948730,4363.205078,4557.692383,4552.436035,4560.769043,4494.358887,5643.077148,4307.051270,4262.436035,0.000000,1.000000,33.000000,,,,0.000000,0.000000,0.000000,0.000000,0.000000,0.000000,0.000000,0.000000,0.000000,0.000000,0.000000,0.000000,0.000000,0.000000,0.000000,0.000000,,,,,,,,,,,,,,,,,,,,,,,,,,,,,,,,,,,,,,,,,,,,,,,,,,,,,,,,,,,,,,,,,,,,,,,,,,,,,,,,,,,,,,,,,,,,,,,,,,,,,,,,,,,,,,,,,,,,,,,,,,,,,,,,,
1737283920.658055,1737283920.658417,76.000000,0.000000,4338.205078,4351.666504,4269.871582,4322.436035,4355.000000,4361.282227,4364.743652,4557.820313,4551.025879,4561.922852,4497.692383,5646.666504,4304.102539,4255.128418,0.000000,1.000000,33.000000,,,,0.000000,0.000000,0.000000,0.000000,0.000000,0.000000,0.000000,0.000000,0.000000,0.000000,0.000000,0.000000,0.000000,0.000000,0.000000,0.000000,,,,,,,,,,,,,,,,,19.000000,0.000000,0.658992,-0.750061,0.018005,0.053040,-0.105482,-0.984007,-0.131852,15.058206,-31.118961,16.420761,,,,,,,,,,,,,,,,,,,,,,,,,,,,,,,,0.027630,0.027606,0.022114,0.024433,0.030269,0.020194,0.024912,0.014682,0.033735,0.035761,0.010946,0.037621,0.025960,0.030574,0.022238,0.016765,0.009761,0.036453,0.024435,0.027641,0.014883,0.006795,0.013709,0.014484,0.011963,0.020085,0.016680,0.035972,0.012979,0.023852,0.050146,0.026380,0.019378,0.036207,0.023206,0.021792,0.043373,0.027286,0.029290,0.014053,0.021106,0.008151,0.021631,0.026039,0.027839,0.031545,0.044123,0.028275,0.023046,0.018923,0.016514,0.017836,0.039886,0.018113,0.033184,0.042884,0.029826,0.023159,0.022814,0.027019,0.018258,0.019265,0.017794,0.038890,0.029750,0.072444,0.049337,0.034778,0.015575,0.035473
1737283920.665863,1737283920.666225,77.000000,0.000000,4334.615234,4353.974121,4270.256348,4325.512695,4352.692383,4359.230957,4363.589844,4556.153809,4551.922852,4562.948730,4494.871582,5647.820313,4303.846191,4258.461426,0.000000,1.000000,33.000000,,,,0.000000,0.000000,0.000000,0.000000,0.000000,0.000000,0.000000,0.000000,0.000000,0.000000,0.000000,0.000000,0.000000,0.000000,0.000000,0.000000,,,,,,,,,,,,,,,,,,,,,,,,,,,,,,,,,,,,,,,,,,,,,,,,,,,,,,,,,,,,,,,,,,,,,,,,,,,,,,,,,,,,,,,,,,,,,,,,,,,,,,,,,,,,,,,,,,,,,,,,,,,,,,,,,
1737283920.673671,1737283920.674133,78.000000,0.000000,4332.307617,4352.563965,4268.333496,4321.153809,4352.820313,4359.358887,4364.487305,4555.384766,4554.487305,4560.128418,4492.692383,5644.102539,4305.769043,4263.589844,0.000000,1.000000,33.000000,,,,0.000000,0.000000,0.000000,0.000000,0.000000,0.000000,0.000000,0.000000,0.000000,0.000000,0.000000,0.000000,0.000000,0.000000,0.000000,0.000000,,,,,,,,,,,,,,,,,,,,,,,,,,,,,,,,,,,,,,,,,,,,,,,,,,,,,,,,,,,,,,,,,,,,,,,,,,,,,,,,,,,,,,,,,,,,,,,,,,,,,,,,,,,,,,,,,,,,,,,,,,,,,,,,,
1737283920.681479,1737283920.681941,79.000000,0.000000,4334.871582,4351.922852,4267.948730,4319.487305,4356.410156,4361.025879,4363.077148,4555.128418,4553.205078,4559.358887,4495.897461,5645.128418,4306.410156,4264.743652,0.000000,1.000000,33.000000,,,,0.000000,0.000000,0.000000,0.000000,0.000000,0.000000,0.000000,0.000000,0.000000,0.000000,0.000000,0.000000,0.000000,0.000000,0.000000,0.000000,,,,,,,,,,,,,,,,,,,,,,,,,,,,,,,,,,,,,,,,,,,,,,,,,,,,,,,,,,,,,,,,,,,,,,,,,,,,,,,,,,,,,,,,,,,,,,,,,,,,,,,,,,,,,,,,,,,,,,,,,,,,,,,,,
1737283920.689288,1737283920.689649,80.000000,0.000000,4336.666504,4353.333496,4268.846191,4323.205078,4355.641113,4360.128418,4360.641113,4554.615234,4551.282227,4563.077148,4494.230957,5648.205078,4302.563965,4261.025879,0.000000,1.000000,33.000000,,,,0.000000,0.000000,0.000000,0.000000,0.000000,0.000000,0.000000,0.000000,0.000000,0.000000,0.000000,0.000000,0.000000,0.000000,0.000000,0.000000,,,,,,,,,,,,,,,,,20.000000,0.000000,0.658926,-0.750122,0.018066,0.052979,-0.105970,-0.979123,-0.130875,15.019052,-30.990398,16.612019,,,,,,,,,,,,,,,,,,,,,,,,,,,,,,,,,,,,,,,,,,,,,,,,,,,,,,,,,,,,,,,,,,,,,,,,,,,,,,,,,,,,,,,,,,,,,,,,,,,,,
1737283920.697096,1737283920.697457,81.000000,0.000000,4330.769043,4353.077148,4265.897461,4321.922852,4352.820313,4358.333496,4362.179688,4555.256348,4550.641113,4563.717773,4488.333496,5645.897461,4301.538574,4257.948730,0.000000,1.000000,33.000000,,,,0.000000,0.000000,0.000000,0.000000,0.000000,0.000000,0.000000,0.000000,0.000000,0.000000,0.000000,0.000000,0.000000,0.000000,0.000000,0.000000,,,,,,,,,,,,,,,,,,,,,,,,,,,,,,,,,,,,,,,,,,,,,,,,,,,,,,,,,,,,,,,,,,,,,,,,,,,,,,,,,,,,,,,,,,,,,,,,,,,,,,,,,,,,,,,,,,,,,,,,,,,,,,,,,
1737283920.704904,1737283920.705165,82.000000,0.000000,4327.948730,4353.333496,4267.820313,4321.538574,4353.846191,4362.820313,4362.179688,4555.512695,4551.794922,4561.153809,4491.153809,5646.025879,4306.794922,4263.974121,0.000000,1.000000,33.000000,,,,0.000000,0.000000,0.000000,0.000000,0.000000,0.000000,0.000000,0.000000,0.000000,0.000000,0.000000,0.000000,0.000000,0.000000,0.000000,0.000000,,,,,,,,,,,,,,,,,,,,,,,,,,,,,,,,,,,,,,,,,,,,,,,,,,,,,,,,,,,,,,,,,,,,,,,,,,,,,,,,,,,,,,,,,,,,,,,,,,,,,,,,,,,,,,,,,,,,,,,,,,,,,,,,,
1737283920.712712,1737283920.713073,83.000000,0.000000,4331.410156,4351.794922,4271.666504,4324.358887,4354.102539,4364.871582,4363.846191,4555.769043,4553.461426,4560.256348,4493.589844,5646.794922,4305.384766,4262.051270,0.000000,1.000000,33.000000,,,,0.000000,0.000000,0.000000,0.000000,0.000000,0.000000,0.000000,0.000000,0.000000,0.000000,0.000000,0.000000,0.000000,0.000000,0.000000,0.000000,,,,,,,,,,,,,,,,,,,,,,,,,,,,,,,,,,,,,,,,,,,,,,,,,,,,,,,,,,,,,,,,,,,,,,,,,,,,,,,,,,,,,,,,,,,,,,,,,,,,,,,,,,,,,,,,,,,,,,,,,,,,,,,,,
1737283920.720520,1737283920.720881,84.000000,0.000000,4332.051270,4350.897461,4270.769043,4322.948730,4352.820313,4359.487305,4365.641113,4554.615234,4553.846191,4559.871582,4491.410156,5646.153809,4303.077148,4259.358887,0.000000,1.000000,33.000000,,,,0.000000,0.000000,0.000000,0.000000,0.000000,0.000000,0.000000,0.000000,0.000000,0.000000,0.000000,0.000000,0.000000,0.000000,0.000000,0.000000,,,,,,,,,,,,,,,,,21.000000,0.000000,0.658984,-0.750061,0.018127,0.053101,-0.107435,-0.975217,-0.114760,15.050480,-31.024693,16.500816,,,,,,,,,,,,,,,,,,,,,,,,,,,,,,,,,,,,,,,,,,,,,,,,,,,,,,,,,,,,,,,,,,,,,,,,,,,,,,,,,,,,,,,,,,,,,,,,,,,,,
1737283920.728328,1737283920.728789,85.000000,0.000000,4329.487305,4352.436035,4266.666504,4320.512695,4353.589844,4358.461426,4364.487305,4554.230957,4554.487305,4560.897461,4490.512695,5644.230957,4308.077148,4263.974121,0.000000,1.000000,33.000000,,,,0.000000,0.000000,0.000000,0.000000,0.000000,0.000000,0.000000,0.000000,0.000000,0.000000,0.000000,0.000000,0.000000,0.000000,0.000000,0.000000,,,,,,,,,,,,,,,,,,,,,,,,,,,,,,,,,,,,,,,,,,,,,,,,,,,,,,,,,,,,,,,,,,,,,,,,,,,,,,,,,,,,,,,,,,,,,,,,,,,,,,,,,,,,,,,,,,,,,,,,,,,,,,,,,
1737283920.736136,1737283920.736598,86.000000,0.000000,4329.871582,4352.179688,4267.307617,4321.410156,4353.333496,4362.563965,4367.051270,4554.615234,4555.512695,4561.282227,4490.384766,5642.436035,4308.974121,4260.512695,0.000000,1.000000,33.000000,,,,0.000000,0.000000,0.000000,0.000000,0.000000,0.000000,0.000000,0.000000,0.000000,0.000000,0.000000,0.000000,0.000000,0.000000,0.000000,0.000000,,,,,,,,,,,,,,,,,,,,,,,,,,,,,,,,,,,,,,,,,,,,,,,,,,,,,,,,,,,,,,,,,,,,,,,,,,,,,,,,,,,,,,,,,,,,,,,,,,,,,,,,,,,,,,,,,,,,,,,,,,,,,,,,,
1737283920.743944,1737283920.744506,87.000000,0.000000,4333.974121,4351.538574,4273.205078,4321.794922,4352.820313,4361.666504,4368.205078,4552.692383,4553.205078,4562.051270,4495.128418,5645.384766,4308.333496,4260.769043,0.000000,1.000000,33.000000,,,,0.000000,0.000000,0.000000,0.000000,0.000000,0.000000,0.000000,0.000000,0.000000,0.000000,0.000000,0.000000,0.000000,0.000000,0.000000,0.000000,,,,,,,,,,,,,,,,,,,,,,,,,,,,,,,,,,,,,,,,,,,,,,,,,,,,,,,,,,,,,,,,,,,,,,,,,,,,,,,,,,,,,,,,,,,,,,,,,,,,,,,,,,,,,,,,,,,,,,,,,,,,,,,,,
1737283920.751752,1737283920.752314,88.000000,0.000000,4331.794922,4350.256348,4270.384766,4320.641113,4353.846191,4358.974121,4367.436035,4552.307617,4551.794922,4564.358887,4496.410156,5643.333496,4307.307617,4265.256348,0.000000,1.000000,33.000000,,,,0.000000,0.000000,0.000000,0.000000,0.000000,0.000000,0.000000,0.000000,0.000000,0.000000,0.000000,0.000000,0.000000,0.000000,0.000000,0.000000,,,,,,,,,,,,,,,,,22.000000,0.000000,0.658984,-0.750061,0.018127,0.053101,-0.102552,-0.989867,-0.117690,15.062099,-30.955557,16.517403,,,,,,,,,,,,,,,,,,,,,,,,,,,,,,,,,,,,,,,,,,,,,,,,,,,,,,,,,,,,,,,,,,,,,,,,,,,,,,,,,,,,,,,,,,,,,,,,,,,,,
1737283920.759560,1737283920.760122,89.000000,0.000000,4332.179688,4349.230957,4265.128418,4321.666504,4353.974121,4359.102539,4365.641113,4555.128418,4553.205078,4561.538574,4492.948730,5641.666504,4305.897461,4264.102539,0.000000,1.000000,33.000000,,,,0.000000,0.000000,0.000000,0.000000,0.000000,0.000000,0.000000,0.000000,0.000000,0.000000,0.000000,0.000000,0.000000,0.000000,0.000000,0.000000,,,,,,,,,,,,,,,,,,,,,,,,,,,,,,,,,,,,,,,,,,,,,,,,,,,,,,,,,,,,,,,,,,,,,,,,,,,,,,,,,,,,,,,,,,,,,,,,,,,,,,,,,,,,,,,,,,,,,,,,,,,,,,,,,
1737283920.767368,1737283920.767830,90.000000,0.000000,4336.538574,4352.563965,4266.538574,4322.692383,4352.692383,4360.384766,4362.820313,4557.307617,4551.794922,4558.589844,4492.179688,5646.538574,4304.102539,4258.717773,0.000000,1.000000,33.000000,,,,0.000000,0.000000,0.000000,0.000000,0.000000,0.000000,0.000000,0.000000,0.000000,0.000000,0.000000,0.000000,0.000000,0.000000,0.000000,0.000000,,,,,,,,,,,,,,,,,,,,,,,,,,,,,,,,,,,,,,,,,,,,,,,,,,,,,,,,,,,,,,,,,,,,,,,,,,,,,,,,,,,,,,,,,,,,,,,,,,,,,,,,,,,,,,,,,,,,,,,,,,,,,,,,,
1737283920.775176,1737283920.775738,91.000000,0.000000,4332.051270,4352.307617,4268.333496,4322.307617,4352.820313,4362.051270,4365.128418,4557.436035,4550.641113,4561.153809,4491.666504,5646.794922,4300.897461,4254.487305,0.000000,1.000000,33.000000,,,,0.000000,0.000000,0.000000,0.000000,0.000000,0.000000,0.000000,0.000000,0.000000,0.000000,0.000000,0.000000,0.000000,0.000000,0.000000,0.000000,,,,,,,,,,,,,,,,,,,,,,,,,,,,,,,,,,,,,,,,,,,,,,,,,,,,,,,,,,,,,,,,,,,,,,,,,,,,,,,,,,,,,,,,,,,,,,,,,,,,,,,,,,,,,,,,,,,,,,,,,,,,,,,,,
1737283920.782985,1737283920.783546,92.000000,0.000000,4331.410156,4351.410156,4270.769043,4323.717773,4353.974121,4361.410156,4367.051270,4555.641113,4551.410156,4563.717773,4493.717773,5646.282227,4303.846191,4261.410156,0.000000,1.000000,33.000000,,,,0.000000,0.000000,0.000000,0.000000,0.000000,0.000000,0.000000,0.000000,0.000000,0.000000,0.000000,0.000000,0.000000,0.000000,0.000000,0.000000,,,,,,,,,,,,,,,,,23.000000,0.000000,0.658978,-0.750061,0.018188,0.053162,-0.093761,-0.982053,-0.126969,15.039222,-30.993334,16.582329,,,,,,,,,,,,,,,,,,,,,,,,,,,,,,,,0.018641,0.026174,0.020368,0.025508,0.028952,0.022920,0.028043,0.017011,0.030610,0.033493,0.010798,0.045690,0.026414,0.028183,0.025125,0.019533,0.010651,0.040018,0.021571,0.026541,0.016345,0.008007,0.014042,0.014870,0.012852,0.020000,0.019602,0.040348,0.014113,0.021244,0.050226,0.023360,0.023696,0.032988,0.024460,0.024823,0.040797,0.017332,0.026734,0.014821,0.022013,0.009241,0.020626,0.024887,0.030155,0.029894,0.042087,0.024789,0.024126,0.019167,0.017591,0.016299,0.032343,0.020706,0.034338,0.042967,0.031479,0.028931,0.026389,0.025694,0.017022,0.017652,0.017475,0.039231,0.030193,0.060140,0.046098,0.038259,0.011175,0.035108
1737283920.790793,1737283920.791455,93.000000,0.000000,4335.512695,4354.743652,4269.743652,4322.436035,4353.461426,4360.384766,4367.179688,4553.974121,4550.000000,4561.153809,4495.256348,5642.692383,4304.487305,4262.563965,0.000000,1.000000,33.000000,,,,0.000000,0.000000,0.000000,0.000000,0.000000,0.000000,0.000000,0.000000,0.000000,0.000000,0.000000,0.000000,0.000000,0.000000,0.000000,0.000000,,,,,,,,,,,,,,,,,,,,,,,,,,,,,,,,,,,,,,,,,,,,,,,,,,,,,,,,,,,,,,,,,,,,,,,,,,,,,,,,,,,,,,,,,,,,,,,,,,,,,,,,,,,,,,,,,,,,,,,,,,,,,,,,,
1737283920.798601,1737283920.799263,94.000000,0.000000,4334.358887,4355.641113,4265.641113,4321.153809,4352.051270,4361.410156,4368.077148,4551.922852,4549.743652,4560.256348,4493.717773,5640.897461,4301.666504,4256.666504,0.000000,1.000000,33.000000,,,,0.000000,0.000000,0.000000,0.000000,0.000000,0.000000,0.000000,0.000000,0.000000,0.000000,0.000000,0.000000,0.000000,0.000000,0.000000,0.000000,,,,,,,,,,,,,,,,,,,,,,,,,,,,,,,,,,,,,,,,,,,,,,,,,,,,,,,,,,,,,,,,,,,,,,,,,,,,,,,,,,,,,,,,,,,,,,,,,,,,,,,,,,,,,,,,,,,,,,,,,,,,,,,,,
1737283920.806409,1737283920.807171,95.000000,0.000000,4332.563965,4352.307617,4268.717773,4323.333496,4353.333496,4361.666504,4366.025879,4551.025879,4550.641113,4564.487305,4491.794922,5646.153809,4304.230957,4263.205078,0.000000,1.000000,33.000000,,,,0.000000,0.000000,0.000000,0.000000,0.000000,0.000000,0.000000,0.000000,0.000000,0.000000,0.000000,0.000000,0.000000,0.000000,0.000000,0.000000,,,,,,,,,,,,,,,,,,,,,,,,,,,,,,,,,,,,,,,,,,,,,,,,,,,,,,,,,,,,,,,,,,,,,,,,,,,,,,,,,,,,,,,,,,,,,,,,,,,,,,,,,,,,,,,,,,,,,,,,,,,,,,,,,
1737283920.814217,1737283920.814979,96.000000,0.000000,4332.948730,4350.256348,4271.794922,4321.153809,4356.410156,4362.692383,4365.641113,4552.051270,4551.025879,4564.230957,4491.922852,5643.077148,4304.743652,4264.743652,0.000000,1.000000,33.000000,,,,0.000000,0.000000,0.000000,0.000000,0.000000,0.000000,0.000000,0.000000,0.000000,0.000000,0.000000,0.000000,0.000000,0.000000,0.000000,0.000000,,,,,,,,,,,,,,,,,24.000000,0.000000,0.659049,-0.750000,0.018127,0.053162,-0.118667,-0.990355,-0.132829,15.018633,-30.994001,16.607430,,,,,,,,,,,,,,,,,,,,,,,,,,,,,,,,,,,,,,,,,,,,,,,,,,,,,,,,,,,,,,,,,,,,,,,,,,,,,,,,,,,,,,,,,,,,,,,,,,,,,
1737283920.822025,1737283920.822887,97.000000,0.000000,4334.871582,4353.333496,4271.538574,4321.410156,4356.922852,4363.974121,4366.410156,4553.717773,4551.794922,4562.307617,4495.256348,5641.153809,4302.948730,4263.333496,0.000000,1.000000,33.000000,,,,0.000000,0.000000,0.000000,0.000000,0.000000,0.000000,0.000000,0.000000,0.000000,0.000000,0.000000,0.000000,0.000000,0.000000,0.000000,0.000000,,,,,,,,,,,,,,,,,,,,,,,,,,,,,,,,,,,,,,,,,,,,,,,,,,,,,,,,,,,,,,,,,,,,,,,,,,,,,,,,,,,,,,,,,,,,,,,,,,,,,,,,,,,,,,,,,,,,,,,,,,,,,,,,,
1737283920.829833,1737283920.830695,98.000000,0.000000,4333.846191,4354.487305,4268.589844,4324.871582,4354.743652,4363.974121,4366.025879,4557.051270,4552.820313,4562.563965,4496.025879,5645.512695,4304.230957,4265.512695,0.000000,1.000000,33.000000,,,,0.000000,0.000000,0.000000,0.000000,0.000000,0.000000,0.000000,0.000000,0.000000,0.000000,0.000000,0.000000,0.000000,0.000000,0.000000,0.000000,,,,,,,,,,,,,,,,,,,,,,,,,,,,,,,,,,,,,,,,,,,,,,,,,,,,,,,,,,,,,,,,,,,,,,,,,,,,,,,,,,,,,,,,,,,,,,,,,,,,,,,,,,,,,,,,,,,,,,,,,,,,,,,,,
1737283920.837641,1737283920.838603,99.000000,0.000000,4331.410156,4351.153809,4268.589844,4323.205078,4353.846191,4362.563965,4365.641113,4556.538574,4554.230957,4563.461426,4492.692383,5643.589844,4306.025879,4261.538574,0.000000,1.000000,33.000000,,,,0.000000,0.000000,0.000000,0.000000,0.000000,0.000000,0.000000,0.000000,0.000000,0.000000,0.000000,0.000000,0.000000,0.000000,0.000000,0.000000,,,,,,,,,,,,,,,,,,,,,,,,,,,,,,,,,,,,,,,,,,,,,,,,,,,,,,,,,,,,,,,,,,,,,,,,,,,,,,,,,,,,,,,,,,,,,,,,,,,,,,,,,,,,,,,,,,,,,,,,,,,,,,,,,
1737283920.845449,1737283920.846411,100.000000,0.000000,4332.948730,4349.871582,4272.563965,4322.436035,4355.000000,4360.769043,4365.897461,4555.128418,4554.615234,4563.077148,4492.436035,5642.051270,4307.436035,4258.846191,0.000000,1.000000,33.000000,,,,0.000000,0.000000,0.000000,0.000000,0.000000,0.000000,0.000000,0.000000,0.000000,0.000000,0.000000,0.000000,0.000000,0.000000,0.000000,0.000000,,,,,,,,,,,,,,,,,25.000000,0.000000,0.658973,-0.750061,0.018188,0.053223,-0.108900,-0.986937,-0.119155,14.900104,-30.827934,16.563353,,,,,,,,,,,,,,,,,,,,,,,,,,,,,,,,,,,,,,,,,,,,,,,,,,,,,,,,,,,,,,,,,,,,,,,,,,,,,,,,,,,,,,,,,,,,,,,,,,,,,
1737283920.853257,1737283920.854319,101.000000,0.000000,4331.282227,4350.769043,4268.846191,4321.410156,4355.641113,4360.000000,4367.820313,4557.179688,4551.282227,4562.307617,4491.410156,5644.871582,4306.153809,4259.230957,0.000000,1.000000,33.000000,,,,0.000000,0.000000,0.000000,0.000000,0.000000,0.000000,0.000000,0.000000,0.000000,0.000000,0.000000,0.000000,0.000000,0.000000,0.000000,0.000000,,,,,,,,,,,,,,,,,,,,,,,,,,,,,,,,,,,,,,,,,,,,,,,,,,,,,,,,,,,,,,,,,,,,,,,,,,,,,,,,,,,,,,,,,,,,,,,,,,,,,,,,,,,,,,,,,,,,,,,,,,,,,,,,,
1737283920.861066,1737283920.862128,102.000000,0.000000,4331.153809,4354.358887,4267.436035,4322.692383,4354.871582,4359.358887,4363.974121,4555.128418,4548.717773,4561.922852,4491.538574,5646.794922,4305.897461,4262.563965,0.000000,1.000000,33.000000,,,,0.000000,0.000000,0.000000,0.000000,0.000000,0.000000,0.000000,0.000000,0.000000,0.000000,0.000000,0.000000,0.000000,0.000000,0.000000,0.000000,,,,,,,,,,,,,,,,,,,,,,,,,,,,,,,,,,,,,,,,,,,,,,,,,,,,,,,,,,,,,,,,,,,,,,,,,,,,,,,,,,,,,,,,,,,,,,,,,,,,,,,,,,,,,,,,,,,,,,,,,,,,,,,,,
1737283920.868873,1737283920.870035,103.000000,0.000000,4333.974121,4354.871582,4271.922852,4324.871582,4353.846191,4359.230957,4361.922852,4552.820313,4550.384766,4560.128418,4494.743652,5642.692383,4305.641113,4262.307617,0.000000,1.000000,33.000000,,,,0.000000,0.000000,0.000000,0.000000,0.000000,0.000000,0.000000,0.000000,0.000000,0.000000,0.000000,0.000000,0.000000,0.000000,0.000000,0.000000,,,,,,,,,,,,,,,,,,,,,,,,,,,,,,,,,,,,,,,,,,,,,,,,,,,,,,,,,,,,,,,,,,,,,,,,,,,,,,,,,,,,,,,,,,,,,,,,,,,,,,,,,,,,,,,,,,,,,,,,,,,,,,,,,
1737283920.876682,1737283920.877843,104.000000,0.000000,4333.461426,4351.410156,4269.230957,4321.922852,4352.820313,4359.487305,4367.051270,4556.666504,4550.512695,4560.641113,4494.102539,5640.000000,4303.846191,4261.025879,0.000000,1.000000,33.000000,,,,0.000000,0.000000,0.000000,0.000000,0.000000,0.000000,0.000000,0.000000,0.000000,0.000000,0.000000,0.000000,0.000000,0.000000,0.000000,0.000000,,,,,,,,,,,,,,,,,26.000000,0.000000,0.659044,-0.750000,0.018127,0.053223,-0.100110,-0.984495,-0.115737,14.843427,-30.811808,16.607018,,,,,,,,,,,,,,,,,,,,,,,,,,,,,,,,,,,,,,,,,,,,,,,,,,,,,,,,,,,,,,,,,,,,,,,,,,,,,,,,,,,,,,,,,,,,,,,,,,,,,
1737283920.884490,1737283920.885752,105.000000,0.000000,4335.000000,4353.461426,4268.461426,4321.794922,4354.871582,4360.128418,4367.692383,4557.051270,4551.666504,4562.692383,4494.743652,5646.410156,4306.794922,4266.794922,0.000000,1.000000,33.000000,,,,0.000000,0.000000,0.000000,0.000000,0.000000,0.000000,0.000000,0.000000,0.000000,0.000000,0.000000,0.000000,0.000000,0.000000,0.000000,0.000000,,,,,,,,,,,,,,,,,,,,,,,,,,,,,,,,,,,,,,,,,,,,,,,,,,,,,,,,,,,,,,,,,,,,,,,,,,,,,,,,,,,,,,,,,,,,,,,,,,,,,,,,,,,,,,,,,,,,,,,,,,,,,,,,,
1737283920.892298,1737283920.893560,106.000000,0.000000,4336.153809,4352.820313,4270.256348,4324.230957,4355.641113,4360.769043,4366.282227,4553.974121,4554.743652,4564.743652,4494.871582,5645.769043,4307.051270,4263.077148,0.000000,1.000000,33.000000,,,,0.000000,0.000000,0.000000,0.000000,0.000000,0.000000,0.000000,0.000000,0.000000,0.000000,0.000000,0.000000,0.000000,0.000000,0.000000,0.000000,,,,,,,,,,,,,,,,,,,,,,,,,,,,,,,,,,,,,,,,,,,,,,,,,,,,,,,,,,,,,,,,,,,,,,,,,,,,,,,,,,,,,,,,,,,,,,,,,,,,,,,,,,,,,,,,,,,,,,,,,,,,,,,,,
1737283920.900106,1737283920.901268,107.000000,0.000000,4332.948730,4351.410156,4268.589844,4325.000000,4354.743652,4359.615234,4364.871582,4555.897461,4553.846191,4564.743652,4492.820313,5641.666504,4305.897461,4260.256348,0.000000,1.000000,33.000000,,,,0.000000,0.000000,0.000000,0.000000,0.000000,0.000000,0.000000,0.000000,0.000000,0.000000,0.000000,0.000000,0.000000,0.000000,0.000000,0.000000,,,,,,,,,,,,,,,,,,,,,,,,,,,,,,,,,,,,,,,,,,,,,,,,,,,,,,,,,,,,,,,,,,,,,,,,,,,,,,,,,,,,,,,,,,,,,,,,,,,,,,,,,,,,,,,,,,,,,,,,,,,,,,,,,
1737283920.907914,1737283920.909076,108.000000,0.000000,4331.922852,4354.743652,4266.282227,4324.230957,4355.769043,4358.974121,4364.230957,4556.410156,4553.077148,4563.717773,4492.692383,5642.692383,4305.128418,4265.128418,0.000000,1.000000,33.000000,,,,0.000000,0.000000,0.000000,0.000000,0.000000,0.000000,0.000000,0.000000,0.000000,0.000000,0.000000,0.000000,0.000000,0.000000,0.000000,0.000000,1.000000,0.000000,0.000000,0.000000,0.000000,0.000000,0.000000,0.000000,0.000000,0.000000,0.000000,0.000000,0.000000,0.000000,0.000000,0.000000,27.000000,0.000000,0.659044,-0.750000,0.018127,0.053223,-0.099133,-0.984007,-0.126480,14.825750,-30.797293,16.612982,,,,,,,,,,,,,,,,,,,,,,,,,,,,,,,,0.013886,0.026168,0.019098,0.026581,0.027753,0.026640,0.031295,0.019308,0.028761,0.030588,0.010404,0.057753,0.024383,0.025682,0.027488,0.022556,0.011140,0.043201,0.017986,0.024833,0.017186,0.009388,0.013738,0.015174,0.013904,0.020037,0.022888,0.044419,0.015486,0.018597,0.048189,0.021906,0.031143,0.028835,0.026390,0.027170,0.036265,0.010701,0.024328,0.016277,0.021162,0.011294,0.020202,0.023394,0.031781,0.031146,0.039044,0.021692,0.024544,0.019760,0.019114,0.015341,0.025696,0.023322,0.034623,0.042447,0.034153,0.035555,0.030266,0.026323,0.016658,0.018486,0.016032,0.037218,0.030251,0.049693,0.043757,0.040469,0.008563,0.035055
1737283920.915722,1737283920.916784,109.000000,0.000000,4332.948730,4352.563965,4266.794922,4322.436035,4355.512695,4360.641113,4366.666504,4555.512695,4553.461426,4563.333496,4493.974121,5641.794922,4303.589844,4261.666504,0.000000,1.000000,33.000000,,,,0.000000,0.000000,0.000000,0.000000,0.000000,0.000000,0.000000,0.000000,0.000000,0.000000,0.000000,0.000000,0.000000,0.000000,0.000000,0.000000,,,,,,,,,,,,,,,,,,,,,,,,,,,,,,,,,,,,,,,,,,,,,,,,,,,,,,,,,,,,,,,,,,,,,,,,,,,,,,,,,,,,,,,,,,,,,,,,,,,,,,,,,,,,,,,,,,,,,,,,,,,,,,,,,
1737283920.923530,1737283920.924592,110.000000,0.000000,4332.563965,4348.974121,4271.282227,4321.922852,4353.974121,4360.512695,4363.974121,4557.307617,4550.641113,4562.563965,4495.256348,5643.077148,4307.692383,4262.692383,0.000000,1.000000,33.000000,,,,0.000000,0.000000,0.000000,0.000000,0.000000,0.000000,0.000000,0.000000,0.000000,0.000000,0.000000,0.000000,0.000000,0.000000,0.000000,0.000000,,,,,,,,,,,,,,,,,,,,,,,,,,,,,,,,,,,,,,,,,,,,,,,,,,,,,,,,,,,,,,,,,,,,,,,,,,,,,,,,,,,,,,,,,,,,,,,,,,,,,,,,,,,,,,,,,,,,,,,,,,,,,,,,,
1737283920.931338,1737283920.932300,111.000000,0.000000,4331.794922,4348.205078,4270.256348,4320.897461,4354.871582,4358.589844,4362.307617,4560.384766,4550.128418,4562.692383,4492.948730,5641.922852,4307.563965,4263.717773,0.000000,1.000000,33.000000,,,,0.000000,0.000000,0.000000,0.000000,0.000000,0.000000,0.000000,0.000000,0.000000,0.000000,0.000000,0.000000,0.000000,0.000000,0.000000,0.000000,,,,,,,,,,,,,,,,,,,,,,,,,,,,,,,,,,,,,,,,,,,,,,,,,,,,,,,,,,,,,,,,,,,,,,,,,,,,,,,,,,,,,,,,,,,,,,,,,,,,,,,,,,,,,,,,,,,,,,,,,,,,,,,,,
1737283920.939146,1737283920.940108,112.000000,0.000000,4331.922852,4348.333496,4268.077148,4322.563965,4357.436035,4359.487305,4366.153809,4559.871582,4553.461426,4564.102539,4494.230957,5641.922852,4304.615234,4262.051270,0.000000,1.000000,33.000000,,,,0.000000,0.000000,0.000000,0.000000,0.000000,0.000000,0.000000,0.000000,0.000000,0.000000,0.000000,0.000000,0.000000,0.000000,0.000000,0.000000,,,,,,,,,,,,,,,,,28.000000,0.000000,0.659044,-0.750000,0.018127,0.053223,-0.102552,-0.988890,-0.125504,14.876509,-30.717564,16.668350,,,,,,,,,,,,,,,,,,,,,,,,,,,,,,,,,,,,,,,,,,,,,,,,,,,,,,,,,,,,,,,,,,,,,,,,,,,,,,,,,,,,,,,,,,,,,,,,,,,,,
1737283920.946954,1737283920.947816,113.000000,0.000000,4332.820313,4349.743652,4270.769043,4324.230957,4356.282227,4359.615234,4368.333496,4554.743652,4553.077148,4563.333496,4496.794922,5644.615234,4306.794922,4263.717773,0.000000,1.000000,33.000000,,,,0.000000,0.000000,0.000000,0.000000,0.000000,0.000000,0.000000,0.000000,0.000000,0.000000,0.000000,0.000000,0.000000,0.000000,0.000000,0.000000,,,,,,,,,,,,,,,,,,,,,,,,,,,,,,,,,,,,,,,,,,,,,,,,,,,,,,,,,,,,,,,,,,,,,,,,,,,,,,,,,,,,,,,,,,,,,,,,,,,,,,,,,,,,,,,,,,,,,,,,,,,,,,,,,
