title:bread1, start timestamp:1737283821.307850, stop timestamp:1737283824.337389, headset type:EPOCX, headset serial:E50208A5, headset firmware:720, channels:168, sampling rate:eeg_128;mot_32;pm_0.1;pow_8, samples:389       , version:2.2, 
Timestamp,OriginalTimestamp,EEG.Counter,EEG.Interpolated,EEG.AF3,EEG.F7,EEG.F3,EEG.FC5,EEG.T7,EEG.P7,EEG.O1,EEG.O2,EEG.P8,EEG.T8,EEG.FC6,EEG.F4,EEG.F8,EEG.AF4,EEG.RawCq,EEG.Battery,EEG.BatteryPercent,MarkerIndex,MarkerType,MarkerValueInt,EEG.MarkerHardware,CQ.AF3,CQ.F7,CQ.F3,CQ.FC5,CQ.T7,CQ.P7,CQ.O1,CQ.O2,CQ.P8,CQ.T8,CQ.FC6,CQ.F4,CQ.F8,CQ.AF4,CQ.Overall,EQ.SampleRateQuality,EQ.OVERALL,EQ.AF3,EQ.F7,EQ.F3,EQ.FC5,EQ.T7,EQ.P7,EQ.O1,EQ.O2,EQ.P8,EQ.T8,EQ.FC6,EQ.F4,EQ.F8,EQ.AF4,MOT.CounterMems,MOT.InterpolatedMems,MOT.Q0,MOT.Q1,MOT.Q2,MOT.Q3,MOT.AccX,MOT.AccY,MOT.AccZ,MOT.MagX,MOT.MagY,MOT.MagZ,PM.Attention.IsActive,PM.Attention.Scaled,PM.Attention.Raw,PM.Attention.Min,PM.Attention.Max,PM.Engagement.IsActive,PM.Engagement.Scaled,PM.Engagement.Raw,PM.Engagement.Min,PM.Engagement.Max,PM.Excitement.IsActive,PM.Excitement.Scaled,PM.Excitement.Raw,PM.Excitement.Min,PM.Excitement.Max,PM.LongTermExcitement,PM.Stress.IsActive,PM.Stress.Scaled,PM.Stress.Raw,PM.Stress.Min,PM.Stress.Max,PM.Relaxation.IsActive,PM.Relaxation.Scaled,PM.Relaxation.Raw,PM.Relaxation.Min,PM.Relaxation.Max,PM.Interest.IsActive,PM.Interest.Scaled,PM.Interest.Raw,PM.Interest.Min,PM.Interest.Max,POW.AF3.Theta,POW.AF3.Alpha,POW.AF3.BetaL,POW.AF3.BetaH,POW.AF3.Gamma,POW.F7.Theta,POW.F7.Alpha,POW.F7.BetaL,POW.F7.BetaH,POW.F7.Gamma,POW.F3.Theta,POW.F3.Alpha,POW.F3.BetaL,POW.F3.BetaH,POW.F3.Gamma,POW.FC5.Theta,POW.FC5.Alpha,POW.FC5.BetaL,POW.FC5.BetaH,POW.FC5.Gamma,POW.T7.Theta,POW.T7.Alpha,POW.T7.BetaL,POW.T7.BetaH,POW.T7.Gamma,POW.P7.Theta,POW.P7.Alpha,POW.P7.BetaL,POW.P7.BetaH,POW.P7.Gamma,POW.O1.Theta,POW.O1.Alpha,POW.O1.BetaL,POW.O1.BetaH,POW.O1.Gamma,POW.O2.Theta,POW.O2.Alpha,POW.O2.BetaL,POW.O2.BetaH,POW.O2.Gamma,POW.P8.Theta,POW.P8.Alpha,POW.P8.BetaL,POW.P8.BetaH,POW.P8.Gamma,POW.T8.Theta,POW.T8.Alpha,POW.T8.BetaL,POW.T8.BetaH,POW.T8.Gamma,POW.FC6.Theta,POW.FC6.Alpha,POW.FC6.BetaL,POW.FC6.BetaH,POW.FC6.Gamma,POW.F4.Theta,POW.F4.Alpha,POW.F4.BetaL,POW.F4.BetaH,POW.F4.Gamma,POW.F8.Theta,POW.F8.Alpha,POW.F8.BetaL,POW.F8.BetaH,POW.F8.Gamma,POW.AF4.Theta,POW.AF4.Alpha,POW.AF4.BetaL,POW.AF4.BetaH,POW.AF4.Gamma
1737283821.307850,1737283821.308665,24.000000,0.000000,4335.000000,4355.000000,4273.205078,4319.743652,4351.538574,4361.538574,4362.563965,4550.897461,4551.282227,4561.282227,4498.333496,5639.871582,4307.563965,4270.897461,0.000000,1.000000,33.000000,,,,0.000000,0.000000,0.000000,0.000000,0.000000,0.000000,0.000000,0.000000,0.000000,0.000000,0.000000,0.000000,0.000000,0.000000,0.000000,0.000000,,,,,,,,,,,,,,,,,6.000000,0.000000,0.659541,-0.749634,0.020813,0.051208,-0.122085,-0.985960,-0.127457,15.489004,-30.659163,16.550642,,,,,,,,,,,,,,,,,,,,,,,,,,,,,,,,,,,,,,,,,,,,,,,,,,,,,,,,,,,,,,,,,,,,,,,,,,,,,,,,,,,,,,,,,,,,,,,,,,,,,
1737283821.315658,1737283821.316373,25.000000,0.000000,4331.410156,4352.051270,4268.205078,4319.230957,4355.769043,4360.769043,4368.461426,4551.153809,4550.897461,4562.948730,4497.307617,5635.384766,4302.692383,4266.538574,0.000000,1.000000,33.000000,,,,0.000000,0.000000,0.000000,0.000000,0.000000,0.000000,0.000000,0.000000,0.000000,0.000000,0.000000,0.000000,0.000000,0.000000,0.000000,0.000000,,,,,,,,,,,,,,,,,,,,,,,,,,,,,,,,,,,,,,,,,,,,,,,,,,,,,,,,,,,,,,,,,,,,,,,,,,,,,,,,,,,,,,,,,,,,,,,,,,,,,,,,,,,,,,,,,,,,,,,,,,,,,,,,,
1737283821.323466,1737283821.324181,26.000000,0.000000,4329.102539,4349.487305,4265.256348,4321.410156,4355.256348,4357.948730,4367.948730,4557.692383,4551.025879,4563.589844,4494.358887,5631.922852,4299.871582,4260.384766,0.000000,1.000000,33.000000,,,,0.000000,0.000000,0.000000,0.000000,0.000000,0.000000,0.000000,0.000000,0.000000,0.000000,0.000000,0.000000,0.000000,0.000000,0.000000,0.000000,,,,,,,,,,,,,,,,,,,,,,,,,,,,,,,,,,,,,,,,,,,,,,,,,,,,,,,,,,,,,,,,,,,,,,,,,,,,,,,,,,,,,,,,,,,,,,,,,,,,,,,,,,,,,,,,,,,,,,,,,,,,,,,,,
1737283821.331274,1737283821.331889,27.000000,0.000000,4334.358887,4353.974121,4273.974121,4325.769043,4354.358887,4358.717773,4358.461426,4555.512695,4550.897461,4561.410156,4498.205078,5642.307617,4310.256348,4270.256348,0.000000,1.000000,33.000000,,,,0.000000,0.000000,0.000000,0.000000,0.000000,0.000000,0.000000,0.000000,0.000000,0.000000,0.000000,0.000000,0.000000,0.000000,0.000000,0.000000,,,,,,,,,,,,,,,,,,,,,,,,,,,,,,,,,,,,,,,,,,,,,,,,,,,,,,,,,,,,,,,,,,,,,,,,,,,,,,,,,,,,,,,,,,,,,,,,,,,,,,,,,,,,,,,,,,,,,,,,,,,,,,,,,
1737283821.339082,1737283821.339697,28.000000,0.000000,4328.717773,4348.974121,4265.897461,4318.589844,4353.205078,4365.000000,4368.717773,4555.769043,4551.794922,4560.384766,4491.410156,5630.769043,4303.077148,4255.384766,0.000000,1.000000,33.000000,,,,0.000000,0.000000,0.000000,0.000000,0.000000,0.000000,0.000000,0.000000,0.000000,0.000000,0.000000,0.000000,0.000000,0.000000,0.000000,0.000000,,,,,,,,,,,,,,,,,7.000000,0.000000,0.659541,-0.749634,0.020813,0.051208,-0.093273,-0.977170,-0.135759,15.590103,-30.693247,16.745579,,,,,,,,,,,,,,,,,,,,,,,,,,,,,,,,0.031269,0.023068,0.016967,0.032416,0.030253,0.019178,0.010196,0.012541,0.016352,0.026146,0.014515,0.021428,0.025559,0.016387,0.025538,0.025934,0.018511,0.014479,0.017898,0.019319,0.023948,0.016344,0.009708,0.014983,0.019610,0.010620,0.011731,0.037380,0.024060,0.020114,0.040655,0.010534,0.005725,0.024711,0.030768,0.015011,0.027582,0.020550,0.029210,0.032670,0.009941,0.010615,0.019377,0.012998,0.021050,0.052980,0.011175,0.029636,0.026735,0.025483,0.021216,0.016905,0.048761,0.040441,0.019990,0.031116,0.026444,0.040977,0.011045,0.024165,0.091724,0.073380,0.029881,0.023762,0.023283,0.030174,0.035679,0.066842,0.045323,0.050684
1737283821.346890,1737283821.347405,29.000000,0.000000,4334.358887,4352.051270,4268.974121,4321.666504,4351.794922,4363.461426,4365.769043,4555.641113,4551.666504,4561.666504,4495.897461,5639.358887,4306.410156,4269.743652,0.000000,1.000000,33.000000,,,,0.000000,0.000000,0.000000,0.000000,0.000000,0.000000,0.000000,0.000000,0.000000,0.000000,0.000000,0.000000,0.000000,0.000000,0.000000,0.000000,,,,,,,,,,,,,,,,,,,,,,,,,,,,,,,,,,,,,,,,,,,,,,,,,,,,,,,,,,,,,,,,,,,,,,,,,,,,,,,,,,,,,,,,,,,,,,,,,,,,,,,,,,,,,,,,,,,,,,,,,,,,,,,,,
1737283821.354698,1737283821.355213,30.000000,0.000000,4335.000000,4353.077148,4267.948730,4321.282227,4353.205078,4361.282227,4363.461426,4557.436035,4552.436035,4559.871582,4496.153809,5639.871582,4304.871582,4268.461426,0.000000,1.000000,33.000000,,,,0.000000,0.000000,0.000000,0.000000,0.000000,0.000000,0.000000,0.000000,0.000000,0.000000,0.000000,0.000000,0.000000,0.000000,0.000000,0.000000,,,,,,,,,,,,,,,,,,,,,,,,,,,,,,,,,,,,,,,,,,,,,,,,,,,,,,,,,,,,,,,,,,,,,,,,,,,,,,,,,,,,,,,,,,,,,,,,,,,,,,,,,,,,,,,,,,,,,,,,,,,,,,,,,
1737283821.362506,1737283821.362921,31.000000,0.000000,4329.743652,4349.230957,4266.794922,4318.461426,4356.666504,4362.948730,4367.436035,4556.538574,4551.922852,4560.512695,4492.307617,5629.743652,4297.820313,4257.051270,0.000000,1.000000,33.000000,,,,0.000000,0.000000,0.000000,0.000000,0.000000,0.000000,0.000000,0.000000,0.000000,0.000000,0.000000,0.000000,0.000000,0.000000,0.000000,0.000000,,,,,,,,,,,,,,,,,,,,,,,,,,,,,,,,,,,,,,,,,,,,,,,,,,,,,,,,,,,,,,,,,,,,,,,,,,,,,,,,,,,,,,,,,,,,,,,,,,,,,,,,,,,,,,,,,,,,,,,,,,,,,,,,,
1737283821.370314,1737283821.370729,32.000000,0.000000,4334.871582,4352.948730,4278.461426,4325.897461,4357.179688,4361.025879,4362.820313,4551.025879,4550.256348,4562.948730,4498.589844,5639.230957,4306.025879,4273.333496,0.000000,1.000000,33.000000,,,,0.000000,0.000000,0.000000,0.000000,0.000000,0.000000,0.000000,0.000000,0.000000,0.000000,0.000000,0.000000,0.000000,0.000000,0.000000,0.000000,,,,,,,,,,,,,,,,,8.000000,0.000000,0.659605,-0.749573,0.020813,0.051270,-0.107435,-0.989867,-0.118178,15.547760,-30.740589,16.687687,,,,,,,,,,,,,,,,,,,,,,,,,,,,,,,,,,,,,,,,,,,,,,,,,,,,,,,,,,,,,,,,,,,,,,,,,,,,,,,,,,,,,,,,,,,,,,,,,,,,,
1737283821.378122,1737283821.378437,33.000000,0.000000,4329.230957,4350.256348,4266.922852,4324.230957,4352.820313,4360.384766,4369.102539,4555.128418,4552.051270,4559.615234,4492.948730,5629.487305,4302.179688,4258.333496,0.000000,1.000000,33.000000,,,,0.000000,0.000000,0.000000,0.000000,0.000000,0.000000,0.000000,0.000000,0.000000,0.000000,0.000000,0.000000,0.000000,0.000000,0.000000,0.000000,,,,,,,,,,,,,,,,,,,,,,,,,,,,,,,,,,,,,,,,,,,,,,,,,,,,,,,,,,,,,,,,,,,,,,,,,,,,,,,,,,,,,,,,,,,,,,,,,,,,,,,,,,,,,,,,,,,,,,,,,,,,,,,,,
1737283821.385930,1737283821.386345,34.000000,0.000000,4332.948730,4351.922852,4267.563965,4326.538574,4352.563965,4358.589844,4361.538574,4555.384766,4551.666504,4560.512695,4498.077148,5635.000000,4307.051270,4262.051270,0.000000,1.000000,33.000000,,,,0.000000,0.000000,0.000000,0.000000,0.000000,0.000000,0.000000,0.000000,0.000000,0.000000,0.000000,0.000000,0.000000,0.000000,0.000000,0.000000,,,,,,,,,,,,,,,,,,,,,,,,,,,,,,,,,,,,,,,,,,,,,,,,,,,,,,,,,,,,,,,,,,,,,,,,,,,,,,,,,,,,,,,,,,,,,,,,,,,,,,,,,,,,,,,,,,,,,,,,,,,,,,,,,
1737283821.393739,1737283821.394154,35.000000,0.000000,4334.743652,4351.922852,4272.563965,4324.743652,4356.538574,4358.461426,4360.641113,4553.077148,4551.153809,4563.846191,4501.794922,5640.512695,4309.230957,4267.436035,0.000000,1.000000,33.000000,,,,0.000000,0.000000,0.000000,0.000000,0.000000,0.000000,0.000000,0.000000,0.000000,0.000000,0.000000,0.000000,0.000000,0.000000,0.000000,0.000000,,,,,,,,,,,,,,,,,,,,,,,,,,,,,,,,,,,,,,,,,,,,,,,,,,,,,,,,,,,,,,,,,,,,,,,,,,,,,,,,,,,,,,,,,,,,,,,,,,,,,,,,,,,,,,,,,,,,,,,,,,,,,,,,,
1737283821.401547,1737283821.402062,36.000000,0.000000,4329.743652,4351.410156,4266.794922,4317.051270,4357.692383,4361.153809,4371.025879,4557.051270,4553.461426,4559.102539,4495.512695,5629.871582,4302.436035,4258.461426,0.000000,1.000000,33.000000,,,,0.000000,0.000000,0.000000,0.000000,0.000000,0.000000,0.000000,0.000000,0.000000,0.000000,0.000000,0.000000,0.000000,0.000000,0.000000,0.000000,,,,,,,,,,,,,,,,,9.000000,0.000000,0.659605,-0.749573,0.020813,0.051270,-0.105482,-0.977658,-0.123062,15.526318,-30.716530,16.735584,,,,,,,,,,,,,,,,,,,,,,,,,,,,,,,,,,,,,,,,,,,,,,,,,,,,,,,,,,,,,,,,,,,,,,,,,,,,,,,,,,,,,,,,,,,,,,,,,,,,,
1737283821.409355,1737283821.409870,37.000000,0.000000,4336.282227,4357.051270,4277.051270,4321.025879,4354.615234,4359.743652,4362.692383,4556.538574,4552.692383,4558.077148,4500.384766,5640.384766,4310.512695,4275.000000,0.000000,1.000000,33.000000,,,,0.000000,0.000000,0.000000,0.000000,0.000000,0.000000,0.000000,0.000000,0.000000,0.000000,0.000000,0.000000,0.000000,0.000000,0.000000,0.000000,,,,,,,,,,,,,,,,,,,,,,,,,,,,,,,,,,,,,,,,,,,,,,,,,,,,,,,,,,,,,,,,,,,,,,,,,,,,,,,,,,,,,,,,,,,,,,,,,,,,,,,,,,,,,,,,,,,,,,,,,,,,,,,,,
1737283821.417163,1737283821.417778,38.000000,0.000000,4330.256348,4347.948730,4270.512695,4320.128418,4352.179688,4358.461426,4366.025879,4555.641113,4552.179688,4562.051270,4494.871582,5634.102539,4302.692383,4262.563965,0.000000,1.000000,33.000000,,,,0.000000,0.000000,0.000000,0.000000,0.000000,0.000000,0.000000,0.000000,0.000000,0.000000,0.000000,0.000000,0.000000,0.000000,0.000000,0.000000,,,,,,,,,,,,,,,,,,,,,,,,,,,,,,,,,,,,,,,,,,,,,,,,,,,,,,,,,,,,,,,,,,,,,,,,,,,,,,,,,,,,,,,,,,,,,,,,,,,,,,,,,,,,,,,,,,,,,,,,,,,,,,,,,
1737283821.424971,1737283821.425586,39.000000,0.000000,4332.948730,4348.974121,4268.205078,4322.820313,4355.897461,4360.769043,4366.794922,4553.333496,4552.307617,4562.436035,4494.871582,5634.743652,4304.102539,4263.846191,0.000000,1.000000,33.000000,,,,0.000000,0.000000,0.000000,0.000000,0.000000,0.000000,0.000000,0.000000,0.000000,0.000000,0.000000,0.000000,0.000000,0.000000,0.000000,0.000000,,,,,,,,,,,,,,,,,,,,,,,,,,,,,,,,,,,,,,,,,,,,,,,,,,,,,,,,,,,,,,,,,,,,,,,,,,,,,,,,,,,,,,,,,,,,,,,,,,,,,,,,,,,,,,,,,,,,,,,,,,,,,,,,,
1737283821.432779,1737283821.433494,40.000000,0.000000,4338.205078,4354.102539,4272.563965,4324.871582,4356.538574,4362.820313,4362.948730,4553.717773,4552.179688,4560.897461,4499.487305,5641.153809,4310.641113,4271.666504,0.000000,1.000000,33.000000,,,,0.000000,0.000000,0.000000,0.000000,0.000000,0.000000,0.000000,0.000000,0.000000,0.000000,0.000000,0.000000,0.000000,0.000000,0.000000,0.000000,,,,,,,,,,,,,,,,,10.000000,0.000000,0.659531,-0.749634,0.020813,0.051331,-0.105482,-0.995239,-0.125015,15.573686,-30.628210,16.595360,,,,,,,,,,,,,,,,,,,,,,,,,,,,,,,,,,,,,,,,,,,,,,,,,,,,,,,,,,,,,,,,,,,,,,,,,,,,,,,,,,,,,,,,,,,,,,,,,,,,,
1737283821.440587,1737283821.441302,41.000000,0.000000,4331.153809,4347.179688,4264.743652,4319.102539,4353.461426,4362.051270,4367.948730,4558.333496,4553.461426,4560.128418,4492.563965,5629.230957,4299.102539,4255.256348,0.000000,1.000000,33.000000,,,,0.000000,0.000000,0.000000,0.000000,0.000000,0.000000,0.000000,0.000000,0.000000,0.000000,0.000000,0.000000,0.000000,0.000000,0.000000,0.000000,,,,,,,,,,,,,,,,,,,,,,,,,,,,,,,,,,,,,,,,,,,,,,,,,,,,,,,,,,,,,,,,,,,,,,,,,,,,,,,,,,,,,,,,,,,,,,,,,,,,,,,,,,,,,,,,,,,,,,,,,,,,,,,,,
1737283821.448395,1737283821.449210,42.000000,0.000000,4336.666504,4352.051270,4273.461426,4325.128418,4354.230957,4361.666504,4358.846191,4556.025879,4552.436035,4563.846191,4495.769043,5639.230957,4303.846191,4269.487305,0.000000,1.000000,33.000000,,,,0.000000,0.000000,0.000000,0.000000,0.000000,0.000000,0.000000,0.000000,0.000000,0.000000,0.000000,0.000000,0.000000,0.000000,0.000000,0.000000,,,,,,,,,,,,,,,,,,,,,,,,,,,,,,,,,,,,,,,,,,,,,,,,,,,,,,,,,,,,,,,,,,,,,,,,,,,,,,,,,,,,,,,,,,,,,,,,,,,,,,,,,,,,,,,,,,,,,,,,,,,,,,,,,
1737283821.456203,1737283821.457018,43.000000,0.000000,4331.410156,4349.615234,4271.153809,4324.102539,4352.820313,4363.717773,4362.820313,4555.384766,4551.410156,4564.358887,4493.461426,5638.461426,4303.077148,4263.589844,0.000000,1.000000,33.000000,,,,0.000000,0.000000,0.000000,0.000000,0.000000,0.000000,0.000000,0.000000,0.000000,0.000000,0.000000,0.000000,0.000000,0.000000,0.000000,0.000000,,,,,,,,,,,,,,,,,,,,,,,,,,,,,,,,,,,,,,,,,,,,,,,,,,,,,,,,,,,,,,,,,,,,,,,,,,,,,,,,,,,,,,,,,,,,,,,,,,,,,,,,,,,,,,,,,,,,,,,,,,,,,,,,,
1737283821.464011,1737283821.464726,44.000000,0.000000,4331.410156,4349.358887,4271.153809,4321.410156,4352.692383,4362.563965,4367.692383,4555.128418,4552.307617,4562.179688,4495.512695,5635.897461,4304.230957,4260.256348,0.000000,1.000000,33.000000,,,,0.000000,0.000000,0.000000,0.000000,0.000000,0.000000,0.000000,0.000000,0.000000,0.000000,0.000000,0.000000,0.000000,0.000000,0.000000,0.000000,1.000000,0.000000,0.000000,0.000000,0.000000,0.000000,0.000000,0.000000,0.000000,0.000000,0.000000,0.000000,0.000000,0.000000,0.000000,0.000000,11.000000,0.000000,0.659536,-0.749634,0.020813,0.051270,-0.106458,-0.985960,-0.133317,15.566317,-30.765388,16.602491,,,,,,,,,,,,,,,,,,,,,,,,,,,,,,,,0.033169,0.020409,0.022656,0.028088,0.029048,0.019834,0.012574,0.014108,0.015402,0.026995,0.013224,0.023533,0.024741,0.017877,0.027587,0.024702,0.013574,0.011018,0.017469,0.019309,0.020249,0.014860,0.008297,0.017046,0.020388,0.009735,0.011209,0.038814,0.023583,0.019570,0.033916,0.010958,0.006474,0.025092,0.029621,0.017581,0.026628,0.023735,0.026018,0.032050,0.009670,0.010341,0.016372,0.012673,0.020815,0.045702,0.009695,0.028760,0.025608,0.026969,0.019062,0.015025,0.041220,0.038972,0.019096,0.034097,0.024552,0.030661,0.013241,0.023298,0.079117,0.064943,0.032318,0.023607,0.025756,0.038856,0.040760,0.070360,0.046496,0.057425
1737283821.471820,1737283821.472534,45.000000,0.000000,4339.743652,4352.436035,4273.717773,4324.102539,4354.871582,4362.948730,4363.333496,4553.205078,4551.922852,4562.563965,4501.410156,5640.769043,4310.128418,4272.692383,0.000000,1.000000,33.000000,,,,0.000000,0.000000,0.000000,0.000000,0.000000,0.000000,0.000000,0.000000,0.000000,0.000000,0.000000,0.000000,0.000000,0.000000,0.000000,0.000000,,,,,,,,,,,,,,,,,,,,,,,,,,,,,,,,,,,,,,,,,,,,,,,,,,,,,,,,,,,,,,,,,,,,,,,,,,,,,,,,,,,,,,,,,,,,,,,,,,,,,,,,,,,,,,,,,,,,,,,,,,,,,,,,,
1737283821.479627,1737283821.480242,46.000000,0.000000,4332.820313,4348.205078,4262.307617,4318.077148,4353.846191,4363.333496,4367.563965,4556.666504,4550.641113,4563.333496,4493.333496,5630.897461,4299.871582,4255.769043,0.000000,1.000000,33.000000,,,,0.000000,0.000000,0.000000,0.000000,0.000000,0.000000,0.000000,0.000000,0.000000,0.000000,0.000000,0.000000,0.000000,0.000000,0.000000,0.000000,,,,,,,,,,,,,,,,,,,,,,,,,,,,,,,,,,,,,,,,,,,,,,,,,,,,,,,,,,,,,,,,,,,,,,,,,,,,,,,,,,,,,,,,,,,,,,,,,,,,,,,,,,,,,,,,,,,,,,,,,,,,,,,,,
1737283821.487436,1737283821.488050,47.000000,0.000000,4336.922852,4357.179688,4274.358887,4323.205078,4353.974121,4358.846191,4360.384766,4554.871582,4551.025879,4562.436035,4497.820313,5641.538574,4306.153809,4264.871582,0.000000,1.000000,33.000000,,,,0.000000,0.000000,0.000000,0.000000,0.000000,0.000000,0.000000,0.000000,0.000000,0.000000,0.000000,0.000000,0.000000,0.000000,0.000000,0.000000,,,,,,,,,,,,,,,,,,,,,,,,,,,,,,,,,,,,,,,,,,,,,,,,,,,,,,,,,,,,,,,,,,,,,,,,,,,,,,,,,,,,,,,,,,,,,,,,,,,,,,,,,,,,,,,,,,,,,,,,,,,,,,,,,
1737283821.495244,1737283821.495758,48.000000,0.000000,4336.025879,4355.256348,4271.794922,4325.384766,4355.000000,4360.641113,4364.102539,4551.666504,4552.179688,4560.384766,4496.410156,5637.307617,4305.128418,4263.205078,0.000000,1.000000,33.000000,,,,0.000000,0.000000,0.000000,0.000000,0.000000,0.000000,0.000000,0.000000,0.000000,0.000000,0.000000,0.000000,0.000000,0.000000,0.000000,0.000000,,,,,,,,,,,,,,,,,12.000000,0.000000,0.659533,-0.749634,0.020752,0.051331,-0.105482,-0.987914,-0.118667,15.476352,-30.805517,16.608908,,,,,,,,,,,,,,,,,,,,,,,,,,,,,,,,,,,,,,,,,,,,,,,,,,,,,,,,,,,,,,,,,,,,,,,,,,,,,,,,,,,,,,,,,,,,,,,,,,,,,
1737283821.503052,1737283821.503566,49.000000,0.000000,4331.538574,4349.230957,4262.692383,4322.692383,4354.487305,4364.102539,4370.512695,4553.333496,4551.666504,4563.077148,4491.153809,5627.436035,4297.820313,4256.153809,0.000000,1.000000,33.000000,,,,0.000000,0.000000,0.000000,0.000000,0.000000,0.000000,0.000000,0.000000,0.000000,0.000000,0.000000,0.000000,0.000000,0.000000,0.000000,0.000000,,,,,,,,,,,,,,,,,,,,,,,,,,,,,,,,,,,,,,,,,,,,,,,,,,,,,,,,,,,,,,,,,,,,,,,,,,,,,,,,,,,,,,,,,,,,,,,,,,,,,,,,,,,,,,,,,,,,,,,,,,,,,,,,,
1737283821.510860,1737283821.511274,50.000000,0.000000,4336.538574,4355.384766,4274.230957,4326.025879,4354.743652,4362.436035,4365.256348,4555.897461,4551.025879,4562.692383,4496.538574,5638.717773,4306.025879,4272.692383,0.000000,1.000000,33.000000,,,,0.000000,0.000000,0.000000,0.000000,0.000000,0.000000,0.000000,0.000000,0.000000,0.000000,0.000000,0.000000,0.000000,0.000000,0.000000,0.000000,,,,,,,,,,,,,,,,,,,,,,,,,,,,,,,,,,,,,,,,,,,,,,,,,,,,,,,,,,,,,,,,,,,,,,,,,,,,,,,,,,,,,,,,,,,,,,,,,,,,,,,,,,,,,,,,,,,,,,,,,,,,,,,,,
1737283821.518668,1737283821.519082,51.000000,0.000000,4330.384766,4353.461426,4269.743652,4320.641113,4355.000000,4362.051270,4369.230957,4557.179688,4551.922852,4558.077148,4495.512695,5631.025879,4303.461426,4261.153809,0.000000,1.000000,33.000000,,,,0.000000,0.000000,0.000000,0.000000,0.000000,0.000000,0.000000,0.000000,0.000000,0.000000,0.000000,0.000000,0.000000,0.000000,0.000000,0.000000,,,,,,,,,,,,,,,,,,,,,,,,,,,,,,,,,,,,,,,,,,,,,,,,,,,,,,,,,,,,,,,,,,,,,,,,,,,,,,,,,,,,,,,,,,,,,,,,,,,,,,,,,,,,,,,,,,,,,,,,,,,,,,,,,
1737283821.526476,1737283821.526790,52.000000,0.000000,4331.282227,4353.717773,4272.179688,4320.512695,4354.743652,4359.102539,4361.666504,4552.436035,4552.692383,4560.641113,4502.563965,5637.948730,4305.641113,4266.922852,0.000000,1.000000,33.000000,,,,0.000000,0.000000,0.000000,0.000000,0.000000,0.000000,0.000000,0.000000,0.000000,0.000000,0.000000,0.000000,0.000000,0.000000,0.000000,0.000000,,,,,,,,,,,,,,,,,13.000000,0.000000,0.659531,-0.749634,0.020813,0.051331,-0.107435,-0.987425,-0.127945,15.378716,-30.958298,16.748018,,,,,,,,,,,,,,,,,,,,,,,,,,,,,,,,,,,,,,,,,,,,,,,,,,,,,,,,,,,,,,,,,,,,,,,,,,,,,,,,,,,,,,,,,,,,,,,,,,,,,
1737283821.534284,1737283821.534598,53.000000,0.000000,4331.538574,4352.820313,4272.563965,4320.256348,4353.205078,4360.256348,4363.846191,4554.230957,4553.717773,4563.205078,4501.666504,5640.641113,4304.230957,4265.256348,0.000000,1.000000,33.000000,,,,0.000000,0.000000,0.000000,0.000000,0.000000,0.000000,0.000000,0.000000,0.000000,0.000000,0.000000,0.000000,0.000000,0.000000,0.000000,0.000000,,,,,,,,,,,,,,,,,,,,,,,,,,,,,,,,,,,,,,,,,,,,,,,,,,,,,,,,,,,,,,,,,,,,,,,,,,,,,,,,,,,,,,,,,,,,,,,,,,,,,,,,,,,,,,,,,,,,,,,,,,,,,,,,,
1737283821.542092,1737283821.542306,54.000000,0.000000,4328.205078,4350.000000,4266.538574,4320.000000,4353.205078,4364.102539,4370.769043,4559.230957,4552.948730,4561.153809,4493.846191,5630.769043,4300.384766,4252.179688,0.000000,1.000000,33.000000,,,,0.000000,0.000000,0.000000,0.000000,0.000000,0.000000,0.000000,0.000000,0.000000,0.000000,0.000000,0.000000,0.000000,0.000000,0.000000,0.000000,,,,,,,,,,,,,,,,,,,,,,,,,,,,,,,,,,,,,,,,,,,,,,,,,,,,,,,,,,,,,,,,,,,,,,,,,,,,,,,,,,,,,,,,,,,,,,,,,,,,,,,,,,,,,,,,,,,,,,,,,,,,,,,,,
1737283821.549900,1737283821.550114,55.000000,0.000000,4334.102539,4353.077148,4274.743652,4326.538574,4355.000000,4359.487305,4357.820313,4555.128418,4551.794922,4561.794922,4499.102539,5641.410156,4306.538574,4267.307617,0.000000,1.000000,33.000000,,,,0.000000,0.000000,0.000000,0.000000,0.000000,0.000000,0.000000,0.000000,0.000000,0.000000,0.000000,0.000000,0.000000,0.000000,0.000000,0.000000,,,,,,,,,,,,,,,,,,,,,,,,,,,,,,,,,,,,,,,,,,,,,,,,,,,,,,,,,,,,,,,,,,,,,,,,,,,,,,,,,,,,,,,,,,,,,,,,,,,,,,,,,,,,,,,,,,,,,,,,,,,,,,,,,
1737283821.557708,1737283821.557822,56.000000,0.000000,4329.871582,4350.384766,4268.589844,4319.743652,4353.717773,4358.846191,4360.769043,4556.410156,4553.717773,4562.948730,4494.487305,5634.743652,4298.589844,4256.025879,0.000000,1.000000,33.000000,,,,0.000000,0.000000,0.000000,0.000000,0.000000,0.000000,0.000000,0.000000,0.000000,0.000000,0.000000,0.000000,0.000000,0.000000,0.000000,0.000000,,,,,,,,,,,,,,,,,14.000000,0.000000,0.659524,-0.749634,0.020874,0.051392,-0.104993,-0.971310,-0.131852,15.357512,-30.895802,16.773216,,,,,,,,,,,,,,,,,,,,,,,,,,,,,,,,,,,,,,,,,,,,,,,,,,,,,,,,,,,,,,,,,,,,,,,,,,,,,,,,,,,,,,,,,,,,,,,,,,,,,
1737283821.565517,1737283821.565730,57.000000,0.000000,4333.846191,4353.717773,4269.871582,4319.743652,4353.846191,4361.922852,4363.974121,4555.384766,4552.179688,4560.897461,4493.974121,5637.179688,4303.077148,4257.948730,0.000000,1.000000,33.000000,,,,0.000000,0.000000,0.000000,0.000000,0.000000,0.000000,0.000000,0.000000,0.000000,0.000000,0.000000,0.000000,0.000000,0.000000,0.000000,0.000000,,,,,,,,,,,,,,,,,,,,,,,,,,,,,,,,,,,,,,,,,,,,,,,,,,,,,,,,,,,,,,,,,,,,,,,,,,,,,,,,,,,,,,,,,,,,,,,,,,,,,,,,,,,,,,,,,,,,,,,,,,,,,,,,,
1737283821.573325,1737283821.573539,58.000000,0.000000,4336.410156,4354.102539,4272.820313,4325.256348,4358.205078,4360.641113,4364.230957,4552.307617,4550.256348,4557.820313,4496.922852,5640.769043,4305.128418,4263.461426,0.000000,1.000000,33.000000,,,,0.000000,0.000000,0.000000,0.000000,0.000000,0.000000,0.000000,0.000000,0.000000,0.000000,0.000000,0.000000,0.000000,0.000000,0.000000,0.000000,,,,,,,,,,,,,,,,,,,,,,,,,,,,,,,,,,,,,,,,,,,,,,,,,,,,,,,,,,,,,,,,,,,,,,,,,,,,,,,,,,,,,,,,,,,,,,,,,,,,,,,,,,,,,,,,,,,,,,,,,,,,,,,,,
1737283821.581133,1737283821.581447,59.000000,0.000000,4330.000000,4348.717773,4266.666504,4320.256348,4359.230957,4358.589844,4370.128418,4557.179688,4554.358887,4557.820313,4495.641113,5628.974121,4295.897461,4252.051270,0.000000,1.000000,33.000000,,,,0.000000,0.000000,0.000000,0.000000,0.000000,0.000000,0.000000,0.000000,0.000000,0.000000,0.000000,0.000000,0.000000,0.000000,0.000000,0.000000,,,,,,,,,,,,,,,,,,,,,,,,,,,,,,,,,,,,,,,,,,,,,,,,,,,,,,,,,,,,,,,,,,,,,,,,,,,,,,,,,,,,,,,,,,,,,,,,,,,,,,,,,,,,,,,,,,,,,,,,,,,,,,,,,
1737283821.588941,1737283821.589255,60.000000,0.000000,4335.256348,4354.230957,4273.846191,4320.769043,4356.538574,4359.102539,4360.512695,4555.256348,4553.846191,4562.307617,4502.820313,5641.282227,4305.256348,4267.948730,0.000000,1.000000,33.000000,,,,0.000000,0.000000,0.000000,0.000000,0.000000,0.000000,0.000000,0.000000,0.000000,0.000000,0.000000,0.000000,0.000000,0.000000,0.000000,0.000000,,,,,,,,,,,,,,,,,15.000000,0.000000,0.659587,-0.749573,0.020935,0.051453,-0.117690,-0.990844,-0.127457,15.438427,-30.856222,16.862560,,,,,,,,,,,,,,,,,,,,,,,,,,,,,,,,0.032786,0.017951,0.029720,0.023330,0.028954,0.019864,0.015151,0.014356,0.014938,0.026692,0.011400,0.024052,0.024721,0.019823,0.029637,0.024898,0.011258,0.008315,0.017275,0.019794,0.016508,0.014065,0.006821,0.018883,0.021572,0.009851,0.011348,0.040515,0.022581,0.020610,0.030004,0.011442,0.009161,0.027797,0.028860,0.020453,0.025312,0.026614,0.021987,0.031612,0.010460,0.010362,0.013493,0.012690,0.021771,0.037105,0.011561,0.028975,0.026097,0.026859,0.017582,0.014193,0.031880,0.036976,0.018938,0.033234,0.021473,0.023644,0.016101,0.022532,0.062435,0.053954,0.033636,0.023859,0.027989,0.048357,0.043947,0.070292,0.046706,0.061714
1737283821.596749,1737283821.597163,61.000000,0.000000,4331.282227,4352.179688,4264.102539,4320.000000,4353.846191,4362.051270,4364.487305,4551.410156,4550.128418,4562.563965,4495.128418,5637.436035,4300.128418,4259.615234,0.000000,1.000000,33.000000,,,,0.000000,0.000000,0.000000,0.000000,0.000000,0.000000,0.000000,0.000000,0.000000,0.000000,0.000000,0.000000,0.000000,0.000000,0.000000,0.000000,,,,,,,,,,,,,,,,,,,,,,,,,,,,,,,,,,,,,,,,,,,,,,,,,,,,,,,,,,,,,,,,,,,,,,,,,,,,,,,,,,,,,,,,,,,,,,,,,,,,,,,,,,,,,,,,,,,,,,,,,,,,,,,,,
1737283821.604557,1737283821.604971,62.000000,0.000000,4332.179688,4352.948730,4262.436035,4323.205078,4354.230957,4360.000000,4367.307617,4551.922852,4551.153809,4560.769043,4493.717773,5633.461426,4299.102539,4259.230957,0.000000,1.000000,33.000000,,,,0.000000,0.000000,0.000000,0.000000,0.000000,0.000000,0.000000,0.000000,0.000000,0.000000,0.000000,0.000000,0.000000,0.000000,0.000000,0.000000,,,,,,,,,,,,,,,,,,,,,,,,,,,,,,,,,,,,,,,,,,,,,,,,,,,,,,,,,,,,,,,,,,,,,,,,,,,,,,,,,,,,,,,,,,,,,,,,,,,,,,,,,,,,,,,,,,,,,,,,,,,,,,,,,
1737283821.612365,1737283821.612879,63.000000,0.000000,4335.000000,4356.794922,4270.897461,4326.282227,4355.512695,4358.077148,4361.153809,4555.384766,4552.563965,4561.153809,4501.794922,5641.538574,4305.897461,4269.487305,0.000000,1.000000,33.000000,,,,0.000000,0.000000,0.000000,0.000000,0.000000,0.000000,0.000000,0.000000,0.000000,0.000000,0.000000,0.000000,0.000000,0.000000,0.000000,0.000000,,,,,,,,,,,,,,,,,,,,,,,,,,,,,,,,,,,,,,,,,,,,,,,,,,,,,,,,,,,,,,,,,,,,,,,,,,,,,,,,,,,,,,,,,,,,,,,,,,,,,,,,,,,,,,,,,,,,,,,,,,,,,,,,,
1737283821.620173,1737283821.620688,64.000000,0.000000,4326.666504,4350.897461,4264.487305,4318.846191,4354.358887,4360.512695,4367.436035,4558.205078,4551.410156,4560.641113,4494.358887,5632.563965,4296.410156,4251.922852,0.000000,1.000000,33.000000,,,,0.000000,0.000000,0.000000,0.000000,0.000000,0.000000,0.000000,0.000000,0.000000,0.000000,0.000000,0.000000,0.000000,0.000000,0.000000,0.000000,,,,,,,,,,,,,,,,,16.000000,0.000000,0.659520,-0.749634,0.020996,0.051392,-0.092785,-0.984984,-0.129899,15.411251,-30.837267,16.926304,,,,,,,,,,,,,,,,,,,,,,,,,,,,,,,,,,,,,,,,,,,,,,,,,,,,,,,,,,,,,,,,,,,,,,,,,,,,,,,,,,,,,,,,,,,,,,,,,,,,,
1737283821.627981,1737283821.628596,65.000000,0.000000,4334.358887,4355.769043,4275.000000,4321.025879,4352.948730,4359.487305,4363.717773,4554.615234,4551.153809,4561.410156,4498.461426,5637.436035,4304.615234,4263.589844,0.000000,1.000000,33.000000,,,,0.000000,0.000000,0.000000,0.000000,0.000000,0.000000,0.000000,0.000000,0.000000,0.000000,0.000000,0.000000,0.000000,0.000000,0.000000,0.000000,,,,,,,,,,,,,,,,,,,,,,,,,,,,,,,,,,,,,,,,,,,,,,,,,,,,,,,,,,,,,,,,,,,,,,,,,,,,,,,,,,,,,,,,,,,,,,,,,,,,,,,,,,,,,,,,,,,,,,,,,,,,,,,,,
1737283821.635789,1737283821.636404,66.000000,0.000000,4333.077148,4352.820313,4271.794922,4321.538574,4353.205078,4360.384766,4367.948730,4556.025879,4552.948730,4561.538574,4498.461426,5634.102539,4305.384766,4262.820313,0.000000,1.000000,33.000000,,,,0.000000,0.000000,0.000000,0.000000,0.000000,0.000000,0.000000,0.000000,0.000000,0.000000,0.000000,0.000000,0.000000,0.000000,0.000000,0.000000,,,,,,,,,,,,,,,,,,,,,,,,,,,,,,,,,,,,,,,,,,,,,,,,,,,,,,,,,,,,,,,,,,,,,,,,,,,,,,,,,,,,,,,,,,,,,,,,,,,,,,,,,,,,,,,,,,,,,,,,,,,,,,,,,
1737283821.643597,1737283821.644312,67.000000,0.000000,4327.436035,4348.589844,4264.871582,4321.922852,4355.128418,4360.769043,4368.717773,4556.282227,4552.179688,4561.410156,4495.128418,5632.563965,4299.358887,4259.871582,0.000000,1.000000,33.000000,,,,0.000000,0.000000,0.000000,0.000000,0.000000,0.000000,0.000000,0.000000,0.000000,0.000000,0.000000,0.000000,0.000000,0.000000,0.000000,0.000000,,,,,,,,,,,,,,,,,,,,,,,,,,,,,,,,,,,,,,,,,,,,,,,,,,,,,,,,,,,,,,,,,,,,,,,,,,,,,,,,,,,,,,,,,,,,,,,,,,,,,,,,,,,,,,,,,,,,,,,,,,,,,,,,,
1737283821.651405,1737283821.652120,68.000000,0.000000,4332.179688,4355.384766,4271.922852,4325.000000,4354.358887,4359.615234,4359.358887,4552.820313,4553.974121,4561.666504,4498.205078,5641.922852,4303.717773,4273.077148,0.000000,1.000000,33.000000,,,,0.000000,0.000000,0.000000,0.000000,0.000000,0.000000,0.000000,0.000000,0.000000,0.000000,0.000000,0.000000,0.000000,0.000000,0.000000,0.000000,,,,,,,,,,,,,,,,,17.000000,0.000000,0.659520,-0.749634,0.020996,0.051392,-0.095715,-0.990355,-0.115737,15.320126,-30.853540,16.867008,,,,,,,,,,,,,,,,,,,,,,,,,,,,,,,,,,,,,,,,,,,,,,,,,,,,,,,,,,,,,,,,,,,,,,,,,,,,,,,,,,,,,,,,,,,,,,,,,,,,,
1737283821.659214,1737283821.660028,69.000000,0.000000,4329.102539,4353.077148,4264.487305,4319.743652,4355.000000,4361.794922,4367.563965,4556.538574,4557.948730,4559.358887,4492.307617,5630.769043,4300.256348,4256.153809,0.000000,1.000000,33.000000,,,,0.000000,0.000000,0.000000,0.000000,0.000000,0.000000,0.000000,0.000000,0.000000,0.000000,0.000000,0.000000,0.000000,0.000000,0.000000,0.000000,,,,,,,,,,,,,,,,,,,,,,,,,,,,,,,,,,,,,,,,,,,,,,,,,,,,,,,,,,,,,,,,,,,,,,,,,,,,,,,,,,,,,,,,,,,,,,,,,,,,,,,,,,,,,,,,,,,,,,,,,,,,,,,,,
1737283821.667022,1737283821.667836,70.000000,0.000000,4335.384766,4352.820313,4271.153809,4321.538574,4358.846191,4359.871582,4364.230957,4554.743652,4555.000000,4559.358887,4497.307617,5637.051270,4308.333496,4266.666504,0.000000,1.000000,33.000000,,,,0.000000,0.000000,0.000000,0.000000,0.000000,0.000000,0.000000,0.000000,0.000000,0.000000,0.000000,0.000000,0.000000,0.000000,0.000000,0.000000,,,,,,,,,,,,,,,,,,,,,,,,,,,,,,,,,,,,,,,,,,,,,,,,,,,,,,,,,,,,,,,,,,,,,,,,,,,,,,,,,,,,,,,,,,,,,,,,,,,,,,,,,,,,,,,,,,,,,,,,,,,,,,,,,
1737283821.674830,1737283821.675544,71.000000,0.000000,4333.205078,4350.512695,4270.641113,4319.615234,4356.538574,4358.846191,4361.666504,4553.205078,4551.153809,4559.871582,4497.179688,5635.769043,4307.051270,4268.205078,0.000000,1.000000,33.000000,,,,0.000000,0.000000,0.000000,0.000000,0.000000,0.000000,0.000000,0.000000,0.000000,0.000000,0.000000,0.000000,0.000000,0.000000,0.000000,0.000000,,,,,,,,,,,,,,,,,,,,,,,,,,,,,,,,,,,,,,,,,,,,,,,,,,,,,,,,,,,,,,,,,,,,,,,,,,,,,,,,,,,,,,,,,,,,,,,,,,,,,,,,,,,,,,,,,,,,,,,,,,,,,,,,,
1737283821.682638,1737283821.683352,72.000000,0.000000,4328.846191,4351.282227,4262.307617,4318.589844,4353.717773,4362.179688,4365.384766,4556.922852,4549.358887,4559.871582,4493.846191,5629.102539,4300.128418,4254.102539,0.000000,1.000000,33.000000,,,,0.000000,0.000000,0.000000,0.000000,0.000000,0.000000,0.000000,0.000000,0.000000,0.000000,0.000000,0.000000,0.000000,0.000000,0.000000,0.000000,,,,,,,,,,,,,,,,,18.000000,0.000000,0.659525,-0.749634,0.020996,0.051331,-0.095226,-0.969845,-0.128434,15.421447,-30.934853,16.963640,,,,,,,,,,,,,,,,,,,,,,,,,,,,,,,,,,,,,,,,,,,,,,,,,,,,,,,,,,,,,,,,,,,,,,,,,,,,,,,,,,,,,,,,,,,,,,,,,,,,,
1737283821.690446,1737283821.691060,73.000000,0.000000,4339.487305,4359.102539,4272.307617,4326.410156,4355.769043,4361.922852,4360.769043,4555.897461,4550.512695,4563.333496,4502.179688,5641.025879,4307.948730,4268.717773,0.000000,1.000000,33.000000,,,,0.000000,0.000000,0.000000,0.000000,0.000000,0.000000,0.000000,0.000000,0.000000,0.000000,0.000000,0.000000,0.000000,0.000000,0.000000,0.000000,,,,,,,,,,,,,,,,,,,,,,,,,,,,,,,,,,,,,,,,,,,,,,,,,,,,,,,,,,,,,,,,,,,,,,,,,,,,,,,,,,,,,,,,,,,,,,,,,,,,,,,,,,,,,,,,,,,,,,,,,,,,,,,,,
1737283821.698254,1737283821.698868,74.000000,0.000000,4334.358887,4351.410156,4268.589844,4319.743652,4355.256348,4359.230957,4367.307617,4555.256348,4552.307617,4563.846191,4496.538574,5630.128418,4302.051270,4259.102539,0.000000,1.000000,33.000000,,,,0.000000,0.000000,0.000000,0.000000,0.000000,0.000000,0.000000,0.000000,0.000000,0.000000,0.000000,0.000000,0.000000,0.000000,0.000000,0.000000,,,,,,,,,,,,,,,,,,,,,,,,,,,,,,,,,,,,,,,,,,,,,,,,,,,,,,,,,,,,,,,,,,,,,,,,,,,,,,,,,,,,,,,,,,,,,,,,,,,,,,,,,,,,,,,,,,,,,,,,,,,,,,,,,
1737283821.706062,1737283821.706576,75.000000,0.000000,4333.333496,4350.512695,4269.871582,4319.487305,4353.974121,4358.717773,4363.461426,4554.230957,4549.358887,4561.666504,4498.589844,5634.743652,4304.230957,4263.205078,0.000000,1.000000,33.000000,,,,0.000000,0.000000,0.000000,0.000000,0.000000,0.000000,0.000000,0.000000,0.000000,0.000000,0.000000,0.000000,0.000000,0.000000,0.000000,0.000000,,,,,,,,,,,,,,,,,,,,,,,,,,,,,,,,,,,,,,,,,,,,,,,,,,,,,,,,,,,,,,,,,,,,,,,,,,,,,,,,,,,,,,,,,,,,,,,,,,,,,,,,,,,,,,,,,,,,,,,,,,,,,,,,,
1737283821.713870,1737283821.714484,76.000000,0.000000,4332.179688,4354.487305,4269.615234,4322.948730,4353.077148,4362.307617,4359.615234,4556.025879,4550.000000,4561.666504,4501.282227,5643.077148,4306.922852,4269.102539,0.000000,1.000000,33.000000,,,,0.000000,0.000000,0.000000,0.000000,0.000000,0.000000,0.000000,0.000000,0.000000,0.000000,0.000000,0.000000,0.000000,0.000000,0.000000,0.000000,,,,,,,,,,,,,,,,,19.000000,0.000000,0.659454,-0.749695,0.021057,0.051331,-0.089366,-0.989867,-0.128434,15.279302,-30.974701,16.950609,,,,,,,,,,,,,,,,,,,,,,,,,,,,,,,,0.030256,0.015848,0.037119,0.019146,0.029719,0.019051,0.017394,0.013193,0.014722,0.025218,0.009318,0.022923,0.025980,0.021498,0.030958,0.026218,0.012463,0.007026,0.018297,0.020529,0.013557,0.014809,0.005510,0.020129,0.023080,0.010312,0.012990,0.040755,0.021649,0.023200,0.029786,0.011636,0.012542,0.032662,0.028967,0.022312,0.024679,0.028458,0.018028,0.031087,0.012327,0.010608,0.011242,0.013498,0.023700,0.028728,0.015690,0.030948,0.027338,0.025046,0.016442,0.015016,0.023549,0.034274,0.019432,0.029100,0.017759,0.021658,0.019208,0.022288,0.046761,0.042993,0.033220,0.024525,0.029256,0.056650,0.044612,0.065904,0.045296,0.062348
1737283821.721678,1737283821.722292,77.000000,0.000000,4326.794922,4350.384766,4262.820313,4319.615234,4352.179688,4363.974121,4365.384766,4557.563965,4554.358887,4563.333496,4492.563965,5633.205078,4300.128418,4257.820313,0.000000,1.000000,33.000000,,,,0.000000,0.000000,0.000000,0.000000,0.000000,0.000000,0.000000,0.000000,0.000000,0.000000,0.000000,0.000000,0.000000,0.000000,0.000000,0.000000,,,,,,,,,,,,,,,,,,,,,,,,,,,,,,,,,,,,,,,,,,,,,,,,,,,,,,,,,,,,,,,,,,,,,,,,,,,,,,,,,,,,,,,,,,,,,,,,,,,,,,,,,,,,,,,,,,,,,,,,,,,,,,,,,
1737283821.729486,1737283821.730200,78.000000,0.000000,4333.974121,4350.769043,4272.436035,4323.974121,4353.461426,4359.743652,4361.282227,4550.641113,4553.589844,4563.846191,4497.692383,5639.230957,4305.641113,4270.512695,0.000000,1.000000,33.000000,,,,0.000000,0.000000,0.000000,0.000000,0.000000,0.000000,0.000000,0.000000,0.000000,0.000000,0.000000,0.000000,0.000000,0.000000,0.000000,0.000000,,,,,,,,,,,,,,,,,,,,,,,,,,,,,,,,,,,,,,,,,,,,,,,,,,,,,,,,,,,,,,,,,,,,,,,,,,,,,,,,,,,,,,,,,,,,,,,,,,,,,,,,,,,,,,,,,,,,,,,,,,,,,,,,,
1737283821.737295,1737283821.738008,79.000000,0.000000,4329.615234,4349.230957,4267.051270,4321.410156,4353.846191,4358.846191,4365.512695,4551.794922,4553.205078,4562.307617,4495.897461,5632.051270,4301.410156,4259.230957,0.000000,1.000000,33.000000,,,,0.000000,0.000000,0.000000,0.000000,0.000000,0.000000,0.000000,0.000000,0.000000,0.000000,0.000000,0.000000,0.000000,0.000000,0.000000,0.000000,,,,,,,,,,,,,,,,,,,,,,,,,,,,,,,,,,,,,,,,,,,,,,,,,,,,,,,,,,,,,,,,,,,,,,,,,,,,,,,,,,,,,,,,,,,,,,,,,,,,,,,,,,,,,,,,,,,,,,,,,,,,,,,,,
1737283821.745103,1737283821.745817,80.000000,0.000000,4330.641113,4353.205078,4266.538574,4321.666504,4353.717773,4359.358887,4363.589844,4557.820313,4553.333496,4561.922852,4494.871582,5634.230957,4303.461426,4256.794922,0.000000,1.000000,33.000000,,,,0.000000,0.000000,0.000000,0.000000,0.000000,0.000000,0.000000,0.000000,0.000000,0.000000,0.000000,0.000000,0.000000,0.000000,0.000000,0.000000,,,,,,,,,,,,,,,,,20.000000,0.000000,0.659459,-0.749695,0.021057,0.051270,-0.108900,-0.992797,-0.125015,15.234705,-30.977230,16.855549,,,,,,,,,,,,,,,,,,,,,,,,,,,,,,,,,,,,,,,,,,,,,,,,,,,,,,,,,,,,,,,,,,,,,,,,,,,,,,,,,,,,,,,,,,,,,,,,,,,,,
1737283821.752911,1737283821.753525,81.000000,0.000000,4335.641113,4354.230957,4272.436035,4322.692383,4353.589844,4358.077148,4364.743652,4557.051270,4551.153809,4560.512695,4496.410156,5640.128418,4307.179688,4265.384766,0.000000,1.000000,33.000000,,,,0.000000,0.000000,0.000000,0.000000,0.000000,0.000000,0.000000,0.000000,0.000000,0.000000,0.000000,0.000000,0.000000,0.000000,0.000000,0.000000,,,,,,,,,,,,,,,,,,,,,,,,,,,,,,,,,,,,,,,,,,,,,,,,,,,,,,,,,,,,,,,,,,,,,,,,,,,,,,,,,,,,,,,,,,,,,,,,,,,,,,,,,,,,,,,,,,,,,,,,,,,,,,,,,
1737283821.760719,1737283821.761333,82.000000,0.000000,4331.666504,4351.410156,4265.000000,4318.333496,4354.102539,4359.230957,4372.820313,4554.487305,4552.051270,4560.769043,4490.128418,5626.666504,4298.974121,4256.538574,0.000000,1.000000,33.000000,,,,0.000000,0.000000,0.000000,0.000000,0.000000,0.000000,0.000000,0.000000,0.000000,0.000000,0.000000,0.000000,0.000000,0.000000,0.000000,0.000000,,,,,,,,,,,,,,,,,,,,,,,,,,,,,,,,,,,,,,,,,,,,,,,,,,,,,,,,,,,,,,,,,,,,,,,,,,,,,,,,,,,,,,,,,,,,,,,,,,,,,,,,,,,,,,,,,,,,,,,,,,,,,,,,,
1737283821.768527,1737283821.769041,83.000000,0.000000,4338.589844,4359.230957,4272.563965,4325.897461,4355.897461,4359.615234,4359.871582,4553.333496,4553.077148,4563.974121,4495.769043,5638.205078,4308.717773,4270.000000,0.000000,1.000000,33.000000,,,,0.000000,0.000000,0.000000,0.000000,0.000000,0.000000,0.000000,0.000000,0.000000,0.000000,0.000000,0.000000,0.000000,0.000000,0.000000,0.000000,,,,,,,,,,,,,,,,,,,,,,,,,,,,,,,,,,,,,,,,,,,,,,,,,,,,,,,,,,,,,,,,,,,,,,,,,,,,,,,,,,,,,,,,,,,,,,,,,,,,,,,,,,,,,,,,,,,,,,,,,,,,,,,,,
1737283821.776335,1737283821.776949,84.000000,0.000000,4335.000000,4352.051270,4271.025879,4322.051270,4354.358887,4359.743652,4362.948730,4557.563965,4551.922852,4562.692383,4493.846191,5639.230957,4306.025879,4262.948730,0.000000,1.000000,33.000000,,,,0.000000,0.000000,0.000000,0.000000,0.000000,0.000000,0.000000,0.000000,0.000000,0.000000,0.000000,0.000000,0.000000,0.000000,0.000000,0.000000,,,,,,,,,,,,,,,,,21.000000,0.000000,0.659531,-0.749634,0.021118,0.051208,-0.100110,-0.980588,-0.121597,15.094568,-31.079508,16.953327,,,,,,,,,,,,,,,,,,,,,,,,,,,,,,,,,,,,,,,,,,,,,,,,,,,,,,,,,,,,,,,,,,,,,,,,,,,,,,,,,,,,,,,,,,,,,,,,,,,,,
1737283821.784143,1737283821.784757,85.000000,0.000000,4331.666504,4348.461426,4268.589844,4316.922852,4352.692383,4359.230957,4368.589844,4558.589844,4551.025879,4559.230957,4493.205078,5632.436035,4299.743652,4263.077148,0.000000,1.000000,33.000000,,,,0.000000,0.000000,0.000000,0.000000,0.000000,0.000000,0.000000,0.000000,0.000000,0.000000,0.000000,0.000000,0.000000,0.000000,0.000000,0.000000,,,,,,,,,,,,,,,,,,,,,,,,,,,,,,,,,,,,,,,,,,,,,,,,,,,,,,,,,,,,,,,,,,,,,,,,,,,,,,,,,,,,,,,,,,,,,,,,,,,,,,,,,,,,,,,,,,,,,,,,,,,,,,,,,
1737283821.791951,1737283821.792665,86.000000,0.000000,4337.307617,4355.769043,4275.512695,4322.820313,4354.743652,4360.384766,4361.025879,4553.589844,4550.769043,4560.897461,4499.615234,5638.589844,4306.666504,4275.000000,0.000000,1.000000,33.000000,,,,0.000000,0.000000,0.000000,0.000000,0.000000,0.000000,0.000000,0.000000,0.000000,0.000000,0.000000,0.000000,0.000000,0.000000,0.000000,0.000000,,,,,,,,,,,,,,,,,,,,,,,,,,,,,,,,,,,,,,,,,,,,,,,,,,,,,,,,,,,,,,,,,,,,,,,,,,,,,,,,,,,,,,,,,,,,,,,,,,,,,,,,,,,,,,,,,,,,,,,,,,,,,,,,,
1737283821.799759,1737283821.800473,87.000000,0.000000,4330.000000,4349.743652,4265.641113,4321.922852,4355.641113,4364.102539,4367.820313,4554.358887,4553.333496,4563.846191,4493.717773,5632.692383,4302.436035,4254.871582,0.000000,1.000000,33.000000,,,,0.000000,0.000000,0.000000,0.000000,0.000000,0.000000,0.000000,0.000000,0.000000,0.000000,0.000000,0.000000,0.000000,0.000000,0.000000,0.000000,,,,,,,,,,,,,,,,,,,,,,,,,,,,,,,,,,,,,,,,,,,,,,,,,,,,,,,,,,,,,,,,,,,,,,,,,,,,,,,,,,,,,,,,,,,,,,,,,,,,,,,,,,,,,,,,,,,,,,,,,,,,,,,,,
1737283821.807567,1737283821.808381,88.000000,0.000000,4333.846191,4351.794922,4267.436035,4323.717773,4354.743652,4360.128418,4364.871582,4555.128418,4554.743652,4564.102539,4495.128418,5640.384766,4307.307617,4263.717773,0.000000,1.000000,33.000000,,,,0.000000,0.000000,0.000000,0.000000,0.000000,0.000000,0.000000,0.000000,0.000000,0.000000,0.000000,0.000000,0.000000,0.000000,0.000000,0.000000,,,,,,,,,,,,,,,,,22.000000,0.000000,0.659461,-0.749695,0.021118,0.051208,-0.092785,-0.973752,-0.128434,15.201777,-30.938223,16.891327,,,,,,,,,,,,,,,,,,,,,,,,,,,,,,,,,,,,,,,,,,,,,,,,,,,,,,,,,,,,,,,,,,,,,,,,,,,,,,,,,,,,,,,,,,,,,,,,,,,,,
1737283821.815375,1737283821.816189,89.000000,0.000000,4336.153809,4353.589844,4267.051270,4321.666504,4353.846191,4358.846191,4364.615234,4556.922852,4552.820313,4561.666504,4493.589844,5637.051270,4305.128418,4264.230957,0.000000,1.000000,33.000000,,,,0.000000,0.000000,0.000000,0.000000,0.000000,0.000000,0.000000,0.000000,0.000000,0.000000,0.000000,0.000000,0.000000,0.000000,0.000000,0.000000,,,,,,,,,,,,,,,,,,,,,,,,,,,,,,,,,,,,,,,,,,,,,,,,,,,,,,,,,,,,,,,,,,,,,,,,,,,,,,,,,,,,,,,,,,,,,,,,,,,,,,,,,,,,,,,,,,,,,,,,,,,,,,,,,
1737283821.823183,1737283821.824096,90.000000,0.000000,4330.512695,4351.025879,4265.641113,4321.153809,4353.333496,4362.692383,4367.179688,4558.077148,4550.641113,4561.794922,4494.743652,5632.179688,4299.230957,4256.666504,0.000000,1.000000,33.000000,,,,0.000000,0.000000,0.000000,0.000000,0.000000,0.000000,0.000000,0.000000,0.000000,0.000000,0.000000,0.000000,0.000000,0.000000,0.000000,0.000000,,,,,,,,,,,,,,,,,,,,,,,,,,,,,,,,,,,,,,,,,,,,,,,,,,,,,,,,,,,,,,,,,,,,,,,,,,,,,,,,,,,,,,,,,,,,,,,,,,,,,,,,,,,,,,,,,,,,,,,,,,,,,,,,,
1737283821.830992,1737283821.831904,91.000000,0.000000,4332.436035,4353.717773,4273.205078,4326.282227,4354.615234,4362.051270,4361.410156,4554.871582,4550.512695,4563.461426,4502.948730,5643.461426,4303.974121,4269.358887,0.000000,1.000000,33.000000,,,,0.000000,0.000000,0.000000,0.000000,0.000000,0.000000,0.000000,0.000000,0.000000,0.000000,0.000000,0.000000,0.000000,0.000000,0.000000,0.000000,,,,,,,,,,,,,,,,,,,,,,,,,,,,,,,,,,,,,,,,,,,,,,,,,,,,,,,,,,,,,,,,,,,,,,,,,,,,,,,,,,,,,,,,,,,,,,,,,,,,,,,,,,,,,,,,,,,,,,,,,,,,,,,,,
1737283821.838800,1737283821.839613,92.000000,0.000000,4329.871582,4349.615234,4262.307617,4320.256348,4355.769043,4362.051270,4368.846191,4556.410156,4552.948730,4562.179688,4493.974121,5633.461426,4297.051270,4253.333496,0.000000,1.000000,33.000000,,,,0.000000,0.000000,0.000000,0.000000,0.000000,0.000000,0.000000,0.000000,0.000000,0.000000,0.000000,0.000000,0.000000,0.000000,0.000000,0.000000,,,,,,,,,,,,,,,,,23.000000,0.000000,0.659536,-0.749634,0.021118,0.051147,-0.105482,-0.984984,-0.123062,15.148267,-30.961067,16.868862,,,,,,,,,,,,,,,,,,,,,,,,,,,,,,,,0.026756,0.014650,0.043675,0.016043,0.030523,0.017688,0.019213,0.011090,0.014726,0.023015,0.007581,0.021051,0.028137,0.022908,0.031278,0.027636,0.016930,0.007392,0.021489,0.021203,0.012126,0.017225,0.004726,0.020522,0.024753,0.011295,0.017182,0.038009,0.020995,0.026770,0.031988,0.011651,0.015463,0.038520,0.030240,0.022354,0.025419,0.028824,0.014919,0.030412,0.015496,0.010859,0.009774,0.015137,0.025893,0.021647,0.019998,0.034378,0.028061,0.022235,0.015547,0.017443,0.018487,0.031151,0.020217,0.023424,0.014225,0.024245,0.022044,0.022823,0.035840,0.033949,0.031143,0.025641,0.029282,0.061829,0.042893,0.057835,0.042486,0.058921
1737283821.846608,1737283821.847421,93.000000,0.000000,4334.358887,4352.948730,4266.794922,4321.282227,4355.897461,4361.025879,4366.410156,4554.871582,4552.307617,4562.563965,4494.487305,5636.794922,4303.974121,4261.922852,0.000000,1.000000,33.000000,,,,0.000000,0.000000,0.000000,0.000000,0.000000,0.000000,0.000000,0.000000,0.000000,0.000000,0.000000,0.000000,0.000000,0.000000,0.000000,0.000000,,,,,,,,,,,,,,,,,,,,,,,,,,,,,,,,,,,,,,,,,,,,,,,,,,,,,,,,,,,,,,,,,,,,,,,,,,,,,,,,,,,,,,,,,,,,,,,,,,,,,,,,,,,,,,,,,,,,,,,,,,,,,,,,,
1737283821.854416,1737283821.855129,94.000000,0.000000,4332.948730,4353.589844,4269.615234,4322.820313,4352.692383,4361.666504,4364.871582,4553.717773,4551.282227,4563.205078,4497.179688,5637.692383,4307.179688,4269.358887,0.000000,1.000000,33.000000,,,,0.000000,0.000000,0.000000,0.000000,0.000000,0.000000,0.000000,0.000000,0.000000,0.000000,0.000000,0.000000,0.000000,0.000000,0.000000,0.000000,,,,,,,,,,,,,,,,,,,,,,,,,,,,,,,,,,,,,,,,,,,,,,,,,,,,,,,,,,,,,,,,,,,,,,,,,,,,,,,,,,,,,,,,,,,,,,,,,,,,,,,,,,,,,,,,,,,,,,,,,,,,,,,,,
1737283821.862224,1737283821.862937,95.000000,0.000000,4328.974121,4349.871582,4262.051270,4319.230957,4352.051270,4363.077148,4368.461426,4555.769043,4551.025879,4562.051270,4493.205078,5631.025879,4299.743652,4256.153809,0.000000,1.000000,33.000000,,,,0.000000,0.000000,0.000000,0.000000,0.000000,0.000000,0.000000,0.000000,0.000000,0.000000,0.000000,0.000000,0.000000,0.000000,0.000000,0.000000,,,,,,,,,,,,,,,,,,,,,,,,,,,,,,,,,,,,,,,,,,,,,,,,,,,,,,,,,,,,,,,,,,,,,,,,,,,,,,,,,,,,,,,,,,,,,,,,,,,,,,,,,,,,,,,,,,,,,,,,,,,,,,,,,
1737283821.870032,1737283821.870645,96.000000,0.000000,4336.794922,4356.153809,4271.666504,4323.333496,4355.769043,4361.025879,4361.282227,4552.436035,4547.820313,4564.230957,4499.230957,5642.948730,4304.230957,4266.282227,0.000000,1.000000,33.000000,,,,0.000000,0.000000,0.000000,0.000000,0.000000,0.000000,0.000000,0.000000,0.000000,0.000000,0.000000,0.000000,0.000000,0.000000,0.000000,0.000000,,,,,,,,,,,,,,,,,24.000000,0.000000,0.659600,-0.749573,0.021118,0.051208,-0.101087,-0.967403,-0.124039,15.100107,-30.931627,16.798641,,,,,,,,,,,,,,,,,,,,,,,,,,,,,,,,,,,,,,,,,,,,,,,,,,,,,,,,,,,,,,,,,,,,,,,,,,,,,,,,,,,,,,,,,,,,,,,,,,,,,
1737283821.877840,1737283821.878453,97.000000,0.000000,4329.871582,4352.563965,4267.948730,4320.641113,4356.025879,4361.666504,4367.307617,4556.282227,4549.487305,4563.846191,4494.487305,5631.538574,4298.077148,4257.307617,0.000000,1.000000,33.000000,,,,0.000000,0.000000,0.000000,0.000000,0.000000,0.000000,0.000000,0.000000,0.000000,0.000000,0.000000,0.000000,0.000000,0.000000,0.000000,0.000000,,,,,,,,,,,,,,,,,,,,,,,,,,,,,,,,,,,,,,,,,,,,,,,,,,,,,,,,,,,,,,,,,,,,,,,,,,,,,,,,,,,,,,,,,,,,,,,,,,,,,,,,,,,,,,,,,,,,,,,,,,,,,,,,,
1737283821.885648,1737283821.886161,98.000000,0.000000,4332.307617,4351.538574,4271.410156,4321.538574,4353.846191,4361.410156,4363.974121,4558.205078,4553.717773,4560.897461,4495.897461,5630.384766,4303.974121,4262.692383,0.000000,1.000000,33.000000,,,,0.000000,0.000000,0.000000,0.000000,0.000000,0.000000,0.000000,0.000000,0.000000,0.000000,0.000000,0.000000,0.000000,0.000000,0.000000,0.000000,,,,,,,,,,,,,,,,,,,,,,,,,,,,,,,,,,,,,,,,,,,,,,,,,,,,,,,,,,,,,,,,,,,,,,,,,,,,,,,,,,,,,,,,,,,,,,,,,,,,,,,,,,,,,,,,,,,,,,,,,,,,,,,,,
1737283821.893456,1737283821.894069,99.000000,0.000000,4338.077148,4353.205078,4272.948730,4323.846191,4352.179688,4359.871582,4358.974121,4555.769043,4553.333496,4560.769043,4498.205078,5638.589844,4308.461426,4266.282227,0.000000,1.000000,33.000000,,,,0.000000,0.000000,0.000000,0.000000,0.000000,0.000000,0.000000,0.000000,0.000000,0.000000,0.000000,0.000000,0.000000,0.000000,0.000000,0.000000,,,,,,,,,,,,,,,,,,,,,,,,,,,,,,,,,,,,,,,,,,,,,,,,,,,,,,,,,,,,,,,,,,,,,,,,,,,,,,,,,,,,,,,,,,,,,,,,,,,,,,,,,,,,,,,,,,,,,,,,,,,,,,,,,
1737283821.901265,1737283821.901877,100.000000,0.000000,4331.025879,4350.769043,4261.666504,4319.743652,4353.846191,4360.512695,4366.666504,4557.820313,4551.922852,4558.846191,4490.769043,5628.461426,4298.717773,4252.436035,0.000000,1.000000,33.000000,,,,0.000000,0.000000,0.000000,0.000000,0.000000,0.000000,0.000000,0.000000,0.000000,0.000000,0.000000,0.000000,0.000000,0.000000,0.000000,0.000000,,,,,,,,,,,,,,,,,25.000000,0.000000,0.659540,-0.749634,0.021118,0.051086,-0.101575,-0.984007,-0.113295,15.123429,-30.888464,16.718779,,,,,,,,,,,,,,,,,,,,,,,,,,,,,,,,,,,,,,,,,,,,,,,,,,,,,,,,,,,,,,,,,,,,,,,,,,,,,,,,,,,,,,,,,,,,,,,,,,,,,
1737283821.909073,1737283821.909685,101.000000,0.000000,4335.641113,4354.230957,4271.666504,4323.205078,4357.307617,4360.000000,4362.436035,4556.025879,4551.153809,4558.077148,4498.205078,5636.538574,4307.436035,4270.384766,0.000000,1.000000,33.000000,,,,0.000000,0.000000,0.000000,0.000000,0.000000,0.000000,0.000000,0.000000,0.000000,0.000000,0.000000,0.000000,0.000000,0.000000,0.000000,0.000000,,,,,,,,,,,,,,,,,,,,,,,,,,,,,,,,,,,,,,,,,,,,,,,,,,,,,,,,,,,,,,,,,,,,,,,,,,,,,,,,,,,,,,,,,,,,,,,,,,,,,,,,,,,,,,,,,,,,,,,,,,,,,,,,,
1737283821.916881,1737283821.917393,102.000000,0.000000,4332.948730,4350.128418,4269.487305,4320.000000,4353.717773,4361.025879,4367.051270,4554.615234,4553.846191,4561.025879,4496.538574,5631.538574,4304.871582,4261.025879,0.000000,1.000000,33.000000,,,,0.000000,0.000000,0.000000,0.000000,0.000000,0.000000,0.000000,0.000000,0.000000,0.000000,0.000000,0.000000,0.000000,0.000000,0.000000,0.000000,,,,,,,,,,,,,,,,,,,,,,,,,,,,,,,,,,,,,,,,,,,,,,,,,,,,,,,,,,,,,,,,,,,,,,,,,,,,,,,,,,,,,,,,,,,,,,,,,,,,,,,,,,,,,,,,,,,,,,,,,,,,,,,,,
1737283821.924689,1737283821.925201,103.000000,0.000000,4331.666504,4351.794922,4266.282227,4320.000000,4351.922852,4361.282227,4366.282227,4553.717773,4554.358887,4562.563965,4492.051270,5628.589844,4302.179688,4259.743652,0.000000,1.000000,33.000000,,,,0.000000,0.000000,0.000000,0.000000,0.000000,0.000000,0.000000,0.000000,0.000000,0.000000,0.000000,0.000000,0.000000,0.000000,0.000000,0.000000,,,,,,,,,,,,,,,,,,,,,,,,,,,,,,,,,,,,,,,,,,,,,,,,,,,,,,,,,,,,,,,,,,,,,,,,,,,,,,,,,,,,,,,,,,,,,,,,,,,,,,,,,,,,,,,,,,,,,,,,,,,,,,,,,
1737283821.932497,1737283821.932909,104.000000,0.000000,4333.846191,4355.384766,4270.641113,4323.974121,4356.025879,4359.358887,4360.769043,4555.641113,4550.128418,4560.256348,4494.743652,5637.820313,4307.179688,4273.589844,0.000000,1.000000,33.000000,,,,0.000000,0.000000,0.000000,0.000000,0.000000,0.000000,0.000000,0.000000,0.000000,0.000000,0.000000,0.000000,0.000000,0.000000,0.000000,0.000000,,,,,,,,,,,,,,,,,26.000000,0.000000,0.659527,-0.749634,0.021240,0.051208,-0.101575,-0.969357,-0.132829,15.261086,-30.799618,16.730234,,,,,,,,,,,,,,,,,,,,,,,,,,,,,,,,,,,,,,,,,,,,,,,,,,,,,,,,,,,,,,,,,,,,,,,,,,,,,,,,,,,,,,,,,,,,,,,,,,,,,
1737283821.940305,1737283821.940817,105.000000,0.000000,4325.769043,4347.436035,4263.461426,4319.102539,4355.384766,4359.487305,4369.743652,4559.230957,4549.487305,4557.948730,4493.589844,5630.769043,4300.641113,4256.922852,0.000000,1.000000,33.000000,,,,0.000000,0.000000,0.000000,0.000000,0.000000,0.000000,0.000000,0.000000,0.000000,0.000000,0.000000,0.000000,0.000000,0.000000,0.000000,0.000000,,,,,,,,,,,,,,,,,,,,,,,,,,,,,,,,,,,,,,,,,,,,,,,,,,,,,,,,,,,,,,,,,,,,,,,,,,,,,,,,,,,,,,,,,,,,,,,,,,,,,,,,,,,,,,,,,,,,,,,,,,,,,,,,,
1737283821.948113,1737283821.948626,106.000000,0.000000,4332.436035,4350.256348,4272.051270,4322.051270,4353.333496,4358.077148,4363.974121,4553.461426,4552.436035,4560.000000,4500.384766,5637.436035,4307.692383,4266.794922,0.000000,1.000000,33.000000,,,,0.000000,0.000000,0.000000,0.000000,0.000000,0.000000,0.000000,0.000000,0.000000,0.000000,0.000000,0.000000,0.000000,0.000000,0.000000,0.000000,,,,,,,,,,,,,,,,,,,,,,,,,,,,,,,,,,,,,,,,,,,,,,,,,,,,,,,,,,,,,,,,,,,,,,,,,,,,,,,,,,,,,,,,,,,,,,,,,,,,,,,,,,,,,,,,,,,,,,,,,,,,,,,,,
1737283821.955921,1737283821.956534,107.000000,0.000000,4333.846191,4351.282227,4270.512695,4320.256348,4355.000000,4359.487305,4363.077148,4552.948730,4554.615234,4560.256348,4495.512695,5634.358887,4304.487305,4263.589844,0.000000,1.000000,33.000000,,,,0.000000,0.000000,0.000000,0.000000,0.000000,0.000000,0.000000,0.000000,0.000000,0.000000,0.000000,0.000000,0.000000,0.000000,0.000000,0.000000,,,,,,,,,,,,,,,,,,,,,,,,,,,,,,,,,,,,,,,,,,,,,,,,,,,,,,,,,,,,,,,,,,,,,,,,,,,,,,,,,,,,,,,,,,,,,,,,,,,,,,,,,,,,,,,,,,,,,,,,,,,,,,,,,
1737283821.963729,1737283821.964342,108.000000,0.000000,4330.897461,4352.051270,4265.384766,4319.230957,4357.051270,4361.282227,4366.282227,4556.922852,4553.333496,4560.384766,4490.000000,5632.948730,4298.077148,4255.000000,0.000000,1.000000,33.000000,,,,0.000000,0.000000,0.000000,0.000000,0.000000,0.000000,0.000000,0.000000,0.000000,0.000000,0.000000,0.000000,0.000000,0.000000,0.000000,0.000000,1.000000,0.000000,0.000000,0.000000,0.000000,0.000000,0.000000,0.000000,0.000000,0.000000,0.000000,0.000000,0.000000,0.000000,0.000000,0.000000,27.000000,0.000000,0.659599,-0.749573,0.021301,0.051147,-0.108412,-0.982053,-0.125504,15.484978,-30.769657,16.740543,,,,,,,,,,,,,,,,,,,,,,,,,,,,,,,,0.023326,0.015540,0.048258,0.013967,0.030528,0.016348,0.020904,0.008865,0.015034,0.020898,0.006709,0.019661,0.030269,0.024603,0.030816,0.027824,0.023264,0.009220,0.026954,0.021695,0.012364,0.020888,0.004736,0.020007,0.026366,0.013181,0.024047,0.032116,0.020452,0.030344,0.034085,0.011838,0.017342,0.043777,0.032675,0.020507,0.027538,0.027814,0.013094,0.029963,0.019486,0.011308,0.009239,0.017121,0.027505,0.016585,0.023002,0.037745,0.027368,0.019493,0.014839,0.021032,0.017498,0.028531,0.020900,0.018563,0.011563,0.029234,0.024146,0.024104,0.030771,0.027694,0.028368,0.027031,0.028352,0.063288,0.040342,0.048337,0.039596,0.052075
1737283821.971537,1737283821.972250,109.000000,0.000000,4335.128418,4357.563965,4272.051270,4324.487305,4356.153809,4359.615234,4362.563965,4553.077148,4553.333496,4562.948730,4498.333496,5642.307617,4306.282227,4269.358887,0.000000,1.000000,33.000000,,,,0.000000,0.000000,0.000000,0.000000,0.000000,0.000000,0.000000,0.000000,0.000000,0.000000,0.000000,0.000000,0.000000,0.000000,0.000000,0.000000,,,,,,,,,,,,,,,,,,,,,,,,,,,,,,,,,,,,,,,,,,,,,,,,,,,,,,,,,,,,,,,,,,,,,,,,,,,,,,,,,,,,,,,,,,,,,,,,,,,,,,,,,,,,,,,,,,,,,,,,,,,,,,,,,
1737283821.979345,1737283821.980058,110.000000,0.000000,4329.743652,4351.666504,4265.256348,4319.743652,4353.589844,4359.743652,4369.615234,4553.205078,4553.717773,4563.333496,4495.512695,5627.179688,4302.307617,4256.410156,0.000000,1.000000,33.000000,,,,0.000000,0.000000,0.000000,0.000000,0.000000,0.000000,0.000000,0.000000,0.000000,0.000000,0.000000,0.000000,0.000000,0.000000,0.000000,0.000000,,,,,,,,,,,,,,,,,,,,,,,,,,,,,,,,,,,,,,,,,,,,,,,,,,,,,,,,,,,,,,,,,,,,,,,,,,,,,,,,,,,,,,,,,,,,,,,,,,,,,,,,,,,,,,,,,,,,,,,,,,,,,,,,,
1737283821.987153,1737283821.987966,111.000000,0.000000,4333.846191,4353.333496,4269.230957,4324.102539,4354.230957,4359.871582,4364.615234,4556.410156,4551.794922,4563.461426,4494.743652,5632.692383,4305.769043,4262.307617,0.000000,1.000000,33.000000,,,,0.000000,0.000000,0.000000,0.000000,0.000000,0.000000,0.000000,0.000000,0.000000,0.000000,0.000000,0.000000,0.000000,0.000000,0.000000,0.000000,,,,,,,,,,,,,,,,,,,,,,,,,,,,,,,,,,,,,,,,,,,,,,,,,,,,,,,,,,,,,,,,,,,,,,,,,,,,,,,,,,,,,,,,,,,,,,,,,,,,,,,,,,,,,,,,,,,,,,,,,,,,,,,,,
1737283821.994962,1737283821.995775,112.000000,0.000000,4331.538574,4354.615234,4269.487305,4325.512695,4353.717773,4361.025879,4362.692383,4557.179688,4555.384766,4563.589844,4492.563965,5637.563965,4304.358887,4265.769043,0.000000,1.000000,33.000000,,,,0.000000,0.000000,0.000000,0.000000,0.000000,0.000000,0.000000,0.000000,0.000000,0.000000,0.000000,0.000000,0.000000,0.000000,0.000000,0.000000,,,,,,,,,,,,,,,,,28.000000,0.000000,0.659460,-0.749695,0.021301,0.051147,-0.098645,-0.981077,-0.130387,15.419813,-30.742691,16.699821,,,,,,,,,,,,,,,,,,,,,,,,,,,,,,,,,,,,,,,,,,,,,,,,,,,,,,,,,,,,,,,,,,,,,,,,,,,,,,,,,,,,,,,,,,,,,,,,,,,,,
1737283822.002770,1737283822.003682,113.000000,0.000000,4327.179688,4352.436035,4265.384766,4318.589844,4352.436035,4360.897461,4365.000000,4556.794922,4557.820313,4563.846191,4490.769043,5627.948730,4300.128418,4257.948730,0.000000,1.000000,33.000000,,,,0.000000,0.000000,0.000000,0.000000,0.000000,0.000000,0.000000,0.000000,0.000000,0.000000,0.000000,0.000000,0.000000,0.000000,0.000000,0.000000,,,,,,,,,,,,,,,,,,,,,,,,,,,,,,,,,,,,,,,,,,,,,,,,,,,,,,,,,,,,,,,,,,,,,,,,,,,,,,,,,,,,,,,,,,,,,,,,,,,,,,,,,,,,,,,,,,,,,,,,,,,,,,,,,
1737283822.010578,1737283822.011490,114.000000,0.000000,4336.666504,4354.230957,4273.846191,4323.717773,4355.256348,4358.846191,4357.179688,4553.589844,4552.948730,4564.230957,4499.230957,5636.282227,4309.358887,4268.205078,0.000000,1.000000,33.000000,,,,0.000000,0.000000,0.000000,0.000000,0.000000,0.000000,0.000000,0.000000,0.000000,0.000000,0.000000,0.000000,0.000000,0.000000,0.000000,0.000000,,,,,,,,,,,,,,,,,,,,,,,,,,,,,,,,,,,,,,,,,,,,,,,,,,,,,,,,,,,,,,,,,,,,,,,,,,,,,,,,,,,,,,,,,,,,,,,,,,,,,,,,,,,,,,,,,,,,,,,,,,,,,,,,,
1737283822.018386,1737283822.019198,115.000000,0.000000,4330.897461,4348.333496,4265.384766,4322.692383,4355.000000,4361.922852,4364.615234,4553.717773,4550.641113,4562.307617,4494.487305,5630.128418,4301.282227,4256.025879,0.000000,1.000000,33.000000,,,,0.000000,0.000000,0.000000,0.000000,0.000000,0.000000,0.000000,0.000000,0.000000,0.000000,0.000000,0.000000,0.000000,0.000000,0.000000,0.000000,,,,,,,,,,,,,,,,,,,,,,,,,,,,,,,,,,,,,,,,,,,,,,,,,,,,,,,,,,,,,,,,,,,,,,,,,,,,,,,,,,,,,,,,,,,,,,,,,,,,,,,,,,,,,,,,,,,,,,,,,,,,,,,,,
1737283822.026194,1737283822.027006,116.000000,0.000000,4331.153809,4352.563965,4269.102539,4320.256348,4352.179688,4361.794922,4364.358887,4553.717773,4553.077148,4563.589844,4496.282227,5632.563965,4301.538574,4262.948730,0.000000,1.000000,33.000000,,,,0.000000,0.000000,0.000000,0.000000,0.000000,0.000000,0.000000,0.000000,0.000000,0.000000,0.000000,0.000000,0.000000,0.000000,0.000000,0.000000,,,,,,,,,,,,,,,,,29.000000,0.000000,0.659527,-0.749634,0.021240,0.051208,-0.107923,-0.992309,-0.117202,15.477832,-30.785088,16.613173,,,,,,,,,,,,,,,,,,,,,,,,,,,,,,,,,,,,,,,,,,,,,,,,,,,,,,,,,,,,,,,,,,,,,,,,,,,,,,,,,,,,,,,,,,,,,,,,,,,,,
1737283822.034002,1737283822.034715,117.000000,0.000000,4332.820313,4352.436035,4272.948730,4318.974121,4351.922852,4359.871582,4362.307617,4554.615234,4555.128418,4565.128418,4498.717773,5637.307617,4305.769043,4265.384766,0.000000,1.000000,33.000000,,,,0.000000,0.000000,0.000000,0.000000,0.000000,0.000000,0.000000,0.000000,0.000000,0.000000,0.000000,0.000000,0.000000,0.000000,0.000000,0.000000,,,,,,,,,,,,,,,,,,,,,,,,,,,,,,,,,,,,,,,,,,,,,,,,,,,,,,,,,,,,,,,,,,,,,,,,,,,,,,,,,,,,,,,,,,,,,,,,,,,,,,,,,,,,,,,,,,,,,,,,,,,,,,,,,
1737283822.041810,1737283822.042522,118.000000,0.000000,4329.487305,4345.769043,4260.512695,4316.666504,4355.128418,4361.922852,4367.948730,4556.410156,4555.512695,4563.205078,4490.897461,5630.641113,4300.000000,4249.743652,0.000000,1.000000,33.000000,,,,0.000000,0.000000,0.000000,0.000000,0.000000,0.000000,0.000000,0.000000,0.000000,0.000000,0.000000,0.000000,0.000000,0.000000,0.000000,0.000000,,,,,,,,,,,,,,,,,,,,,,,,,,,,,,,,,,,,,,,,,,,,,,,,,,,,,,,,,,,,,,,,,,,,,,,,,,,,,,,,,,,,,,,,,,,,,,,,,,,,,,,,,,,,,,,,,,,,,,,,,,,,,,,,,
1737283822.049618,1737283822.050231,119.000000,0.000000,4335.769043,4355.897461,4268.077148,4320.897461,4356.538574,4360.897461,4360.384766,4554.102539,4554.358887,4562.820313,4496.922852,5640.384766,4307.692383,4267.820313,0.000000,1.000000,33.000000,,,,0.000000,0.000000,0.000000,0.000000,0.000000,0.000000,0.000000,0.000000,0.000000,0.000000,0.000000,0.000000,0.000000,0.000000,0.000000,0.000000,,,,,,,,,,,,,,,,,,,,,,,,,,,,,,,,,,,,,,,,,,,,,,,,,,,,,,,,,,,,,,,,,,,,,,,,,,,,,,,,,,,,,,,,,,,,,,,,,,,,,,,,,,,,,,,,,,,,,,,,,,,,,,,,,
1737283822.057426,1737283822.058039,120.000000,0.000000,4329.102539,4354.871582,4266.922852,4318.333496,4352.948730,4358.846191,4365.384766,4556.794922,4554.615234,4562.820313,4493.717773,5631.025879,4302.563965,4260.769043,0.000000,1.000000,33.000000,,,,0.000000,0.000000,0.000000,0.000000,0.000000,0.000000,0.000000,0.000000,0.000000,0.000000,0.000000,0.000000,0.000000,0.000000,0.000000,0.000000,,,,,,,,,,,,,,,,,30.000000,0.000000,0.659515,-0.749634,0.021301,0.051331,-0.104017,-0.987914,-0.131852,15.380049,-30.756580,16.585190,,,,,,,,,,,,,,,,,,,,,,,,,,,,,,,,,,,,,,,,,,,,,,,,,,,,,,,,,,,,,,,,,,,,,,,,,,,,,,,,,,,,,,,,,,,,,,,,,,,,,
1737283822.065234,1737283822.065747,121.000000,0.000000,4329.743652,4351.025879,4265.641113,4321.794922,4353.846191,4358.717773,4366.410156,4553.333496,4551.025879,4562.179688,4492.436035,5630.384766,4301.666504,4258.846191,0.000000,1.000000,33.000000,,,,0.000000,0.000000,0.000000,0.000000,0.000000,0.000000,0.000000,0.000000,0.000000,0.000000,0.000000,0.000000,0.000000,0.000000,0.000000,0.000000,,,,,,,,,,,,,,,,,,,,,,,,,,,,,,,,,,,,,,,,,,,,,,,,,,,,,,,,,,,,,,,,,,,,,,,,,,,,,,,,,,,,,,,,,,,,,,,,,,,,,,,,,,,,,,,,,,,,,,,,,,,,,,,,,
1737283822.073043,1737283822.073555,122.000000,0.000000,4334.230957,4353.974121,4268.589844,4325.384766,4355.128418,4361.153809,4362.563965,4548.974121,4547.948730,4561.922852,4499.230957,5640.000000,4306.282227,4268.333496,0.000000,1.000000,33.000000,,,,0.000000,0.000000,0.000000,0.000000,0.000000,0.000000,0.000000,0.000000,0.000000,0.000000,0.000000,0.000000,0.000000,0.000000,0.000000,0.000000,,,,,,,,,,,,,,,,,,,,,,,,,,,,,,,,,,,,,,,,,,,,,,,,,,,,,,,,,,,,,,,,,,,,,,,,,,,,,,,,,,,,,,,,,,,,,,,,,,,,,,,,,,,,,,,,,,,,,,,,,,,,,,,,,
1737283822.080850,1737283822.081263,123.000000,0.000000,4328.077148,4350.641113,4261.410156,4319.615234,4352.948730,4363.205078,4366.538574,4553.589844,4552.820313,4561.282227,4494.230957,5630.256348,4300.769043,4252.692383,0.000000,1.000000,33.000000,,,,0.000000,0.000000,0.000000,0.000000,0.000000,0.000000,0.000000,0.000000,0.000000,0.000000,0.000000,0.000000,0.000000,0.000000,0.000000,0.000000,,,,,,,,,,,,,,,,,,,,,,,,,,,,,,,,,,,,,,,,,,,,,,,,,,,,,,,,,,,,,,,,,,,,,,,,,,,,,,,,,,,,,,,,,,,,,,,,,,,,,,,,,,,,,,,,,,,,,,,,,,,,,,,,,
1737283822.088659,1737283822.089071,124.000000,0.000000,4334.102539,4354.102539,4271.538574,4323.333496,4353.077148,4359.358887,4359.230957,4552.692383,4552.179688,4561.153809,4495.256348,5637.692383,4307.563965,4264.743652,0.000000,1.000000,33.000000,,,,0.000000,0.000000,0.000000,0.000000,0.000000,0.000000,0.000000,0.000000,0.000000,0.000000,0.000000,0.000000,0.000000,0.000000,0.000000,0.000000,,,,,,,,,,,,,,,,,31.000000,0.000000,0.659520,-0.749634,0.021301,0.051270,-0.103528,-0.990844,-0.123062,15.475377,-30.530922,16.626671,,,,,,,,,,,,,,,,,,,,,,,,,,,,,,,,0.020730,0.020056,0.050058,0.012488,0.029372,0.015446,0.022880,0.007360,0.015609,0.019778,0.007407,0.020134,0.031557,0.027199,0.030102,0.025937,0.029428,0.011868,0.033586,0.022116,0.013699,0.025072,0.005635,0.018699,0.027643,0.016006,0.032082,0.024487,0.019690,0.032912,0.034068,0.012968,0.018016,0.046887,0.035900,0.017385,0.030209,0.025947,0.012429,0.030336,0.023187,0.012478,0.009908,0.018593,0.027929,0.013994,0.023976,0.039144,0.025306,0.017725,0.014714,0.025301,0.019820,0.027451,0.021274,0.016282,0.010210,0.034008,0.025154,0.025939,0.030600,0.023978,0.026053,0.028460,0.027162,0.061976,0.038502,0.041176,0.038249,0.043467
1737283822.096467,1737283822.096779,125.000000,0.000000,4331.410156,4352.563965,4269.102539,4321.922852,4352.307617,4360.128418,4366.794922,4553.846191,4549.358887,4561.025879,4495.384766,5633.205078,4302.948730,4262.436035,0.000000,1.000000,33.000000,,,,0.000000,0.000000,0.000000,0.000000,0.000000,0.000000,0.000000,0.000000,0.000000,0.000000,0.000000,0.000000,0.000000,0.000000,0.000000,0.000000,,,,,,,,,,,,,,,,,,,,,,,,,,,,,,,,,,,,,,,,,,,,,,,,,,,,,,,,,,,,,,,,,,,,,,,,,,,,,,,,,,,,,,,,,,,,,,,,,,,,,,,,,,,,,,,,,,,,,,,,,,,,,,,,,
1737283822.104275,1737283822.104587,126.000000,0.000000,4328.077148,4352.436035,4266.282227,4320.769043,4352.307617,4364.102539,4369.871582,4556.410156,4553.717773,4561.538574,4497.051270,5631.410156,4301.282227,4258.077148,0.000000,1.000000,33.000000,,,,0.000000,0.000000,0.000000,0.000000,0.000000,0.000000,0.000000,0.000000,0.000000,0.000000,0.000000,0.000000,0.000000,0.000000,0.000000,0.000000,,,,,,,,,,,,,,,,,,,,,,,,,,,,,,,,,,,,,,,,,,,,,,,,,,,,,,,,,,,,,,,,,,,,,,,,,,,,,,,,,,,,,,,,,,,,,,,,,,,,,,,,,,,,,,,,,,,,,,,,,,,,,,,,,
1737283822.112083,1737283822.112295,127.000000,0.000000,4334.358887,4355.384766,4275.000000,4325.384766,4354.871582,4361.666504,4361.538574,4552.179688,4556.153809,4562.051270,4496.922852,5640.769043,4308.461426,4269.230957,33.000000,1.000000,33.000000,,,,0.000000,0.000000,0.000000,0.000000,0.000000,0.000000,0.000000,0.000000,0.000000,0.000000,0.000000,0.000000,0.000000,0.000000,0.000000,0.000000,,,,,,,,,,,,,,,,,,,,,,,,,,,,,,,,,,,,,,,,,,,,,,,,,,,,,,,,,,,,,,,,,,,,,,,,,,,,,,,,,,,,,,,,,,,,,,,,,,,,,,,,,,,,,,,,,,,,,,,,,,,,,,,,,
1737283822.119891,1737283822.120103,0.000000,0.000000,4329.871582,4348.077148,4266.282227,4320.641113,4356.282227,4359.487305,4367.563965,4553.205078,4553.974121,4563.461426,4488.205078,5626.666504,4299.102539,4254.871582,0.000000,1.000000,33.000000,,,,0.000000,0.000000,0.000000,0.000000,0.000000,0.000000,0.000000,0.000000,0.000000,0.000000,0.000000,0.000000,0.000000,0.000000,0.000000,0.000000,,,,,,,,,,,,,,,,,0.000000,0.000000,0.659515,-0.749634,0.021301,0.051331,-0.106458,-0.972287,-0.128922,15.477839,-30.544497,16.580669,,,,,,,,,,,,,,,,,,,,,,,,,,,,,,,,,,,,,,,,,,,,,,,,,,,,,,,,,,,,,,,,,,,,,,,,,,,,,,,,,,,,,,,,,,,,,,,,,,,,,
1737283822.127699,1737283822.127811,1.000000,0.000000,4331.794922,4351.794922,4269.615234,4323.461426,4356.282227,4358.974121,4363.077148,4555.256348,4551.410156,4565.256348,4496.410156,5633.589844,4303.717773,4264.230957,0.000000,1.000000,33.000000,,,,0.000000,0.000000,0.000000,0.000000,0.000000,0.000000,0.000000,0.000000,0.000000,0.000000,0.000000,0.000000,0.000000,0.000000,0.000000,0.000000,,,,,,,,,,,,,,,,,,,,,,,,,,,,,,,,,,,,,,,,,,,,,,,,,,,,,,,,,,,,,,,,,,,,,,,,,,,,,,,,,,,,,,,,,,,,,,,,,,,,,,,,,,,,,,,,,,,,,,,,,,,,,,,,,
1737283822.135507,1737283822.135619,2.000000,0.000000,4331.282227,4355.128418,4269.102539,4323.333496,4353.717773,4361.666504,4365.128418,4555.128418,4552.820313,4563.333496,4496.025879,5638.205078,4305.769043,4264.487305,0.000000,1.000000,33.000000,,,,0.000000,0.000000,0.000000,0.000000,0.000000,0.000000,0.000000,0.000000,0.000000,0.000000,0.000000,0.000000,0.000000,0.000000,0.000000,0.000000,,,,,,,,,,,,,,,,,,,,,,,,,,,,,,,,,,,,,,,,,,,,,,,,,,,,,,,,,,,,,,,,,,,,,,,,,,,,,,,,,,,,,,,,,,,,,,,,,,,,,,,,,,,,,,,,,,,,,,,,,,,,,,,,,
1737283822.143315,1737283822.143327,3.000000,0.000000,4330.256348,4352.563965,4264.743652,4315.897461,4351.794922,4361.922852,4369.358887,4556.282227,4554.487305,4561.538574,4492.051270,5632.307617,4302.051270,4256.538574,0.000000,1.000000,33.000000,,,,0.000000,0.000000,0.000000,0.000000,0.000000,0.000000,0.000000,0.000000,0.000000,0.000000,0.000000,0.000000,0.000000,0.000000,0.000000,0.000000,,,,,,,,,,,,,,,,,,,,,,,,,,,,,,,,,,,,,,,,,,,,,,,,,,,,,,,,,,,,,,,,,,,,,,,,,,,,,,,,,,,,,,,,,,,,,,,,,,,,,,,,,,,,,,,,,,,,,,,,,,,,,,,,,
1737283822.151123,1737283822.151235,4.000000,0.000000,4334.487305,4354.871582,4272.563965,4317.436035,4353.461426,4356.025879,4362.307617,4555.769043,4552.436035,4563.461426,4500.769043,5639.871582,4306.410156,4267.179688,0.000000,1.000000,33.000000,,,,0.000000,0.000000,0.000000,0.000000,0.000000,0.000000,0.000000,0.000000,0.000000,0.000000,0.000000,0.000000,0.000000,0.000000,0.000000,0.000000,,,,,,,,,,,,,,,,,1.000000,0.000000,0.659591,-0.749573,0.021240,0.051270,-0.099622,-0.989867,-0.122574,15.480056,-30.340046,16.455936,,,,,,,,,,,,,,,,,,,,,,,,,,,,,,,,,,,,,,,,,,,,,,,,,,,,,,,,,,,,,,,,,,,,,,,,,,,,,,,,,,,,,,,,,,,,,,,,,,,,,
1737283822.158931,1737283822.159043,5.000000,0.000000,4328.205078,4350.769043,4266.153809,4318.333496,4353.461426,4358.461426,4368.974121,4555.897461,4553.461426,4562.051270,4494.358887,5632.563965,4300.769043,4254.487305,0.000000,1.000000,33.000000,,,,0.000000,0.000000,0.000000,0.000000,0.000000,0.000000,0.000000,0.000000,0.000000,0.000000,0.000000,0.000000,0.000000,0.000000,0.000000,0.000000,,,,,,,,,,,,,,,,,,,,,,,,,,,,,,,,,,,,,,,,,,,,,,,,,,,,,,,,,,,,,,,,,,,,,,,,,,,,,,,,,,,,,,,,,,,,,,,,,,,,,,,,,,,,,,,,,,,,,,,,,,,,,,,,,
1737283822.166740,1737283822.166951,6.000000,0.000000,4333.974121,4352.692383,4270.384766,4323.205078,4352.820313,4362.436035,4365.897461,4555.128418,4554.871582,4559.230957,4495.384766,5637.307617,4309.230957,4263.846191,0.000000,1.000000,33.000000,,,,0.000000,0.000000,0.000000,0.000000,0.000000,0.000000,0.000000,0.000000,0.000000,0.000000,0.000000,0.000000,0.000000,0.000000,0.000000,0.000000,,,,,,,,,,,,,,,,,,,,,,,,,,,,,,,,,,,,,,,,,,,,,,,,,,,,,,,,,,,,,,,,,,,,,,,,,,,,,,,,,,,,,,,,,,,,,,,,,,,,,,,,,,,,,,,,,,,,,,,,,,,,,,,,,
1737283822.174548,1737283822.174759,7.000000,0.000000,4336.025879,4353.077148,4269.871582,4319.743652,4353.077148,4360.641113,4363.589844,4554.743652,4553.717773,4559.615234,4499.102539,5636.666504,4309.871582,4266.025879,0.000000,1.000000,33.000000,,,,0.000000,0.000000,0.000000,0.000000,0.000000,0.000000,0.000000,0.000000,0.000000,0.000000,0.000000,0.000000,0.000000,0.000000,0.000000,0.000000,,,,,,,,,,,,,,,,,,,,,,,,,,,,,,,,,,,,,,,,,,,,,,,,,,,,,,,,,,,,,,,,,,,,,,,,,,,,,,,,,,,,,,,,,,,,,,,,,,,,,,,,,,,,,,,,,,,,,,,,,,,,,,,,,
1737283822.182356,1737283822.182667,8.000000,0.000000,4331.538574,4350.512695,4263.077148,4314.487305,4355.256348,4358.846191,4369.487305,4554.615234,4553.589844,4559.871582,4493.974121,5628.717773,4296.794922,4252.436035,0.000000,1.000000,33.000000,,,,0.000000,0.000000,0.000000,0.000000,0.000000,0.000000,0.000000,0.000000,0.000000,0.000000,0.000000,0.000000,0.000000,0.000000,0.000000,0.000000,,,,,,,,,,,,,,,,,2.000000,0.000000,0.659596,-0.749573,0.021240,0.051208,-0.106947,-0.978635,-0.125015,15.398717,-30.289375,16.560343,,,,,,,,,,,,,,,,,,,,,,,,,,,,,,,,,,,,,,,,,,,,,,,,,,,,,,,,,,,,,,,,,,,,,,,,,,,,,,,,,,,,,,,,,,,,,,,,,,,,,
1737283822.190164,1737283822.190475,9.000000,0.000000,4339.102539,4356.410156,4273.974121,4324.358887,4357.436035,4360.512695,4364.102539,4552.436035,4553.333496,4560.384766,4500.128418,5641.666504,4305.512695,4269.230957,0.000000,1.000000,33.000000,,,,0.000000,0.000000,0.000000,0.000000,0.000000,0.000000,0.000000,0.000000,0.000000,0.000000,0.000000,0.000000,0.000000,0.000000,0.000000,0.000000,,,,,,,,,,,,,,,,,,,,,,,,,,,,,,,,,,,,,,,,,,,,,,,,,,,,,,,,,,,,,,,,,,,,,,,,,,,,,,,,,,,,,,,,,,,,,,,,,,,,,,,,,,,,,,,,,,,,,,,,,,,,,,,,,
1737283822.197972,1737283822.198383,10.000000,0.000000,4334.102539,4351.410156,4267.436035,4321.922852,4354.230957,4364.615234,4368.717773,4557.307617,4553.333496,4559.487305,4496.410156,5630.512695,4303.589844,4260.000000,0.000000,1.000000,33.000000,,,,0.000000,0.000000,0.000000,0.000000,0.000000,0.000000,0.000000,0.000000,0.000000,0.000000,0.000000,0.000000,0.000000,0.000000,0.000000,0.000000,,,,,,,,,,,,,,,,,,,,,,,,,,,,,,,,,,,,,,,,,,,,,,,,,,,,,,,,,,,,,,,,,,,,,,,,,,,,,,,,,,,,,,,,,,,,,,,,,,,,,,,,,,,,,,,,,,,,,,,,,,,,,,,,,
1737283822.205780,1737283822.206191,11.000000,0.000000,4333.974121,4351.794922,4269.615234,4320.256348,4352.179688,4362.051270,4366.538574,4556.410156,4552.563965,4560.641113,4494.487305,5627.563965,4302.436035,4260.128418,0.000000,1.000000,33.000000,,,,0.000000,0.000000,0.000000,0.000000,0.000000,0.000000,0.000000,0.000000,0.000000,0.000000,0.000000,0.000000,0.000000,0.000000,0.000000,0.000000,,,,,,,,,,,,,,,,,,,,,,,,,,,,,,,,,,,,,,,,,,,,,,,,,,,,,,,,,,,,,,,,,,,,,,,,,,,,,,,,,,,,,,,,,,,,,,,,,,,,,,,,,,,,,,,,,,,,,,,,,,,,,,,,,
1737283822.213588,1737283822.214099,12.000000,0.000000,4336.410156,4353.717773,4275.512695,4323.333496,4354.743652,4360.128418,4362.563965,4552.692383,4552.948730,4563.333496,4498.461426,5637.051270,4306.153809,4267.948730,0.000000,1.000000,33.000000,,,,0.000000,0.000000,0.000000,0.000000,0.000000,0.000000,0.000000,0.000000,0.000000,0.000000,0.000000,0.000000,0.000000,0.000000,0.000000,0.000000,,,,,,,,,,,,,,,,,3.000000,0.000000,0.659527,-0.749634,0.021240,0.051208,-0.103528,-0.982542,-0.133805,15.475512,-30.393770,16.754309,,,,,,,,,,,,,,,,,,,,,,,,,,,,,,,,0.019241,0.028825,0.049193,0.011251,0.027259,0.014965,0.025382,0.007290,0.016330,0.020185,0.009908,0.023204,0.031952,0.030799,0.029558,0.022147,0.033573,0.014570,0.039437,0.022649,0.015182,0.028891,0.007247,0.016873,0.028346,0.019464,0.038701,0.017210,0.018426,0.033777,0.031650,0.015510,0.017594,0.046828,0.039229,0.013813,0.032157,0.023757,0.012463,0.031778,0.025512,0.014936,0.012368,0.018874,0.027158,0.014136,0.023045,0.037632,0.022606,0.017236,0.015649,0.029628,0.024167,0.028423,0.021523,0.017424,0.010697,0.036873,0.025056,0.028077,0.033516,0.021765,0.024652,0.029716,0.026320,0.059617,0.038170,0.039710,0.038881,0.035268
1737283822.221396,1737283822.221907,13.000000,0.000000,4328.717773,4346.794922,4263.333496,4320.641113,4356.153809,4361.410156,4369.615234,4557.563965,4553.333496,4563.974121,4493.461426,5630.897461,4300.641113,4254.871582,0.000000,1.000000,33.000000,,,,0.000000,0.000000,0.000000,0.000000,0.000000,0.000000,0.000000,0.000000,0.000000,0.000000,0.000000,0.000000,0.000000,0.000000,0.000000,0.000000,,,,,,,,,,,,,,,,,,,,,,,,,,,,,,,,,,,,,,,,,,,,,,,,,,,,,,,,,,,,,,,,,,,,,,,,,,,,,,,,,,,,,,,,,,,,,,,,,,,,,,,,,,,,,,,,,,,,,,,,,,,,,,,,,
1737283822.229204,1737283822.229815,14.000000,0.000000,4333.846191,4353.974121,4269.743652,4323.717773,4355.256348,4360.897461,4364.743652,4556.410156,4552.179688,4565.256348,4496.538574,5639.358887,4306.282227,4270.000000,0.000000,1.000000,33.000000,,,,0.000000,0.000000,0.000000,0.000000,0.000000,0.000000,0.000000,0.000000,0.000000,0.000000,0.000000,0.000000,0.000000,0.000000,0.000000,0.000000,,,,,,,,,,,,,,,,,,,,,,,,,,,,,,,,,,,,,,,,,,,,,,,,,,,,,,,,,,,,,,,,,,,,,,,,,,,,,,,,,,,,,,,,,,,,,,,,,,,,,,,,,,,,,,,,,,,,,,,,,,,,,,,,,
1737283822.237012,1737283822.237623,15.000000,0.000000,4331.538574,4352.692383,4269.487305,4320.641113,4355.000000,4362.692383,4369.487305,4554.871582,4555.256348,4564.615234,4493.589844,5631.538574,4301.922852,4262.179688,0.000000,1.000000,33.000000,,,,0.000000,0.000000,0.000000,0.000000,0.000000,0.000000,0.000000,0.000000,0.000000,0.000000,0.000000,0.000000,0.000000,0.000000,0.000000,0.000000,,,,,,,,,,,,,,,,,,,,,,,,,,,,,,,,,,,,,,,,,,,,,,,,,,,,,,,,,,,,,,,,,,,,,,,,,,,,,,,,,,,,,,,,,,,,,,,,,,,,,,,,,,,,,,,,,,,,,,,,,,,,,,,,,
1737283822.244820,1737283822.245331,16.000000,0.000000,4328.846191,4349.102539,4266.410156,4321.538574,4355.000000,4362.436035,4368.077148,4555.256348,4557.051270,4564.230957,4495.384766,5628.974121,4302.307617,4257.692383,0.000000,1.000000,33.000000,,,,0.000000,0.000000,0.000000,0.000000,0.000000,0.000000,0.000000,0.000000,0.000000,0.000000,0.000000,0.000000,0.000000,0.000000,0.000000,0.000000,,,,,,,,,,,,,,,,,4.000000,0.000000,0.659536,-0.749634,0.021118,0.051147,-0.094250,-0.980588,-0.121109,15.561294,-30.521061,16.862211,,,,,,,,,,,,,,,,,,,,,,,,,,,,,,,,,,,,,,,,,,,,,,,,,,,,,,,,,,,,,,,,,,,,,,,,,,,,,,,,,,,,,,,,,,,,,,,,,,,,,
1737283822.252628,1737283822.253139,17.000000,0.000000,4332.307617,4354.487305,4271.153809,4324.487305,4352.563965,4361.410156,4359.230957,4553.589844,4553.717773,4563.333496,4500.512695,5639.102539,4310.641113,4270.256348,0.000000,1.000000,33.000000,,,,0.000000,0.000000,0.000000,0.000000,0.000000,0.000000,0.000000,0.000000,0.000000,0.000000,0.000000,0.000000,0.000000,0.000000,0.000000,0.000000,,,,,,,,,,,,,,,,,,,,,,,,,,,,,,,,,,,,,,,,,,,,,,,,,,,,,,,,,,,,,,,,,,,,,,,,,,,,,,,,,,,,,,,,,,,,,,,,,,,,,,,,,,,,,,,,,,,,,,,,,,,,,,,,,
1737283822.260437,1737283822.260847,18.000000,0.000000,4327.948730,4352.179688,4265.000000,4317.820313,4352.179688,4362.179688,4368.589844,4555.000000,4552.179688,4560.641113,4491.922852,5627.307617,4303.974121,4254.615234,0.000000,1.000000,33.000000,,,,0.000000,0.000000,0.000000,0.000000,0.000000,0.000000,0.000000,0.000000,0.000000,0.000000,0.000000,0.000000,0.000000,0.000000,0.000000,0.000000,,,,,,,,,,,,,,,,,,,,,,,,,,,,,,,,,,,,,,,,,,,,,,,,,,,,,,,,,,,,,,,,,,,,,,,,,,,,,,,,,,,,,,,,,,,,,,,,,,,,,,,,,,,,,,,,,,,,,,,,,,,,,,,,,
1737283822.268245,1737283822.268755,19.000000,0.000000,4334.487305,4354.102539,4270.897461,4322.692383,4355.512695,4359.358887,4366.153809,4553.333496,4551.153809,4561.538574,4497.436035,5635.897461,4310.128418,4265.769043,0.000000,1.000000,33.000000,,,,0.000000,0.000000,0.000000,0.000000,0.000000,0.000000,0.000000,0.000000,0.000000,0.000000,0.000000,0.000000,0.000000,0.000000,0.000000,0.000000,,,,,,,,,,,,,,,,,,,,,,,,,,,,,,,,,,,,,,,,,,,,,,,,,,,,,,,,,,,,,,,,,,,,,,,,,,,,,,,,,,,,,,,,,,,,,,,,,,,,,,,,,,,,,,,,,,,,,,,,,,,,,,,,,
1737283822.276053,1737283822.276563,20.000000,0.000000,4331.922852,4351.538574,4266.410156,4322.307617,4355.641113,4360.128418,4366.538574,4554.615234,4551.538574,4563.717773,4498.333496,5636.666504,4308.589844,4265.641113,0.000000,1.000000,33.000000,,,,0.000000,0.000000,0.000000,0.000000,0.000000,0.000000,0.000000,0.000000,0.000000,0.000000,0.000000,0.000000,0.000000,0.000000,0.000000,0.000000,,,,,,,,,,,,,,,,,5.000000,0.000000,0.659537,-0.749634,0.021057,0.051147,-0.101087,-0.977658,-0.121597,15.655165,-30.435621,16.942657,,,,,,,,,,,,,,,,,,,,,,,,,,,,,,,,,,,,,,,,,,,,,,,,,,,,,,,,,,,,,,,,,,,,,,,,,,,,,,,,,,,,,,,,,,,,,,,,,,,,,
1737283822.283861,1737283822.284471,21.000000,0.000000,4327.820313,4349.743652,4262.436035,4316.410156,4354.487305,4362.051270,4368.461426,4555.384766,4553.589844,4564.358887,4493.974121,5629.615234,4303.589844,4258.333496,0.000000,1.000000,33.000000,,,,0.000000,0.000000,0.000000,0.000000,0.000000,0.000000,0.000000,0.000000,0.000000,0.000000,0.000000,0.000000,0.000000,0.000000,0.000000,0.000000,,,,,,,,,,,,,,,,,,,,,,,,,,,,,,,,,,,,,,,,,,,,,,,,,,,,,,,,,,,,,,,,,,,,,,,,,,,,,,,,,,,,,,,,,,,,,,,,,,,,,,,,,,,,,,,,,,,,,,,,,,,,,,,,,
1737283822.291669,1737283822.292280,22.000000,0.000000,4335.256348,4352.948730,4272.563965,4322.051270,4355.512695,4359.743652,4360.512695,4553.846191,4553.589844,4563.461426,4496.922852,5639.230957,4311.538574,4270.641113,0.000000,1.000000,33.000000,,,,0.000000,0.000000,0.000000,0.000000,0.000000,0.000000,0.000000,0.000000,0.000000,0.000000,0.000000,0.000000,0.000000,0.000000,0.000000,0.000000,,,,,,,,,,,,,,,,,,,,,,,,,,,,,,,,,,,,,,,,,,,,,,,,,,,,,,,,,,,,,,,,,,,,,,,,,,,,,,,,,,,,,,,,,,,,,,,,,,,,,,,,,,,,,,,,,,,,,,,,,,,,,,,,,
1737283822.299477,1737283822.300188,23.000000,0.000000,4328.974121,4347.563965,4265.256348,4320.769043,4354.743652,4360.384766,4368.717773,4556.922852,4552.948730,4563.077148,4491.666504,5629.871582,4303.717773,4255.897461,0.000000,1.000000,33.000000,,,,0.000000,0.000000,0.000000,0.000000,0.000000,0.000000,0.000000,0.000000,0.000000,0.000000,0.000000,0.000000,0.000000,0.000000,0.000000,0.000000,,,,,,,,,,,,,,,,,,,,,,,,,,,,,,,,,,,,,,,,,,,,,,,,,,,,,,,,,,,,,,,,,,,,,,,,,,,,,,,,,,,,,,,,,,,,,,,,,,,,,,,,,,,,,,,,,,,,,,,,,,,,,,,,,
1737283822.307285,1737283822.307996,24.000000,0.000000,4333.205078,4351.666504,4270.769043,4322.179688,4356.153809,4361.410156,4365.897461,4554.743652,4552.563965,4565.128418,4498.077148,5635.512695,4305.769043,4262.820313,0.000000,1.000000,33.000000,,,,0.000000,0.000000,0.000000,0.000000,0.000000,0.000000,0.000000,0.000000,0.000000,0.000000,0.000000,0.000000,0.000000,0.000000,0.000000,0.000000,,,,,,,,,,,,,,,,,6.000000,0.000000,0.659468,-0.749695,0.021057,0.051147,-0.105970,-0.975705,-0.119644,15.722981,-30.592058,16.781725,,,,,,,,,,,,,,,,,,,,,,,,,,,,,,,,,,,,,,,,,,,,,,,,,,,,,,,,,,,,,,,,,,,,,,,,,,,,,,,,,,,,,,,,,,,,,,,,,,,,,
1737283822.315093,1737283822.315904,25.000000,0.000000,4334.615234,4352.051270,4274.487305,4322.692383,4355.128418,4361.410156,4362.563965,4555.384766,4552.692383,4565.000000,4498.846191,5637.820313,4305.128418,4265.769043,0.000000,1.000000,33.000000,,,,0.000000,0.000000,0.000000,0.000000,0.000000,0.000000,0.000000,0.000000,0.000000,0.000000,0.000000,0.000000,0.000000,0.000000,0.000000,0.000000,,,,,,,,,,,,,,,,,,,,,,,,,,,,,,,,,,,,,,,,,,,,,,,,,,,,,,,,,,,,,,,,,,,,,,,,,,,,,,,,,,,,,,,,,,,,,,,,,,,,,,,,,,,,,,,,,,,,,,,,,,,,,,,,,
1737283822.322901,1737283822.323712,26.000000,0.000000,4328.461426,4347.436035,4267.948730,4321.410156,4352.436035,4360.641113,4367.051270,4556.922852,4551.666504,4562.563965,4493.333496,5630.641113,4299.230957,4260.256348,0.000000,1.000000,33.000000,,,,0.000000,0.000000,0.000000,0.000000,0.000000,0.000000,0.000000,0.000000,0.000000,0.000000,0.000000,0.000000,0.000000,0.000000,0.000000,0.000000,,,,,,,,,,,,,,,,,,,,,,,,,,,,,,,,,,,,,,,,,,,,,,,,,,,,,,,,,,,,,,,,,,,,,,,,,,,,,,,,,,,,,,,,,,,,,,,,,,,,,,,,,,,,,,,,,,,,,,,,,,,,,,,,,
1737283822.330709,1737283822.331620,27.000000,0.000000,4333.846191,4351.922852,4273.077148,4325.769043,4353.333496,4358.589844,4362.820313,4551.538574,4552.051270,4561.025879,4500.384766,5640.769043,4309.230957,4275.000000,0.000000,1.000000,33.000000,,,,0.000000,0.000000,0.000000,0.000000,0.000000,0.000000,0.000000,0.000000,0.000000,0.000000,0.000000,0.000000,0.000000,0.000000,0.000000,0.000000,,,,,,,,,,,,,,,,,,,,,,,,,,,,,,,,,,,,,,,,,,,,,,,,,,,,,,,,,,,,,,,,,,,,,,,,,,,,,,,,,,,,,,,,,,,,,,,,,,,,,,,,,,,,,,,,,,,,,,,,,,,,,,,,,
1737283822.338518,1737283822.339428,28.000000,0.000000,4328.846191,4348.717773,4263.333496,4318.589844,4351.282227,4360.769043,4368.461426,4555.000000,4555.641113,4559.615234,4495.384766,5631.025879,4302.179688,4256.538574,0.000000,1.000000,33.000000,,,,0.000000,0.000000,0.000000,0.000000,0.000000,0.000000,0.000000,0.000000,0.000000,0.000000,0.000000,0.000000,0.000000,0.000000,0.000000,0.000000,,,,,,,,,,,,,,,,,7.000000,0.000000,0.659397,-0.749756,0.021118,0.051147,-0.104993,-0.986449,-0.129899,15.517350,-30.632853,16.736885,,,,,,,,,,,,,,,,,,,,,,,,,,,,,,,,0.018626,0.040667,0.046572,0.010285,0.024827,0.014640,0.028457,0.008958,0.017115,0.022027,0.013605,0.028608,0.032023,0.034694,0.029240,0.017585,0.035016,0.016490,0.042535,0.023350,0.016032,0.031456,0.009120,0.014872,0.028348,0.023118,0.041527,0.011946,0.016668,0.032798,0.028300,0.019097,0.016440,0.043812,0.041725,0.010645,0.032355,0.021733,0.012954,0.033927,0.025977,0.018711,0.017202,0.018017,0.025858,0.017760,0.021351,0.033530,0.020147,0.017676,0.017754,0.032929,0.028910,0.030938,0.022159,0.021251,0.013588,0.037105,0.024030,0.030303,0.037546,0.020417,0.023706,0.030538,0.026053,0.057532,0.038591,0.045110,0.040411,0.029318
1737283822.346326,1737283822.347237,29.000000,0.000000,4333.205078,4350.769043,4266.282227,4320.000000,4352.051270,4361.538574,4365.512695,4557.692383,4555.000000,4563.205078,4496.282227,5633.333496,4303.589844,4258.846191,0.000000,1.000000,33.000000,,,,0.000000,0.000000,0.000000,0.000000,0.000000,0.000000,0.000000,0.000000,0.000000,0.000000,0.000000,0.000000,0.000000,0.000000,0.000000,0.000000,,,,,,,,,,,,,,,,,,,,,,,,,,,,,,,,,,,,,,,,,,,,,,,,,,,,,,,,,,,,,,,,,,,,,,,,,,,,,,,,,,,,,,,,,,,,,,,,,,,,,,,,,,,,,,,,,,,,,,,,,,,,,,,,,
1737283822.354134,1737283822.354945,30.000000,0.000000,4336.794922,4350.897461,4273.205078,4322.692383,4355.769043,4360.000000,4364.487305,4554.871582,4550.256348,4563.589844,4499.743652,5639.230957,4307.563965,4270.641113,0.000000,1.000000,33.000000,,,,0.000000,0.000000,0.000000,0.000000,0.000000,0.000000,0.000000,0.000000,0.000000,0.000000,0.000000,0.000000,0.000000,0.000000,0.000000,0.000000,,,,,,,,,,,,,,,,,,,,,,,,,,,,,,,,,,,,,,,,,,,,,,,,,,,,,,,,,,,,,,,,,,,,,,,,,,,,,,,,,,,,,,,,,,,,,,,,,,,,,,,,,,,,,,,,,,,,,,,,,,,,,,,,,
1737283822.361942,1737283822.362853,31.000000,0.000000,4329.230957,4344.871582,4266.922852,4317.692383,4353.205078,4359.871582,4370.128418,4554.615234,4549.743652,4560.128418,4493.846191,5631.410156,4299.615234,4259.871582,0.000000,1.000000,33.000000,,,,0.000000,0.000000,0.000000,0.000000,0.000000,0.000000,0.000000,0.000000,0.000000,0.000000,0.000000,0.000000,0.000000,0.000000,0.000000,0.000000,,,,,,,,,,,,,,,,,,,,,,,,,,,,,,,,,,,,,,,,,,,,,,,,,,,,,,,,,,,,,,,,,,,,,,,,,,,,,,,,,,,,,,,,,,,,,,,,,,,,,,,,,,,,,,,,,,,,,,,,,,,,,,,,,
1737283822.369750,1737283822.370661,32.000000,0.000000,4336.153809,4352.563965,4275.512695,4324.102539,4350.769043,4360.256348,4360.897461,4551.922852,4552.436035,4561.282227,4497.820313,5641.410156,4307.051270,4270.128418,0.000000,1.000000,33.000000,,,,0.000000,0.000000,0.000000,0.000000,0.000000,0.000000,0.000000,0.000000,0.000000,0.000000,0.000000,0.000000,0.000000,0.000000,0.000000,0.000000,,,,,,,,,,,,,,,,,8.000000,0.000000,0.659327,-0.749817,0.021118,0.051147,-0.085460,-0.987914,-0.128922,15.248948,-30.619568,16.579863,,,,,,,,,,,,,,,,,,,,,,,,,,,,,,,,,,,,,,,,,,,,,,,,,,,,,,,,,,,,,,,,,,,,,,,,,,,,,,,,,,,,,,,,,,,,,,,,,,,,,
1737283822.377558,1737283822.378568,33.000000,0.000000,4332.179688,4351.153809,4267.948730,4321.410156,4354.743652,4361.922852,4365.384766,4554.230957,4554.230957,4561.794922,4493.974121,5631.794922,4303.974121,4257.948730,0.000000,1.000000,33.000000,,,,0.000000,0.000000,0.000000,0.000000,0.000000,0.000000,0.000000,0.000000,0.000000,0.000000,0.000000,0.000000,0.000000,0.000000,0.000000,0.000000,,,,,,,,,,,,,,,,,,,,,,,,,,,,,,,,,,,,,,,,,,,,,,,,,,,,,,,,,,,,,,,,,,,,,,,,,,,,,,,,,,,,,,,,,,,,,,,,,,,,,,,,,,,,,,,,,,,,,,,,,,,,,,,,,
1737283822.385366,1737283822.386376,34.000000,0.000000,4327.820313,4348.589844,4265.128418,4318.846191,4357.563965,4359.871582,4367.179688,4556.025879,4552.051270,4560.256348,4494.871582,5628.717773,4304.615234,4258.974121,0.000000,1.000000,33.000000,,,,0.000000,0.000000,0.000000,0.000000,0.000000,0.000000,0.000000,0.000000,0.000000,0.000000,0.000000,0.000000,0.000000,0.000000,0.000000,0.000000,,,,,,,,,,,,,,,,,,,,,,,,,,,,,,,,,,,,,,,,,,,,,,,,,,,,,,,,,,,,,,,,,,,,,,,,,,,,,,,,,,,,,,,,,,,,,,,,,,,,,,,,,,,,,,,,,,,,,,,,,,,,,,,,,
1737283822.393174,1737283822.394284,35.000000,0.000000,4332.051270,4350.641113,4271.666504,4321.666504,4353.205078,4357.563965,4364.615234,4553.846191,4550.256348,4562.436035,4497.948730,5639.615234,4306.794922,4270.897461,0.000000,1.000000,33.000000,,,,0.000000,0.000000,0.000000,0.000000,0.000000,0.000000,0.000000,0.000000,0.000000,0.000000,0.000000,0.000000,0.000000,0.000000,0.000000,0.000000,,,,,,,,,,,,,,,,,,,,,,,,,,,,,,,,,,,,,,,,,,,,,,,,,,,,,,,,,,,,,,,,,,,,,,,,,,,,,,,,,,,,,,,,,,,,,,,,,,,,,,,,,,,,,,,,,,,,,,,,,,,,,,,,,
1737283822.400982,1737283822.402092,36.000000,0.000000,4331.538574,4347.692383,4262.563965,4318.333496,4350.256348,4359.230957,4369.871582,4555.256348,4553.333496,4565.256348,4490.384766,5627.692383,4298.205078,4254.230957,0.000000,1.000000,33.000000,,,,0.000000,0.000000,0.000000,0.000000,0.000000,0.000000,0.000000,0.000000,0.000000,0.000000,0.000000,0.000000,0.000000,0.000000,0.000000,0.000000,,,,,,,,,,,,,,,,,9.000000,0.000000,0.659265,-0.749878,0.021057,0.051086,-0.097180,-0.990844,-0.126969,15.174053,-30.740944,16.688543,,,,,,,,,,,,,,,,,,,,,,,,,,,,,,,,,,,,,,,,,,,,,,,,,,,,,,,,,,,,,,,,,,,,,,,,,,,,,,,,,,,,,,,,,,,,,,,,,,,,,
1737283822.408790,1737283822.409800,37.000000,0.000000,4336.794922,4353.077148,4271.410156,4322.179688,4353.205078,4359.615234,4362.051270,4553.974121,4552.948730,4563.461426,4497.051270,5633.589844,4308.333496,4267.179688,0.000000,1.000000,33.000000,,,,0.000000,0.000000,0.000000,0.000000,0.000000,0.000000,0.000000,0.000000,0.000000,0.000000,0.000000,0.000000,0.000000,0.000000,0.000000,0.000000,,,,,,,,,,,,,,,,,,,,,,,,,,,,,,,,,,,,,,,,,,,,,,,,,,,,,,,,,,,,,,,,,,,,,,,,,,,,,,,,,,,,,,,,,,,,,,,,,,,,,,,,,,,,,,,,,,,,,,,,,,,,,,,,,
1737283822.416598,1737283822.417708,38.000000,0.000000,4329.487305,4350.897461,4269.615234,4320.897461,4353.974121,4361.922852,4367.436035,4555.000000,4550.641113,4562.563965,4493.846191,5634.871582,4307.307617,4262.307617,0.000000,1.000000,33.000000,,,,0.000000,0.000000,0.000000,0.000000,0.000000,0.000000,0.000000,0.000000,0.000000,0.000000,0.000000,0.000000,0.000000,0.000000,0.000000,0.000000,,,,,,,,,,,,,,,,,,,,,,,,,,,,,,,,,,,,,,,,,,,,,,,,,,,,,,,,,,,,,,,,,,,,,,,,,,,,,,,,,,,,,,,,,,,,,,,,,,,,,,,,,,,,,,,,,,,,,,,,,,,,,,,,,
1737283822.424406,1737283822.425517,39.000000,0.000000,4327.692383,4349.871582,4265.256348,4319.102539,4352.692383,4361.282227,4368.974121,4555.384766,4549.743652,4563.205078,4488.717773,5633.333496,4302.948730,4255.256348,0.000000,1.000000,33.000000,,,,0.000000,0.000000,0.000000,0.000000,0.000000,0.000000,0.000000,0.000000,0.000000,0.000000,0.000000,0.000000,0.000000,0.000000,0.000000,0.000000,,,,,,,,,,,,,,,,,,,,,,,,,,,,,,,,,,,,,,,,,,,,,,,,,,,,,,,,,,,,,,,,,,,,,,,,,,,,,,,,,,,,,,,,,,,,,,,,,,,,,,,,,,,,,,,,,,,,,,,,,,,,,,,,,
1737283822.432215,1737283822.433325,40.000000,0.000000,4336.538574,4354.230957,4273.717773,4322.436035,4354.102539,4357.436035,4360.000000,4551.538574,4548.974121,4562.051270,4495.641113,5640.000000,4308.589844,4269.615234,0.000000,1.000000,33.000000,,,,0.000000,0.000000,0.000000,0.000000,0.000000,0.000000,0.000000,0.000000,0.000000,0.000000,0.000000,0.000000,0.000000,0.000000,0.000000,0.000000,,,,,,,,,,,,,,,,,10.000000,0.000000,0.659269,-0.749878,0.021057,0.051025,-0.102552,-0.976682,-0.125015,15.139981,-30.716850,16.653023,,,,,,,,,,,,,,,,,,,,,,,,,,,,,,,,,,,,,,,,,,,,,,,,,,,,,,,,,,,,,,,,,,,,,,,,,,,,,,,,,,,,,,,,,,,,,,,,,,,,,
1737283822.440023,1737283822.441033,41.000000,0.000000,4329.230957,4349.871582,4265.641113,4318.717773,4355.384766,4359.743652,4369.230957,4554.230957,4552.948730,4561.922852,4490.000000,5628.461426,4301.282227,4254.230957,0.000000,1.000000,33.000000,,,,0.000000,0.000000,0.000000,0.000000,0.000000,0.000000,0.000000,0.000000,0.000000,0.000000,0.000000,0.000000,0.000000,0.000000,0.000000,0.000000,,,,,,,,,,,,,,,,,,,,,,,,,,,,,,,,,,,,,,,,,,,,,,,,,,,,,,,,,,,,,,,,,,,,,,,,,,,,,,,,,,,,,,,,,,,,,,,,,,,,,,,,,,,,,,,,,,,,,,,,,,,,,,,,,
1737283822.447831,1737283822.448841,42.000000,0.000000,4331.153809,4353.333496,4272.179688,4322.307617,4355.128418,4362.820313,4364.358887,4555.897461,4554.358887,4564.230957,4494.230957,5638.846191,4305.000000,4262.436035,0.000000,1.000000,33.000000,,,,0.000000,0.000000,0.000000,0.000000,0.000000,0.000000,0.000000,0.000000,0.000000,0.000000,0.000000,0.000000,0.000000,0.000000,0.000000,0.000000,,,,,,,,,,,,,,,,,,,,,,,,,,,,,,,,,,,,,,,,,,,,,,,,,,,,,,,,,,,,,,,,,,,,,,,,,,,,,,,,,,,,,,,,,,,,,,,,,,,,,,,,,,,,,,,,,,,,,,,,,,,,,,,,,
1737283822.455639,1737283822.456549,43.000000,0.000000,4333.077148,4351.538574,4272.051270,4321.538574,4353.974121,4362.820313,4361.282227,4556.282227,4549.615234,4563.205078,4498.205078,5641.153809,4305.000000,4262.563965,0.000000,1.000000,33.000000,,,,0.000000,0.000000,0.000000,0.000000,0.000000,0.000000,0.000000,0.000000,0.000000,0.000000,0.000000,0.000000,0.000000,0.000000,0.000000,0.000000,,,,,,,,,,,,,,,,,,,,,,,,,,,,,,,,,,,,,,,,,,,,,,,,,,,,,,,,,,,,,,,,,,,,,,,,,,,,,,,,,,,,,,,,,,,,,,,,,,,,,,,,,,,,,,,,,,,,,,,,,,,,,,,,,
1737283822.463447,1737283822.464357,44.000000,0.000000,4331.025879,4349.102539,4264.102539,4317.051270,4354.615234,4361.153809,4366.282227,4557.307617,4548.589844,4562.307617,4493.461426,5631.794922,4302.692383,4254.230957,0.000000,1.000000,33.000000,,,,0.000000,0.000000,0.000000,0.000000,0.000000,0.000000,0.000000,0.000000,0.000000,0.000000,0.000000,0.000000,0.000000,0.000000,0.000000,0.000000,1.000000,0.000000,0.000000,0.000000,0.000000,0.000000,0.000000,0.000000,0.000000,0.000000,0.000000,0.000000,0.000000,0.000000,0.000000,0.000000,11.000000,0.000000,0.659193,-0.749939,0.021118,0.051086,-0.118667,-0.982053,-0.126480,15.192650,-30.778498,16.587721,,,,,,,,,,,,,,,,,,,,,,,,,,,,,,,,0.018734,0.052704,0.043072,0.009592,0.022727,0.014062,0.031748,0.012078,0.017975,0.024589,0.017490,0.035144,0.032188,0.037658,0.028871,0.013918,0.034967,0.017296,0.041949,0.024182,0.015778,0.032207,0.010789,0.013034,0.027725,0.026426,0.039444,0.009111,0.014560,0.030525,0.025180,0.022805,0.014955,0.039215,0.042418,0.008481,0.030598,0.019997,0.014074,0.035883,0.025048,0.023183,0.024224,0.016844,0.024993,0.025389,0.020738,0.028195,0.018520,0.018314,0.020353,0.034043,0.032340,0.033626,0.023638,0.026089,0.018630,0.034893,0.022319,0.032450,0.040811,0.020107,0.022264,0.030645,0.026270,0.055699,0.038203,0.054971,0.040929,0.026459
1737283822.471255,1737283822.472065,45.000000,0.000000,4336.794922,4355.000000,4271.282227,4322.436035,4355.128418,4359.358887,4358.974121,4553.974121,4552.179688,4563.974121,4496.410156,5639.871582,4311.794922,4270.384766,0.000000,1.000000,33.000000,,,,0.000000,0.000000,0.000000,0.000000,0.000000,0.000000,0.000000,0.000000,0.000000,0.000000,0.000000,0.000000,0.000000,0.000000,0.000000,0.000000,,,,,,,,,,,,,,,,,,,,,,,,,,,,,,,,,,,,,,,,,,,,,,,,,,,,,,,,,,,,,,,,,,,,,,,,,,,,,,,,,,,,,,,,,,,,,,,,,,,,,,,,,,,,,,,,,,,,,,,,,,,,,,,,,
1737283822.479063,1737283822.479873,46.000000,0.000000,4329.102539,4350.641113,4266.538574,4320.256348,4351.666504,4360.256348,4366.153809,4555.897461,4552.179688,4560.769043,4491.538574,5628.717773,4304.358887,4256.410156,0.000000,1.000000,33.000000,,,,0.000000,0.000000,0.000000,0.000000,0.000000,0.000000,0.000000,0.000000,0.000000,0.000000,0.000000,0.000000,0.000000,0.000000,0.000000,0.000000,,,,,,,,,,,,,,,,,,,,,,,,,,,,,,,,,,,,,,,,,,,,,,,,,,,,,,,,,,,,,,,,,,,,,,,,,,,,,,,,,,,,,,,,,,,,,,,,,,,,,,,,,,,,,,,,,,,,,,,,,,,,,,,,,
1737283822.486871,1737283822.487581,47.000000,0.000000,4331.282227,4353.589844,4271.025879,4321.153809,4353.205078,4359.743652,4366.025879,4554.743652,4549.615234,4559.871582,4493.717773,5633.461426,4306.410156,4258.846191,0.000000,1.000000,33.000000,,,,0.000000,0.000000,0.000000,0.000000,0.000000,0.000000,0.000000,0.000000,0.000000,0.000000,0.000000,0.000000,0.000000,0.000000,0.000000,0.000000,,,,,,,,,,,,,,,,,,,,,,,,,,,,,,,,,,,,,,,,,,,,,,,,,,,,,,,,,,,,,,,,,,,,,,,,,,,,,,,,,,,,,,,,,,,,,,,,,,,,,,,,,,,,,,,,,,,,,,,,,,,,,,,,,
1737283822.494679,1737283822.495389,48.000000,0.000000,4334.487305,4354.743652,4270.256348,4322.563965,4356.666504,4359.615234,4363.717773,4551.282227,4551.410156,4562.948730,4493.974121,5639.230957,4310.000000,4262.820313,0.000000,1.000000,33.000000,,,,0.000000,0.000000,0.000000,0.000000,0.000000,0.000000,0.000000,0.000000,0.000000,0.000000,0.000000,0.000000,0.000000,0.000000,0.000000,0.000000,,,,,,,,,,,,,,,,,12.000000,0.000000,0.659185,-0.749939,0.021240,0.051147,-0.104017,-0.982542,-0.119155,15.156718,-30.617315,16.645615,,,,,,,,,,,,,,,,,,,,,,,,,,,,,,,,,,,,,,,,,,,,,,,,,,,,,,,,,,,,,,,,,,,,,,,,,,,,,,,,,,,,,,,,,,,,,,,,,,,,,
1737283822.502487,1737283822.503097,49.000000,0.000000,4330.256348,4347.692383,4262.948730,4320.641113,4353.717773,4360.384766,4368.461426,4552.820313,4552.436035,4563.589844,4487.948730,5628.461426,4303.077148,4251.282227,0.000000,1.000000,33.000000,,,,0.000000,0.000000,0.000000,0.000000,0.000000,0.000000,0.000000,0.000000,0.000000,0.000000,0.000000,0.000000,0.000000,0.000000,0.000000,0.000000,,,,,,,,,,,,,,,,,,,,,,,,,,,,,,,,,,,,,,,,,,,,,,,,,,,,,,,,,,,,,,,,,,,,,,,,,,,,,,,,,,,,,,,,,,,,,,,,,,,,,,,,,,,,,,,,,,,,,,,,,,,,,,,,,
1737283822.510296,1737283822.511005,50.000000,0.000000,4335.384766,4352.436035,4274.487305,4326.153809,4352.051270,4358.974121,4361.025879,4553.205078,4550.256348,4565.000000,4495.384766,5639.230957,4306.153809,4268.333496,0.000000,1.000000,33.000000,,,,0.000000,0.000000,0.000000,0.000000,0.000000,0.000000,0.000000,0.000000,0.000000,0.000000,0.000000,0.000000,0.000000,0.000000,0.000000,0.000000,,,,,,,,,,,,,,,,,,,,,,,,,,,,,,,,,,,,,,,,,,,,,,,,,,,,,,,,,,,,,,,,,,,,,,,,,,,,,,,,,,,,,,,,,,,,,,,,,,,,,,,,,,,,,,,,,,,,,,,,,,,,,,,,,
1737283822.518103,1737283822.518813,51.000000,0.000000,4330.000000,4352.051270,4268.717773,4321.538574,4355.128418,4361.025879,4368.461426,4557.692383,4552.051270,4562.179688,4494.358887,5635.641113,4297.179688,4260.769043,0.000000,1.000000,33.000000,,,,0.000000,0.000000,0.000000,0.000000,0.000000,0.000000,0.000000,0.000000,0.000000,0.000000,0.000000,0.000000,0.000000,0.000000,0.000000,0.000000,,,,,,,,,,,,,,,,,,,,,,,,,,,,,,,,,,,,,,,,,,,,,,,,,,,,,,,,,,,,,,,,,,,,,,,,,,,,,,,,,,,,,,,,,,,,,,,,,,,,,,,,,,,,,,,,,,,,,,,,,,,,,,,,,
1737283822.525912,1737283822.526722,52.000000,0.000000,4332.692383,4353.846191,4270.256348,4321.282227,4356.922852,4361.282227,4369.230957,4558.461426,4554.102539,4560.256348,4498.205078,5636.153809,4301.922852,4263.461426,0.000000,1.000000,33.000000,,,,0.000000,0.000000,0.000000,0.000000,0.000000,0.000000,0.000000,0.000000,0.000000,0.000000,0.000000,0.000000,0.000000,0.000000,0.000000,0.000000,,,,,,,,,,,,,,,,,13.000000,0.000000,0.659115,-0.750000,0.021240,0.051147,-0.090343,-0.986937,-0.128922,15.207713,-30.655584,16.614388,,,,,,,,,,,,,,,,,,,,,,,,,,,,,,,,,,,,,,,,,,,,,,,,,,,,,,,,,,,,,,,,,,,,,,,,,,,,,,,,,,,,,,,,,,,,,,,,,,,,,
1737283822.533720,1737283822.534530,53.000000,0.000000,4337.563965,4353.846191,4276.153809,4324.871582,4354.615234,4360.128418,4363.589844,4554.358887,4552.563965,4562.692383,4501.282227,5640.897461,4309.871582,4272.307617,0.000000,1.000000,33.000000,,,,0.000000,0.000000,0.000000,0.000000,0.000000,0.000000,0.000000,0.000000,0.000000,0.000000,0.000000,0.000000,0.000000,0.000000,0.000000,0.000000,,,,,,,,,,,,,,,,,,,,,,,,,,,,,,,,,,,,,,,,,,,,,,,,,,,,,,,,,,,,,,,,,,,,,,,,,,,,,,,,,,,,,,,,,,,,,,,,,,,,,,,,,,,,,,,,,,,,,,,,,,,,,,,,,
1737283822.541528,1737283822.542438,54.000000,0.000000,4328.077148,4346.922852,4264.358887,4318.974121,4352.692383,4361.922852,4368.205078,4554.743652,4550.512695,4562.436035,4493.205078,5628.717773,4299.743652,4255.000000,0.000000,1.000000,33.000000,,,,0.000000,0.000000,0.000000,0.000000,0.000000,0.000000,0.000000,0.000000,0.000000,0.000000,0.000000,0.000000,0.000000,0.000000,0.000000,0.000000,,,,,,,,,,,,,,,,,,,,,,,,,,,,,,,,,,,,,,,,,,,,,,,,,,,,,,,,,,,,,,,,,,,,,,,,,,,,,,,,,,,,,,,,,,,,,,,,,,,,,,,,,,,,,,,,,,,,,,,,,,,,,,,,,
1737283822.549336,1737283822.550246,55.000000,0.000000,4330.769043,4352.179688,4271.282227,4321.282227,4352.948730,4360.641113,4361.794922,4553.589844,4551.025879,4562.051270,4498.461426,5638.717773,4307.179688,4269.102539,0.000000,1.000000,33.000000,,,,0.000000,0.000000,0.000000,0.000000,0.000000,0.000000,0.000000,0.000000,0.000000,0.000000,0.000000,0.000000,0.000000,0.000000,0.000000,0.000000,,,,,,,,,,,,,,,,,,,,,,,,,,,,,,,,,,,,,,,,,,,,,,,,,,,,,,,,,,,,,,,,,,,,,,,,,,,,,,,,,,,,,,,,,,,,,,,,,,,,,,,,,,,,,,,,,,,,,,,,,,,,,,,,,
1737283822.557144,1737283822.558154,56.000000,0.000000,4328.333496,4351.153809,4269.487305,4321.153809,4352.051270,4360.384766,4366.410156,4555.000000,4554.743652,4562.307617,4494.358887,5636.666504,4303.333496,4262.436035,0.000000,1.000000,33.000000,,,,0.000000,0.000000,0.000000,0.000000,0.000000,0.000000,0.000000,0.000000,0.000000,0.000000,0.000000,0.000000,0.000000,0.000000,0.000000,0.000000,,,,,,,,,,,,,,,,,14.000000,0.000000,0.659189,-0.749939,0.021118,0.051147,-0.096691,-0.984495,-0.124039,15.236941,-30.706692,16.486282,,,,,,,,,,,,,,,,,,,,,,,,,,,,,,,,,,,,,,,,,,,,,,,,,,,,,,,,,,,,,,,,,,,,,,,,,,,,,,,,,,,,,,,,,,,,,,,,,,,,,
1737283822.564952,1737283822.565962,57.000000,0.000000,4330.000000,4350.897461,4266.153809,4321.666504,4353.333496,4360.641113,4364.615234,4555.384766,4553.461426,4562.179688,4493.205078,5633.077148,4301.282227,4255.256348,0.000000,1.000000,33.000000,,,,0.000000,0.000000,0.000000,0.000000,0.000000,0.000000,0.000000,0.000000,0.000000,0.000000,0.000000,0.000000,0.000000,0.000000,0.000000,0.000000,,,,,,,,,,,,,,,,,,,,,,,,,,,,,,,,,,,,,,,,,,,,,,,,,,,,,,,,,,,,,,,,,,,,,,,,,,,,,,,,,,,,,,,,,,,,,,,,,,,,,,,,,,,,,,,,,,,,,,,,,,,,,,,,,
1737283822.572760,1737283822.573870,58.000000,0.000000,4335.128418,4354.230957,4272.948730,4321.538574,4355.000000,4359.615234,4357.051270,4553.717773,4549.871582,4561.666504,4500.000000,5640.897461,4311.410156,4268.461426,0.000000,1.000000,33.000000,,,,0.000000,0.000000,0.000000,0.000000,0.000000,0.000000,0.000000,0.000000,0.000000,0.000000,0.000000,0.000000,0.000000,0.000000,0.000000,0.000000,,,,,,,,,,,,,,,,,,,,,,,,,,,,,,,,,,,,,,,,,,,,,,,,,,,,,,,,,,,,,,,,,,,,,,,,,,,,,,,,,,,,,,,,,,,,,,,,,,,,,,,,,,,,,,,,,,,,,,,,,,,,,,,,,
1737283822.580568,1737283822.581679,59.000000,0.000000,4327.563965,4348.846191,4264.230957,4314.615234,4354.487305,4360.641113,4368.461426,4554.102539,4551.410156,4561.153809,4491.794922,5630.512695,4304.358887,4255.128418,0.000000,1.000000,33.000000,,,,0.000000,0.000000,0.000000,0.000000,0.000000,0.000000,0.000000,0.000000,0.000000,0.000000,0.000000,0.000000,0.000000,0.000000,0.000000,0.000000,,,,,,,,,,,,,,,,,,,,,,,,,,,,,,,,,,,,,,,,,,,,,,,,,,,,,,,,,,,,,,,,,,,,,,,,,,,,,,,,,,,,,,,,,,,,,,,,,,,,,,,,,,,,,,,,,,,,,,,,,,,,,,,,,
1737283822.588376,1737283822.589587,60.000000,0.000000,4333.589844,4353.717773,4269.615234,4325.128418,4355.769043,4361.538574,4363.333496,4552.307617,4552.563965,4562.307617,4494.358887,5638.333496,4307.563965,4264.487305,0.000000,1.000000,33.000000,,,,0.000000,0.000000,0.000000,0.000000,0.000000,0.000000,0.000000,0.000000,0.000000,0.000000,0.000000,0.000000,0.000000,0.000000,0.000000,0.000000,,,,,,,,,,,,,,,,,15.000000,0.000000,0.659193,-0.749939,0.021118,0.051086,-0.106947,-0.984007,-0.116713,15.096581,-30.619356,16.420986,,,,,,,,,,,,,,,,,,,,,,,,,,,,,,,,0.019968,0.061465,0.039301,0.009123,0.021292,0.012867,0.034412,0.015789,0.018946,0.026898,0.020647,0.041128,0.032313,0.038792,0.028081,0.012625,0.035654,0.017156,0.038118,0.025066,0.014390,0.031001,0.012085,0.011757,0.026773,0.028851,0.033355,0.008094,0.012402,0.027861,0.022688,0.025343,0.013548,0.034676,0.040768,0.007558,0.027454,0.018515,0.016029,0.036664,0.023613,0.027057,0.032081,0.016493,0.025258,0.036396,0.022412,0.023329,0.017780,0.018461,0.022652,0.032684,0.033897,0.035036,0.026013,0.030489,0.024942,0.031308,0.020327,0.034352,0.042298,0.021323,0.019628,0.030034,0.026679,0.052892,0.035710,0.064797,0.039143,0.026415
1737283822.596185,1737283822.597395,61.000000,0.000000,4331.410156,4352.692383,4267.948730,4326.025879,4354.487305,4363.205078,4361.025879,4556.538574,4553.974121,4560.897461,4495.000000,5637.051270,4307.948730,4262.307617,0.000000,1.000000,33.000000,,,,0.000000,0.000000,0.000000,0.000000,0.000000,0.000000,0.000000,0.000000,0.000000,0.000000,0.000000,0.000000,0.000000,0.000000,0.000000,0.000000,,,,,,,,,,,,,,,,,,,,,,,,,,,,,,,,,,,,,,,,,,,,,,,,,,,,,,,,,,,,,,,,,,,,,,,,,,,,,,,,,,,,,,,,,,,,,,,,,,,,,,,,,,,,,,,,,,,,,,,,,,,,,,,,,
1737283822.603993,1737283822.605103,62.000000,0.000000,4327.051270,4349.102539,4263.333496,4315.256348,4351.410156,4360.256348,4366.922852,4556.794922,4555.384766,4560.384766,4492.948730,5630.769043,4306.794922,4256.282227,0.000000,1.000000,33.000000,,,,0.000000,0.000000,0.000000,0.000000,0.000000,0.000000,0.000000,0.000000,0.000000,0.000000,0.000000,0.000000,0.000000,0.000000,0.000000,0.000000,,,,,,,,,,,,,,,,,,,,,,,,,,,,,,,,,,,,,,,,,,,,,,,,,,,,,,,,,,,,,,,,,,,,,,,,,,,,,,,,,,,,,,,,,,,,,,,,,,,,,,,,,,,,,,,,,,,,,,,,,,,,,,,,,
1737283822.611801,1737283822.612911,63.000000,0.000000,4335.769043,4351.538574,4274.615234,4319.358887,4354.230957,4358.717773,4361.922852,4550.769043,4552.436035,4563.077148,4497.948730,5641.922852,4312.692383,4269.487305,0.000000,1.000000,33.000000,,,,0.000000,0.000000,0.000000,0.000000,0.000000,0.000000,0.000000,0.000000,0.000000,0.000000,0.000000,0.000000,0.000000,0.000000,0.000000,0.000000,,,,,,,,,,,,,,,,,,,,,,,,,,,,,,,,,,,,,,,,,,,,,,,,,,,,,,,,,,,,,,,,,,,,,,,,,,,,,,,,,,,,,,,,,,,,,,,,,,,,,,,,,,,,,,,,,,,,,,,,,,,,,,,,,
1737283822.619609,1737283822.620619,64.000000,0.000000,4331.666504,4345.000000,4265.641113,4319.230957,4356.538574,4363.974121,4366.153809,4556.025879,4550.769043,4563.333496,4491.538574,5633.333496,4303.077148,4255.384766,0.000000,1.000000,33.000000,,,,0.000000,0.000000,0.000000,0.000000,0.000000,0.000000,0.000000,0.000000,0.000000,0.000000,0.000000,0.000000,0.000000,0.000000,0.000000,0.000000,,,,,,,,,,,,,,,,,16.000000,0.000000,0.659263,-0.749878,0.021118,0.051086,-0.108900,-0.988402,-0.130387,15.053590,-30.674088,16.612221,,,,,,,,,,,,,,,,,,,,,,,,,,,,,,,,,,,,,,,,,,,,,,,,,,,,,,,,,,,,,,,,,,,,,,,,,,,,,,,,,,,,,,,,,,,,,,,,,,,,,
1737283822.627417,1737283822.628427,65.000000,0.000000,4335.641113,4350.641113,4266.410156,4322.051270,4355.641113,4361.538574,4363.589844,4556.794922,4552.692383,4563.077148,4495.897461,5635.512695,4305.897461,4262.563965,0.000000,1.000000,33.000000,,,,0.000000,0.000000,0.000000,0.000000,0.000000,0.000000,0.000000,0.000000,0.000000,0.000000,0.000000,0.000000,0.000000,0.000000,0.000000,0.000000,,,,,,,,,,,,,,,,,,,,,,,,,,,,,,,,,,,,,,,,,,,,,,,,,,,,,,,,,,,,,,,,,,,,,,,,,,,,,,,,,,,,,,,,,,,,,,,,,,,,,,,,,,,,,,,,,,,,,,,,,,,,,,,,,
1737283822.635225,1737283822.636135,66.000000,0.000000,4335.000000,4353.589844,4269.743652,4322.948730,4352.820313,4358.717773,4365.512695,4551.666504,4552.307617,4563.717773,4499.358887,5634.743652,4307.948730,4264.743652,0.000000,1.000000,33.000000,,,,0.000000,0.000000,0.000000,0.000000,0.000000,0.000000,0.000000,0.000000,0.000000,0.000000,0.000000,0.000000,0.000000,0.000000,0.000000,0.000000,,,,,,,,,,,,,,,,,,,,,,,,,,,,,,,,,,,,,,,,,,,,,,,,,,,,,,,,,,,,,,,,,,,,,,,,,,,,,,,,,,,,,,,,,,,,,,,,,,,,,,,,,,,,,,,,,,,,,,,,,,,,,,,,,
1737283822.643033,1737283822.643943,67.000000,0.000000,4327.820313,4347.563965,4264.102539,4318.974121,4351.538574,4362.051270,4371.282227,4553.974121,4550.128418,4563.717773,4494.230957,5629.358887,4303.974121,4255.128418,0.000000,1.000000,33.000000,,,,0.000000,0.000000,0.000000,0.000000,0.000000,0.000000,0.000000,0.000000,0.000000,0.000000,0.000000,0.000000,0.000000,0.000000,0.000000,0.000000,,,,,,,,,,,,,,,,,,,,,,,,,,,,,,,,,,,,,,,,,,,,,,,,,,,,,,,,,,,,,,,,,,,,,,,,,,,,,,,,,,,,,,,,,,,,,,,,,,,,,,,,,,,,,,,,,,,,,,,,,,,,,,,,,
1737283822.650841,1737283822.651651,68.000000,0.000000,4335.897461,4350.641113,4273.205078,4322.820313,4354.358887,4361.282227,4363.333496,4556.153809,4549.615234,4563.461426,4497.692383,5644.230957,4309.871582,4269.487305,0.000000,1.000000,33.000000,,,,0.000000,0.000000,0.000000,0.000000,0.000000,0.000000,0.000000,0.000000,0.000000,0.000000,0.000000,0.000000,0.000000,0.000000,0.000000,0.000000,,,,,,,,,,,,,,,,,17.000000,0.000000,0.659191,-0.749939,0.021179,0.051086,-0.107923,-0.994750,-0.125992,15.081564,-30.656679,16.667665,,,,,,,,,,,,,,,,,,,,,,,,,,,,,,,,,,,,,,,,,,,,,,,,,,,,,,,,,,,,,,,,,,,,,,,,,,,,,,,,,,,,,,,,,,,,,,,,,,,,,
1737283822.658649,1737283822.659459,69.000000,0.000000,4332.948730,4347.563965,4267.948730,4319.230957,4355.384766,4362.051270,4367.948730,4556.282227,4554.487305,4560.641113,4491.538574,5633.589844,4302.179688,4256.282227,0.000000,1.000000,33.000000,,,,0.000000,0.000000,0.000000,0.000000,0.000000,0.000000,0.000000,0.000000,0.000000,0.000000,0.000000,0.000000,0.000000,0.000000,0.000000,0.000000,,,,,,,,,,,,,,,,,,,,,,,,,,,,,,,,,,,,,,,,,,,,,,,,,,,,,,,,,,,,,,,,,,,,,,,,,,,,,,,,,,,,,,,,,,,,,,,,,,,,,,,,,,,,,,,,,,,,,,,,,,,,,,,,,
1737283822.666457,1737283822.667167,70.000000,0.000000,4332.692383,4350.641113,4267.692383,4320.897461,4357.179688,4363.205078,4363.333496,4553.589844,4555.512695,4559.230957,4494.358887,5633.846191,4305.769043,4260.641113,0.000000,1.000000,33.000000,,,,0.000000,0.000000,0.000000,0.000000,0.000000,0.000000,0.000000,0.000000,0.000000,0.000000,0.000000,0.000000,0.000000,0.000000,0.000000,0.000000,,,,,,,,,,,,,,,,,,,,,,,,,,,,,,,,,,,,,,,,,,,,,,,,,,,,,,,,,,,,,,,,,,,,,,,,,,,,,,,,,,,,,,,,,,,,,,,,,,,,,,,,,,,,,,,,,,,,,,,,,,,,,,,,,
1737283822.674266,1737283822.674975,71.000000,0.000000,4332.307617,4352.948730,4271.153809,4322.820313,4353.846191,4362.436035,4361.794922,4555.256348,4551.538574,4562.051270,4496.922852,5641.282227,4308.333496,4268.846191,0.000000,1.000000,33.000000,,,,0.000000,0.000000,0.000000,0.000000,0.000000,0.000000,0.000000,0.000000,0.000000,0.000000,0.000000,0.000000,0.000000,0.000000,0.000000,0.000000,,,,,,,,,,,,,,,,,,,,,,,,,,,,,,,,,,,,,,,,,,,,,,,,,,,,,,,,,,,,,,,,,,,,,,,,,,,,,,,,,,,,,,,,,,,,,,,,,,,,,,,,,,,,,,,,,,,,,,,,,,,,,,,,,
1737283822.682073,1737283822.682683,72.000000,0.000000,4326.922852,4346.922852,4264.487305,4318.974121,4351.153809,4362.692383,4373.333496,4559.615234,4553.333496,4564.230957,4489.102539,5629.230957,4298.461426,4253.717773,0.000000,1.000000,33.000000,,,,0.000000,0.000000,0.000000,0.000000,0.000000,0.000000,0.000000,0.000000,0.000000,0.000000,0.000000,0.000000,0.000000,0.000000,0.000000,0.000000,,,,,,,,,,,,,,,,,18.000000,0.000000,0.659253,-0.749878,0.021118,0.051208,-0.107923,-0.973263,-0.132829,15.123407,-30.657677,16.750898,,,,,,,,,,,,,,,,,,,,,,,,,,,,,,,,,,,,,,,,,,,,,,,,,,,,,,,,,,,,,,,,,,,,,,,,,,,,,,,,,,,,,,,,,,,,,,,,,,,,,
1737283822.689882,1737283822.690491,73.000000,0.000000,4336.794922,4353.717773,4272.820313,4324.487305,4356.666504,4360.512695,4365.000000,4553.717773,4554.358887,4562.820313,4498.077148,5637.051270,4308.205078,4269.102539,0.000000,1.000000,33.000000,,,,0.000000,0.000000,0.000000,0.000000,0.000000,0.000000,0.000000,0.000000,0.000000,0.000000,0.000000,0.000000,0.000000,0.000000,0.000000,0.000000,,,,,,,,,,,,,,,,,,,,,,,,,,,,,,,,,,,,,,,,,,,,,,,,,,,,,,,,,,,,,,,,,,,,,,,,,,,,,,,,,,,,,,,,,,,,,,,,,,,,,,,,,,,,,,,,,,,,,,,,,,,,,,,,,
1737283822.697690,1737283822.698199,74.000000,0.000000,4332.820313,4353.205078,4267.051270,4318.846191,4355.512695,4361.025879,4366.282227,4552.436035,4551.153809,4560.256348,4496.410156,5634.871582,4305.512695,4259.615234,0.000000,1.000000,33.000000,,,,0.000000,0.000000,0.000000,0.000000,0.000000,0.000000,0.000000,0.000000,0.000000,0.000000,0.000000,0.000000,0.000000,0.000000,0.000000,0.000000,,,,,,,,,,,,,,,,,,,,,,,,,,,,,,,,,,,,,,,,,,,,,,,,,,,,,,,,,,,,,,,,,,,,,,,,,,,,,,,,,,,,,,,,,,,,,,,,,,,,,,,,,,,,,,,,,,,,,,,,,,,,,,,,,
1737283822.705498,1737283822.706007,75.000000,0.000000,4328.717773,4350.000000,4267.307617,4318.205078,4352.307617,4362.307617,4367.179688,4554.230957,4551.153809,4560.641113,4492.820313,5636.153809,4302.307617,4255.897461,1.000000,1.000000,33.000000,,,,0.000000,0.000000,0.000000,0.000000,0.000000,0.000000,0.000000,0.000000,0.000000,0.000000,0.000000,0.000000,0.000000,0.000000,0.000000,0.000000,,,,,,,,,,,,,,,,,,,,,,,,,,,,,,,,,,,,,,,,,,,,,,,,,,,,,,,,,,,,,,,,,,,,,,,,,,,,,,,,,,,,,,,,,,,,,,,,,,,,,,,,,,,,,,,,,,,,,,,,,,,,,,,,,
1737283822.713306,1737283822.713715,76.000000,0.000000,4333.461426,4352.436035,4276.538574,4326.282227,4355.384766,4360.384766,4361.025879,4553.846191,4555.384766,4558.974121,4497.820313,5644.358887,4307.563965,4272.051270,0.000000,1.000000,33.000000,,,,0.000000,0.000000,0.000000,0.000000,0.000000,0.000000,0.000000,0.000000,0.000000,0.000000,0.000000,0.000000,0.000000,0.000000,0.000000,0.000000,,,,,,,,,,,,,,,,,19.000000,0.000000,0.659187,-0.749939,0.021179,0.051147,-0.099622,-0.981565,-0.118178,15.077733,-30.841909,16.742476,,,,,,,,,,,,,,,,,,,,,,,,,,,,,,,,0.023112,0.064229,0.035521,0.009044,0.020573,0.011298,0.035458,0.018918,0.019858,0.028093,0.022897,0.045405,0.032057,0.038234,0.026682,0.014536,0.038653,0.016442,0.032438,0.025851,0.012296,0.028112,0.013383,0.011229,0.025916,0.029840,0.025772,0.007992,0.010577,0.025635,0.020898,0.025933,0.012526,0.031320,0.036985,0.007762,0.023836,0.017217,0.018591,0.035642,0.022365,0.028975,0.038705,0.017664,0.026693,0.048944,0.026716,0.020138,0.017526,0.017833,0.024356,0.029814,0.033947,0.034265,0.028776,0.033632,0.031391,0.027818,0.018598,0.035846,0.041683,0.024147,0.016343,0.029049,0.027061,0.048322,0.031065,0.070145,0.035148,0.028336
1737283822.721114,1737283822.721523,77.000000,0.000000,4330.256348,4350.512695,4265.256348,4320.897461,4357.307617,4361.666504,4367.436035,4555.000000,4555.384766,4557.051270,4492.307617,5631.666504,4301.410156,4258.589844,0.000000,1.000000,33.000000,,,,0.000000,0.000000,0.000000,0.000000,0.000000,0.000000,0.000000,0.000000,0.000000,0.000000,0.000000,0.000000,0.000000,0.000000,0.000000,0.000000,,,,,,,,,,,,,,,,,,,,,,,,,,,,,,,,,,,,,,,,,,,,,,,,,,,,,,,,,,,,,,,,,,,,,,,,,,,,,,,,,,,,,,,,,,,,,,,,,,,,,,,,,,,,,,,,,,,,,,,,,,,,,,,,,
1737283822.728922,1737283822.729231,78.000000,0.000000,4336.922852,4354.743652,4268.589844,4320.897461,4355.384766,4363.717773,4365.000000,4549.871582,4550.897461,4562.179688,4495.256348,5637.436035,4309.487305,4267.563965,0.000000,1.000000,33.000000,,,,0.000000,0.000000,0.000000,0.000000,0.000000,0.000000,0.000000,0.000000,0.000000,0.000000,0.000000,0.000000,0.000000,0.000000,0.000000,0.000000,,,,,,,,,,,,,,,,,,,,,,,,,,,,,,,,,,,,,,,,,,,,,,,,,,,,,,,,,,,,,,,,,,,,,,,,,,,,,,,,,,,,,,,,,,,,,,,,,,,,,,,,,,,,,,,,,,,,,,,,,,,,,,,,,
1737283822.736730,1737283822.737139,79.000000,0.000000,4333.974121,4351.410156,4267.307617,4319.871582,4353.077148,4364.358887,4369.102539,4551.025879,4553.077148,4563.589844,4493.205078,5634.487305,4306.922852,4262.948730,1.000000,1.000000,33.000000,,,,0.000000,0.000000,0.000000,0.000000,0.000000,0.000000,0.000000,0.000000,0.000000,0.000000,0.000000,0.000000,0.000000,0.000000,0.000000,0.000000,,,,,,,,,,,,,,,,,,,,,,,,,,,,,,,,,,,,,,,,,,,,,,,,,,,,,,,,,,,,,,,,,,,,,,,,,,,,,,,,,,,,,,,,,,,,,,,,,,,,,,,,,,,,,,,,,,,,,,,,,,,,,,,,,
1737283822.744538,1737283822.744947,80.000000,0.000000,4330.641113,4350.128418,4265.897461,4319.358887,4353.846191,4363.461426,4369.358887,4555.384766,4555.256348,4559.358887,4492.948730,5632.563965,4304.871582,4257.820313,0.000000,1.000000,33.000000,,,,0.000000,0.000000,0.000000,0.000000,0.000000,0.000000,0.000000,0.000000,0.000000,0.000000,0.000000,0.000000,0.000000,0.000000,0.000000,0.000000,,,,,,,,,,,,,,,,,20.000000,0.000000,0.659253,-0.749878,0.021118,0.051208,-0.105482,-0.986937,-0.137712,15.169960,-30.924385,16.601563,,,,,,,,,,,,,,,,,,,,,,,,,,,,,,,,,,,,,,,,,,,,,,,,,,,,,,,,,,,,,,,,,,,,,,,,,,,,,,,,,,,,,,,,,,,,,,,,,,,,,
1737283822.752346,1737283822.752855,81.000000,0.000000,4338.333496,4355.384766,4274.871582,4324.358887,4354.615234,4363.333496,4361.922852,4552.563965,4552.307617,4561.666504,4500.384766,5641.410156,4312.307617,4270.769043,0.000000,1.000000,33.000000,,,,0.000000,0.000000,0.000000,0.000000,0.000000,0.000000,0.000000,0.000000,0.000000,0.000000,0.000000,0.000000,0.000000,0.000000,0.000000,0.000000,,,,,,,,,,,,,,,,,,,,,,,,,,,,,,,,,,,,,,,,,,,,,,,,,,,,,,,,,,,,,,,,,,,,,,,,,,,,,,,,,,,,,,,,,,,,,,,,,,,,,,,,,,,,,,,,,,,,,,,,,,,,,,,,,
1737283822.760154,1737283822.760663,82.000000,0.000000,4332.051270,4350.256348,4263.974121,4319.358887,4353.589844,4362.692383,4370.769043,4553.717773,4552.307617,4562.948730,4493.717773,5628.205078,4302.179688,4255.897461,0.000000,1.000000,33.000000,,,,0.000000,0.000000,0.000000,0.000000,0.000000,0.000000,0.000000,0.000000,0.000000,0.000000,0.000000,0.000000,0.000000,0.000000,0.000000,0.000000,,,,,,,,,,,,,,,,,,,,,,,,,,,,,,,,,,,,,,,,,,,,,,,,,,,,,,,,,,,,,,,,,,,,,,,,,,,,,,,,,,,,,,,,,,,,,,,,,,,,,,,,,,,,,,,,,,,,,,,,,,,,,,,,,
1737283822.767963,1737283822.768571,83.000000,0.000000,4333.333496,4353.717773,4269.358887,4320.256348,4353.333496,4359.615234,4366.538574,4553.205078,4553.461426,4559.871582,4496.666504,5637.692383,4308.589844,4266.410156,1.000000,1.000000,33.000000,,,,0.000000,0.000000,0.000000,0.000000,0.000000,0.000000,0.000000,0.000000,0.000000,0.000000,0.000000,0.000000,0.000000,0.000000,0.000000,0.000000,,,,,,,,,,,,,,,,,,,,,,,,,,,,,,,,,,,,,,,,,,,,,,,,,,,,,,,,,,,,,,,,,,,,,,,,,,,,,,,,,,,,,,,,,,,,,,,,,,,,,,,,,,,,,,,,,,,,,,,,,,,,,,,,,
1737283822.775771,1737283822.776379,84.000000,0.000000,4332.820313,4353.717773,4272.820313,4322.051270,4352.692383,4362.820313,4364.871582,4555.641113,4554.358887,4559.871582,4496.922852,5639.230957,4308.974121,4266.282227,0.000000,1.000000,33.000000,,,,0.000000,0.000000,0.000000,0.000000,0.000000,0.000000,0.000000,0.000000,0.000000,0.000000,0.000000,0.000000,0.000000,0.000000,0.000000,0.000000,,,,,,,,,,,,,,,,,21.000000,0.000000,0.659179,-0.749939,0.021118,0.051270,-0.107923,-0.984495,-0.128434,15.169631,-30.948614,16.691406,,,,,,,,,,,,,,,,,,,,,,,,,,,,,,,,,,,,,,,,,,,,,,,,,,,,,,,,,,,,,,,,,,,,,,,,,,,,,,,,,,,,,,,,,,,,,,,,,,,,,
1737283822.783579,1737283822.784187,85.000000,0.000000,4330.641113,4349.871582,4265.384766,4320.897461,4353.205078,4365.512695,4366.922852,4559.358887,4554.487305,4561.538574,4492.179688,5627.436035,4302.563965,4256.025879,0.000000,1.000000,33.000000,,,,0.000000,0.000000,0.000000,0.000000,0.000000,0.000000,0.000000,0.000000,0.000000,0.000000,0.000000,0.000000,0.000000,0.000000,0.000000,0.000000,,,,,,,,,,,,,,,,,,,,,,,,,,,,,,,,,,,,,,,,,,,,,,,,,,,,,,,,,,,,,,,,,,,,,,,,,,,,,,,,,,,,,,,,,,,,,,,,,,,,,,,,,,,,,,,,,,,,,,,,,,,,,,,,,
1737283822.791387,1737283822.791995,86.000000,0.000000,4338.461426,4355.000000,4273.717773,4325.512695,4355.256348,4361.282227,4358.589844,4554.743652,4550.769043,4559.871582,4498.589844,5640.256348,4312.692383,4271.025879,0.000000,1.000000,33.000000,,,,0.000000,0.000000,0.000000,0.000000,0.000000,0.000000,0.000000,0.000000,0.000000,0.000000,0.000000,0.000000,0.000000,0.000000,0.000000,0.000000,,,,,,,,,,,,,,,,,,,,,,,,,,,,,,,,,,,,,,,,,,,,,,,,,,,,,,,,,,,,,,,,,,,,,,,,,,,,,,,,,,,,,,,,,,,,,,,,,,,,,,,,,,,,,,,,,,,,,,,,,,,,,,,,,
1737283822.799195,1737283822.799703,87.000000,0.000000,4332.436035,4349.743652,4267.307617,4321.153809,4353.717773,4360.256348,4367.692383,4552.948730,4550.512695,4559.871582,4493.077148,5634.487305,4305.384766,4257.179688,1.000000,1.000000,33.000000,,,,0.000000,0.000000,0.000000,0.000000,0.000000,0.000000,0.000000,0.000000,0.000000,0.000000,0.000000,0.000000,0.000000,0.000000,0.000000,0.000000,,,,,,,,,,,,,,,,,,,,,,,,,,,,,,,,,,,,,,,,,,,,,,,,,,,,,,,,,,,,,,,,,,,,,,,,,,,,,,,,,,,,,,,,,,,,,,,,,,,,,,,,,,,,,,,,,,,,,,,,,,,,,,,,,
1737283822.807003,1737283822.807511,88.000000,0.000000,4334.230957,4350.000000,4269.358887,4321.794922,4353.077148,4359.358887,4365.512695,4553.461426,4550.769043,4564.487305,4495.256348,5636.666504,4305.769043,4260.384766,0.000000,1.000000,33.000000,,,,0.000000,0.000000,0.000000,0.000000,0.000000,0.000000,0.000000,0.000000,0.000000,0.000000,0.000000,0.000000,0.000000,0.000000,0.000000,0.000000,,,,,,,,,,,,,,,,,22.000000,0.000000,0.659175,-0.749939,0.021240,0.051270,-0.109388,-0.981565,-0.132340,15.202667,-30.887085,16.722265,,,,,,,,,,,,,,,,,,,,,,,,,,,,,,,,,,,,,,,,,,,,,,,,,,,,,,,,,,,,,,,,,,,,,,,,,,,,,,,,,,,,,,,,,,,,,,,,,,,,,
1737283822.814811,1737283822.815219,89.000000,0.000000,4336.410156,4351.922852,4273.461426,4324.230957,4354.102539,4362.179688,4361.666504,4554.743652,4549.743652,4561.666504,4498.846191,5639.230957,4309.230957,4264.615234,0.000000,1.000000,33.000000,,,,0.000000,0.000000,0.000000,0.000000,0.000000,0.000000,0.000000,0.000000,0.000000,0.000000,0.000000,0.000000,0.000000,0.000000,0.000000,0.000000,,,,,,,,,,,,,,,,,,,,,,,,,,,,,,,,,,,,,,,,,,,,,,,,,,,,,,,,,,,,,,,,,,,,,,,,,,,,,,,,,,,,,,,,,,,,,,,,,,,,,,,,,,,,,,,,,,,,,,,,,,,,,,,,,
1737283822.822619,1737283822.823027,90.000000,0.000000,4330.000000,4349.615234,4266.410156,4317.692383,4352.179688,4366.153809,4368.077148,4555.769043,4552.179688,4558.974121,4493.589844,5628.974121,4303.205078,4254.358887,0.000000,1.000000,33.000000,,,,0.000000,0.000000,0.000000,0.000000,0.000000,0.000000,0.000000,0.000000,0.000000,0.000000,0.000000,0.000000,0.000000,0.000000,0.000000,0.000000,,,,,,,,,,,,,,,,,,,,,,,,,,,,,,,,,,,,,,,,,,,,,,,,,,,,,,,,,,,,,,,,,,,,,,,,,,,,,,,,,,,,,,,,,,,,,,,,,,,,,,,,,,,,,,,,,,,,,,,,,,,,,,,,,
1737283822.830427,1737283822.830735,91.000000,0.000000,4335.769043,4354.615234,4274.358887,4321.025879,4352.692383,4360.512695,4360.512695,4551.153809,4554.871582,4564.230957,4501.538574,5643.333496,4309.230957,4270.641113,1.000000,1.000000,33.000000,,,,0.000000,0.000000,0.000000,0.000000,0.000000,0.000000,0.000000,0.000000,0.000000,0.000000,0.000000,0.000000,0.000000,0.000000,0.000000,0.000000,,,,,,,,,,,,,,,,,,,,,,,,,,,,,,,,,,,,,,,,,,,,,,,,,,,,,,,,,,,,,,,,,,,,,,,,,,,,,,,,,,,,,,,,,,,,,,,,,,,,,,,,,,,,,,,,,,,,,,,,,,,,,,,,,
1737283822.838235,1737283822.838543,92.000000,0.000000,4331.410156,4347.563965,4267.179688,4321.153809,4355.641113,4357.563965,4365.384766,4554.358887,4554.230957,4563.589844,4497.820313,5639.743652,4303.846191,4260.384766,0.000000,1.000000,33.000000,,,,0.000000,0.000000,0.000000,0.000000,0.000000,0.000000,0.000000,0.000000,0.000000,0.000000,0.000000,0.000000,0.000000,0.000000,0.000000,0.000000,,,,,,,,,,,,,,,,,23.000000,0.000000,0.659251,-0.749878,0.021179,0.051208,-0.107435,-0.982542,-0.122574,15.299067,-30.765043,16.733372,,,,,,,,,,,,,,,,,,,,,,,,,,,,,,,,0.028546,0.060318,0.031484,0.009652,0.020456,0.009876,0.034200,0.020420,0.020332,0.027776,0.024045,0.047340,0.031224,0.037057,0.024751,0.019088,0.043545,0.015642,0.026533,0.026492,0.010151,0.024141,0.015267,0.011385,0.025555,0.029027,0.019292,0.008198,0.009288,0.024209,0.019500,0.024713,0.011756,0.029309,0.032031,0.008727,0.020497,0.016301,0.021167,0.032860,0.021321,0.028089,0.042105,0.020181,0.028699,0.059914,0.032722,0.018989,0.017342,0.016631,0.025532,0.026888,0.033537,0.031423,0.030963,0.034880,0.036811,0.025595,0.017616,0.036762,0.040033,0.028419,0.013877,0.028148,0.027343,0.042654,0.025372,0.068642,0.030396,0.031027
1737283822.846043,1737283822.846251,93.000000,0.000000,4332.820313,4346.153809,4265.641113,4319.102539,4355.897461,4359.871582,4366.025879,4557.563965,4550.128418,4559.615234,4496.282227,5635.384766,4305.000000,4262.051270,0.000000,1.000000,33.000000,,,,0.000000,0.000000,0.000000,0.000000,0.000000,0.000000,0.000000,0.000000,0.000000,0.000000,0.000000,0.000000,0.000000,0.000000,0.000000,0.000000,,,,,,,,,,,,,,,,,,,,,,,,,,,,,,,,,,,,,,,,,,,,,,,,,,,,,,,,,,,,,,,,,,,,,,,,,,,,,,,,,,,,,,,,,,,,,,,,,,,,,,,,,,,,,,,,,,,,,,,,,,,,,,,,,
