title:bread1, start timestamp:1738755559.552014, stop timestamp:1738755560.590491, headset type:EPOCX, headset serial:E50208A5, headset firmware:720, channels:168, sampling rate:eeg_128;mot_32;pm_0.1;pow_8, samples:134       , version:2.2, 
Timestamp,OriginalTimestamp,EEG.Counter,EEG.Interpolated,EEG.AF3,EEG.F7,EEG.F3,EEG.FC5,EEG.T7,EEG.P7,EEG.O1,EEG.O2,EEG.P8,EEG.T8,EEG.FC6,EEG.F4,EEG.F8,EEG.AF4,EEG.RawCq,EEG.Battery,EEG.BatteryPercent,MarkerIndex,MarkerType,MarkerValueInt,EEG.MarkerHardware,CQ.AF3,CQ.F7,CQ.F3,CQ.FC5,CQ.T7,CQ.P7,CQ.O1,CQ.O2,CQ.P8,CQ.T8,CQ.FC6,CQ.F4,CQ.F8,CQ.AF4,CQ.Overall,EQ.SampleRateQuality,EQ.OVERALL,EQ.AF3,EQ.F7,EQ.F3,EQ.FC5,EQ.T7,EQ.P7,EQ.O1,EQ.O2,EQ.P8,EQ.T8,EQ.FC6,EQ.F4,EQ.F8,EQ.AF4,MOT.CounterMems,MOT.InterpolatedMems,MOT.Q0,MOT.Q1,MOT.Q2,MOT.Q3,MOT.AccX,MOT.AccY,MOT.AccZ,MOT.MagX,MOT.MagY,MOT.MagZ,PM.Attention.IsActive,PM.Attention.Scaled,PM.Attention.Raw,PM.Attention.Min,PM.Attention.Max,PM.Engagement.IsActive,PM.Engagement.Scaled,PM.Engagement.Raw,PM.Engagement.Min,PM.Engagement.Max,PM.Excitement.IsActive,PM.Excitement.Scaled,PM.Excitement.Raw,PM.Excitement.Min,PM.Excitement.Max,PM.LongTermExcitement,PM.Stress.IsActive,PM.Stress.Scaled,PM.Stress.Raw,PM.Stress.Min,PM.Stress.Max,PM.Relaxation.IsActive,PM.Relaxation.Scaled,PM.Relaxation.Raw,PM.Relaxation.Min,PM.Relaxation.Max,PM.Interest.IsActive,PM.Interest.Scaled,PM.Interest.Raw,PM.Interest.Min,PM.Interest.Max,POW.AF3.Theta,POW.AF3.Alpha,POW.AF3.BetaL,POW.AF3.BetaH,POW.AF3.Gamma,POW.F7.Theta,POW.F7.Alpha,POW.F7.BetaL,POW.F7.BetaH,POW.F7.Gamma,POW.F3.Theta,POW.F3.Alpha,POW.F3.BetaL,POW.F3.BetaH,POW.F3.Gamma,POW.FC5.Theta,POW.FC5.Alpha,POW.FC5.BetaL,POW.FC5.BetaH,POW.FC5.Gamma,POW.T7.Theta,POW.T7.Alpha,POW.T7.BetaL,POW.T7.BetaH,POW.T7.Gamma,POW.P7.Theta,POW.P7.Alpha,POW.P7.BetaL,POW.P7.BetaH,POW.P7.Gamma,POW.O1.Theta,POW.O1.Alpha,POW.O1.BetaL,POW.O1.BetaH,POW.O1.Gamma,POW.O2.Theta,POW.O2.Alpha,POW.O2.BetaL,POW.O2.BetaH,POW.O2.Gamma,POW.P8.Theta,POW.P8.Alpha,POW.P8.BetaL,POW.P8.BetaH,POW.P8.Gamma,POW.T8.Theta,POW.T8.Alpha,POW.T8.BetaL,POW.T8.BetaH,POW.T8.Gamma,POW.FC6.Theta,POW.FC6.Alpha,POW.FC6.BetaL,POW.FC6.BetaH,POW.FC6.Gamma,POW.F4.Theta,POW.F4.Alpha,POW.F4.BetaL,POW.F4.BetaH,POW.F4.Gamma,POW.F8.Theta,POW.F8.Alpha,POW.F8.BetaL,POW.F8.BetaH,POW.F8.Gamma,POW.AF4.Theta,POW.AF4.Alpha,POW.AF4.BetaL,POW.AF4.BetaH,POW.AF4.Gamma
1738755559.552014,1738755559.552691,74.000000,0.000000,4323.974121,4350.641113,4251.025879,4302.692383,4350.128418,4359.102539,4365.000000,4547.948730,4538.205078,4560.641113,4495.384766,5658.589844,4311.666504,4254.487305,0.000000,3.000000,74.000000,,,,0.000000,0.000000,0.000000,0.000000,0.000000,0.000000,0.000000,0.000000,0.000000,0.000000,0.000000,0.000000,0.000000,0.000000,0.000000,0.000000,,,,,,,,,,,,,,,,,,,,,,,,,,,,,,,,,,,,,,,,,,,,,,,,,,,,,,,,,,,,,,,,,,,,,,,,,,,,,,,,,,,,,,,,,,,,,,,,,,,,,,,,,,,,,,,,,,,,,,,,,,,,,,,,,
1738755559.559822,1738755559.560599,75.000000,0.000000,4321.025879,4355.000000,4252.436035,4304.871582,4351.794922,4361.538574,4366.794922,4549.871582,4537.307617,4558.077148,4494.871582,5662.948730,4311.282227,4255.897461,0.000000,3.000000,74.000000,,,,0.000000,0.000000,0.000000,0.000000,0.000000,0.000000,0.000000,0.000000,0.000000,0.000000,0.000000,0.000000,0.000000,0.000000,0.000000,0.000000,,,,,,,,,,,,,,,,,,,,,,,,,,,,,,,,,,,,,,,,,,,,,,,,,,,,,,,,,,,,,,,,,,,,,,,,,,,,,,,,,,,,,,,,,,,,,,,,,,,,,,,,,,,,,,,,,,,,,,,,,,,,,,,,,
1738755559.567630,1738755559.568407,76.000000,0.000000,4321.538574,4351.666504,4253.333496,4303.846191,4352.436035,4359.615234,4367.179688,4551.025879,4537.436035,4557.563965,4492.563965,5666.410156,4310.128418,4255.641113,0.000000,3.000000,74.000000,,,,0.000000,0.000000,0.000000,0.000000,0.000000,0.000000,0.000000,0.000000,0.000000,0.000000,0.000000,0.000000,0.000000,0.000000,0.000000,0.000000,,,,,,,,,,,,,,,,,19.000000,0.000000,0.785233,-0.615906,-0.058777,0.024780,0.068856,-0.972287,0.230497,4.450001,-14.994403,22.705538,,,,,,,,,,,,,,,,,,,,,,,,,,,,,,,,,,,,,,,,,,,,,,,,,,,,,,,,,,,,,,,,,,,,,,,,,,,,,,,,,,,,,,,,,,,,,,,,,,,,,
1738755559.575438,1738755559.576315,77.000000,0.000000,4326.538574,4349.230957,4254.230957,4303.461426,4352.692383,4358.461426,4366.282227,4550.000000,4540.641113,4559.102539,4495.128418,5661.025879,4314.230957,4257.436035,0.000000,3.000000,74.000000,,,,0.000000,0.000000,0.000000,0.000000,0.000000,0.000000,0.000000,0.000000,0.000000,0.000000,0.000000,0.000000,0.000000,0.000000,0.000000,0.000000,,,,,,,,,,,,,,,,,,,,,,,,,,,,,,,,,,,,,,,,,,,,,,,,,,,,,,,,,,,,,,,,,,,,,,,,,,,,,,,,,,,,,,,,,,,,,,,,,,,,,,,,,,,,,,,,,,,,,,,,,,,,,,,,,
1738755559.583246,1738755559.584124,78.000000,0.000000,4326.922852,4350.000000,4256.922852,4305.641113,4352.948730,4360.641113,4370.384766,4554.230957,4538.589844,4558.589844,4495.769043,5665.897461,4308.974121,4254.230957,0.000000,3.000000,74.000000,,,,0.000000,0.000000,0.000000,0.000000,0.000000,0.000000,0.000000,0.000000,0.000000,0.000000,0.000000,0.000000,0.000000,0.000000,0.000000,0.000000,,,,,,,,,,,,,,,,,,,,,,,,,,,,,,,,,,,,,,,,,,,,,,,,,,,,,,,,,,,,0.042231,0.025507,0.024698,0.023810,0.021546,0.016279,0.009333,0.015688,0.010872,0.023008,0.017071,0.020438,0.025348,0.016335,0.025768,0.062595,0.035462,0.025399,0.021353,0.021386,0.015508,0.015513,0.035833,0.031331,0.023779,0.015588,0.030082,0.024213,0.005661,0.029486,0.024000,0.041427,0.066729,0.020020,0.020312,0.028207,0.048831,0.030920,0.028344,0.031467,0.042513,0.025070,0.024729,0.025785,0.020248,0.030360,0.017028,0.020677,0.011166,0.021333,0.022366,0.017772,0.012317,0.016137,0.034865,0.012999,0.052176,0.041973,0.013202,0.025431,0.034815,0.015076,0.022387,0.051708,0.041160,0.024641,0.042609,0.056804,0.036166,0.040391
1738755559.591054,1738755559.592032,79.000000,0.000000,4320.769043,4348.077148,4256.410156,4303.461426,4352.179688,4361.153809,4366.410156,4550.641113,4538.589844,4561.025879,4493.717773,5667.307617,4311.153809,4254.487305,0.000000,3.000000,74.000000,,,,0.000000,0.000000,0.000000,0.000000,0.000000,0.000000,0.000000,0.000000,0.000000,0.000000,0.000000,0.000000,0.000000,0.000000,0.000000,0.000000,,,,,,,,,,,,,,,,,,,,,,,,,,,,,,,,,,,,,,,,,,,,,,,,,,,,,,,,,,,,,,,,,,,,,,,,,,,,,,,,,,,,,,,,,,,,,,,,,,,,,,,,,,,,,,,,,,,,,,,,,,,,,,,,,
1738755559.598862,1738755559.599840,80.000000,0.000000,4321.282227,4348.077148,4253.846191,4301.538574,4351.538574,4360.897461,4363.846191,4546.410156,4540.897461,4561.410156,4493.205078,5662.563965,4310.384766,4257.051270,0.000000,3.000000,74.000000,,,,0.000000,0.000000,0.000000,0.000000,0.000000,0.000000,0.000000,0.000000,0.000000,0.000000,0.000000,0.000000,0.000000,0.000000,0.000000,0.000000,,,,,,,,,,,,,,,,,20.000000,0.000000,0.785231,-0.615906,-0.058838,0.024719,0.060554,-0.964473,0.226590,4.405001,-14.961629,22.734983,,,,,,,,,,,,,,,,,,,,,,,,,,,,,,,,,,,,,,,,,,,,,,,,,,,,,,,,,,,,,,,,,,,,,,,,,,,,,,,,,,,,,,,,,,,,,,,,,,,,,
1738755559.606670,1738755559.607748,81.000000,0.000000,4323.846191,4351.922852,4253.077148,4300.000000,4351.153809,4361.410156,4366.922852,4551.666504,4540.384766,4558.589844,4493.333496,5664.487305,4308.461426,4256.794922,0.000000,3.000000,74.000000,,,,0.000000,0.000000,0.000000,0.000000,0.000000,0.000000,0.000000,0.000000,0.000000,0.000000,0.000000,0.000000,0.000000,0.000000,0.000000,0.000000,,,,,,,,,,,,,,,,,,,,,,,,,,,,,,,,,,,,,,,,,,,,,,,,,,,,,,,,,,,,,,,,,,,,,,,,,,,,,,,,,,,,,,,,,,,,,,,,,,,,,,,,,,,,,,,,,,,,,,,,,,,,,,,,,
1738755559.614478,1738755559.615556,82.000000,0.000000,4320.897461,4351.153809,4254.871582,4298.077148,4351.282227,4361.794922,4363.333496,4551.794922,4541.794922,4559.487305,4494.487305,5664.358887,4315.384766,4254.487305,0.000000,3.000000,74.000000,,,,0.000000,0.000000,0.000000,0.000000,0.000000,0.000000,0.000000,0.000000,0.000000,0.000000,0.000000,0.000000,0.000000,0.000000,0.000000,0.000000,,,,,,,,,,,,,,,,,,,,,,,,,,,,,,,,,,,,,,,,,,,,,,,,,,,,,,,,,,,,,,,,,,,,,,,,,,,,,,,,,,,,,,,,,,,,,,,,,,,,,,,,,,,,,,,,,,,,,,,,,,,,,,,,,
1738755559.622286,1738755559.623364,83.000000,0.000000,4319.487305,4347.307617,4257.307617,4302.436035,4352.179688,4360.769043,4363.717773,4550.128418,4542.692383,4560.000000,4493.589844,5664.871582,4305.256348,4251.282227,0.000000,3.000000,74.000000,,,,0.000000,0.000000,0.000000,0.000000,0.000000,0.000000,0.000000,0.000000,0.000000,0.000000,0.000000,0.000000,0.000000,0.000000,0.000000,0.000000,,,,,,,,,,,,,,,,,,,,,,,,,,,,,,,,,,,,,,,,,,,,,,,,,,,,,,,,,,,,,,,,,,,,,,,,,,,,,,,,,,,,,,,,,,,,,,,,,,,,,,,,,,,,,,,,,,,,,,,,,,,,,,,,,
1738755559.630095,1738755559.631173,84.000000,0.000000,4321.153809,4350.897461,4255.384766,4302.436035,4352.692383,4360.000000,4363.846191,4550.256348,4542.179688,4560.769043,4493.205078,5662.948730,4304.487305,4259.743652,0.000000,3.000000,74.000000,,,,0.000000,0.000000,0.000000,0.000000,0.000000,0.000000,0.000000,0.000000,0.000000,0.000000,0.000000,0.000000,0.000000,0.000000,0.000000,0.000000,,,,,,,,,,,,,,,,,21.000000,0.000000,0.785278,-0.615845,-0.058838,0.024719,0.060554,-0.976682,0.230497,4.464501,-14.915466,22.744818,,,,,,,,,,,,,,,,,,,,,,,,,,,,,,,,,,,,,,,,,,,,,,,,,,,,,,,,,,,,,,,,,,,,,,,,,,,,,,,,,,,,,,,,,,,,,,,,,,,,,
1738755559.637903,1738755559.638881,85.000000,0.000000,4320.897461,4352.051270,4253.717773,4300.512695,4352.179688,4360.641113,4362.820313,4550.000000,4541.666504,4563.333496,4493.846191,5662.051270,4313.589844,4261.282227,0.000000,3.000000,74.000000,,,,0.000000,0.000000,0.000000,0.000000,0.000000,0.000000,0.000000,0.000000,0.000000,0.000000,0.000000,0.000000,0.000000,0.000000,0.000000,0.000000,,,,,,,,,,,,,,,,,,,,,,,,,,,,,,,,,,,,,,,,,,,,,,,,,,,,,,,,,,,,,,,,,,,,,,,,,,,,,,,,,,,,,,,,,,,,,,,,,,,,,,,,,,,,,,,,,,,,,,,,,,,,,,,,,
1738755559.645711,1738755559.646689,86.000000,0.000000,4321.282227,4350.000000,4255.000000,4302.179688,4352.692383,4359.358887,4366.922852,4552.563965,4539.743652,4562.051270,4494.871582,5664.230957,4307.051270,4252.692383,0.000000,3.000000,74.000000,,,,0.000000,0.000000,0.000000,0.000000,0.000000,0.000000,0.000000,0.000000,0.000000,0.000000,0.000000,0.000000,0.000000,0.000000,0.000000,0.000000,,,,,,,,,,,,,,,,,,,,,,,,,,,,,,,,,,,,,,,,,,,,,,,,,,,,,,,,,,,,,,,,,,,,,,,,,,,,,,,,,,,,,,,,,,,,,,,,,,,,,,,,,,,,,,,,,,,,,,,,,,,,,,,,,
1738755559.653519,1738755559.654398,87.000000,0.000000,4323.846191,4353.077148,4256.410156,4300.641113,4354.358887,4358.077148,4366.922852,4551.922852,4540.641113,4560.641113,4496.025879,5658.205078,4307.051270,4257.563965,0.000000,3.000000,74.000000,,,,0.000000,0.000000,0.000000,0.000000,0.000000,0.000000,0.000000,0.000000,0.000000,0.000000,0.000000,0.000000,0.000000,0.000000,0.000000,0.000000,,,,,,,,,,,,,,,,,,,,,,,,,,,,,,,,,,,,,,,,,,,,,,,,,,,,,,,,,,,,,,,,,,,,,,,,,,,,,,,,,,,,,,,,,,,,,,,,,,,,,,,,,,,,,,,,,,,,,,,,,,,,,,,,,
1738755559.661327,1738755559.662306,88.000000,0.000000,4324.358887,4353.205078,4256.538574,4303.589844,4353.846191,4360.128418,4366.282227,4550.897461,4540.128418,4561.153809,4494.615234,5660.128418,4304.743652,4257.563965,0.000000,3.000000,74.000000,,,,0.000000,0.000000,0.000000,0.000000,0.000000,0.000000,0.000000,0.000000,0.000000,0.000000,0.000000,0.000000,0.000000,0.000000,0.000000,0.000000,,,,,,,,,,,,,,,,,22.000000,0.000000,0.785365,-0.615723,-0.058960,0.024719,0.072274,-0.978147,0.226102,4.351384,-15.040586,22.887003,,,,,,,,,,,,,,,,,,,,,,,,,,,,,,,,,,,,,,,,,,,,,,,,,,,,,,,,,,,,,,,,,,,,,,,,,,,,,,,,,,,,,,,,,,,,,,,,,,,,,
1738755559.669135,1738755559.670114,89.000000,0.000000,4320.641113,4351.153809,4255.641113,4303.461426,4351.666504,4360.769043,4363.974121,4548.589844,4538.589844,4560.384766,4495.641113,5666.153809,4308.077148,4252.051270,0.000000,3.000000,74.000000,,,,0.000000,0.000000,0.000000,0.000000,0.000000,0.000000,0.000000,0.000000,0.000000,0.000000,0.000000,0.000000,0.000000,0.000000,0.000000,0.000000,,,,,,,,,,,,,,,,,,,,,,,,,,,,,,,,,,,,,,,,,,,,,,,,,,,,,,,,,,,,,,,,,,,,,,,,,,,,,,,,,,,,,,,,,,,,,,,,,,,,,,,,,,,,,,,,,,,,,,,,,,,,,,,,,
1738755559.676943,1738755559.677922,90.000000,0.000000,4320.897461,4349.615234,4254.487305,4300.128418,4351.538574,4358.205078,4362.820313,4547.307617,4538.205078,4560.128418,4496.153809,5665.512695,4315.128418,4255.000000,0.000000,3.000000,74.000000,,,,0.000000,0.000000,0.000000,0.000000,0.000000,0.000000,0.000000,0.000000,0.000000,0.000000,0.000000,0.000000,0.000000,0.000000,0.000000,0.000000,,,,,,,,,,,,,,,,,,,,,,,,,,,,,,,,,,,,,,,,,,,,,,,,,,,,,,,,,,,,,,,,,,,,,,,,,,,,,,,,,,,,,,,,,,,,,,,,,,,,,,,,,,,,,,,,,,,,,,,,,,,,,,,,,
1738755559.684751,1738755559.685630,91.000000,0.000000,4323.974121,4348.205078,4253.589844,4301.538574,4351.922852,4359.358887,4366.153809,4551.538574,4537.051270,4561.153809,4494.487305,5666.153809,4308.333496,4255.128418,0.000000,3.000000,74.000000,,,,0.000000,0.000000,0.000000,0.000000,0.000000,0.000000,0.000000,0.000000,0.000000,0.000000,0.000000,0.000000,0.000000,0.000000,0.000000,0.000000,,,,,,,,,,,,,,,,,,,,,,,,,,,,,,,,,,,,,,,,,,,,,,,,,,,,,,,,,,,,,,,,,,,,,,,,,,,,,,,,,,,,,,,,,,,,,,,,,,,,,,,,,,,,,,,,,,,,,,,,,,,,,,,,,
1738755559.692559,1738755559.693438,92.000000,0.000000,4322.436035,4350.769043,4253.461426,4301.282227,4351.153809,4362.692383,4362.948730,4550.641113,4541.025879,4560.641113,4497.436035,5662.948730,4308.974121,4255.128418,0.000000,3.000000,74.000000,,,,0.000000,0.000000,0.000000,0.000000,0.000000,0.000000,0.000000,0.000000,0.000000,0.000000,0.000000,0.000000,0.000000,0.000000,0.000000,0.000000,,,,,,,,,,,,,,,,,23.000000,0.000000,0.785413,-0.615662,-0.058960,0.024719,0.071786,-0.978635,0.238310,4.249579,-15.203195,23.048304,,,,,,,,,,,,,,,,,,,,,,,,,,,,,,,,,,,,,,,,,,,,,,,,,,,,,,,,,,,,,,,,,,,,,,,,,,,,,,,,,,,,,,,,,,,,,,,,,,,,,
1738755559.700368,1738755559.701146,93.000000,0.000000,4322.563965,4351.153809,4253.333496,4303.077148,4351.153809,4361.153809,4362.563965,4549.230957,4542.307617,4559.615234,4497.563965,5662.563965,4307.307617,4253.717773,0.000000,3.000000,74.000000,,,,0.000000,0.000000,0.000000,0.000000,0.000000,0.000000,0.000000,0.000000,0.000000,0.000000,0.000000,0.000000,0.000000,0.000000,0.000000,0.000000,,,,,,,,,,,,,,,,,,,,,,,,,,,,,,,,,,,,,,,,,,,,,,,,,,,,,,,,,,,,,,,,,,,,,,,,,,,,,,,,,,,,,,,,,,,,,,,,,,,,,,,,,,,,,,,,,,,,,,,,,,,,,,,,,
1738755559.708176,1738755559.708954,94.000000,0.000000,4323.333496,4351.153809,4254.358887,4303.461426,4350.128418,4357.820313,4363.333496,4549.871582,4539.102539,4560.384766,4494.102539,5662.820313,4307.563965,4253.974121,0.000000,3.000000,74.000000,,,,0.000000,0.000000,0.000000,0.000000,0.000000,0.000000,0.000000,0.000000,0.000000,0.000000,0.000000,0.000000,0.000000,0.000000,0.000000,0.000000,1.000000,0.000000,0.000000,0.000000,0.000000,0.000000,0.000000,0.000000,0.000000,0.000000,0.000000,0.000000,0.000000,0.000000,0.000000,0.000000,,,,,,,,,,,,,,,,,,,,,,,,,,,,,,,,,,,,,,,,,,,,0.035224,0.024761,0.024820,0.021391,0.024994,0.017626,0.010337,0.012525,0.012835,0.020889,0.020994,0.020224,0.022898,0.015757,0.028122,0.064031,0.044058,0.021886,0.017843,0.023334,0.018209,0.014891,0.049768,0.036374,0.024829,0.013664,0.032221,0.029617,0.006359,0.029968,0.024494,0.040789,0.062070,0.020225,0.022469,0.025519,0.053864,0.034265,0.028475,0.032520,0.038854,0.027478,0.025549,0.029101,0.019547,0.028577,0.021311,0.020583,0.010181,0.024630,0.024384,0.016571,0.014045,0.015976,0.029925,0.015934,0.046892,0.041555,0.012167,0.026070,0.026041,0.015574,0.014877,0.051110,0.037175,0.022664,0.039545,0.060214,0.038092,0.038374
1738755559.715984,1738755559.716662,95.000000,0.000000,4323.461426,4352.820313,4256.794922,4304.102539,4349.743652,4358.077148,4360.769043,4549.358887,4538.846191,4562.563965,4495.000000,5661.282227,4312.820313,4257.307617,0.000000,3.000000,74.000000,,,,0.000000,0.000000,0.000000,0.000000,0.000000,0.000000,0.000000,0.000000,0.000000,0.000000,0.000000,0.000000,0.000000,0.000000,0.000000,0.000000,,,,,,,,,,,,,,,,,,,,,,,,,,,,,,,,,,,,,,,,,,,,,,,,,,,,,,,,,,,,,,,,,,,,,,,,,,,,,,,,,,,,,,,,,,,,,,,,,,,,,,,,,,,,,,,,,,,,,,,,,,,,,,,,,
1738755559.723792,1738755559.724470,96.000000,0.000000,4323.846191,4351.153809,4256.538574,4308.589844,4349.615234,4360.512695,4366.153809,4549.615234,4537.820313,4561.794922,4497.563965,5664.871582,4306.410156,4256.666504,0.000000,3.000000,74.000000,,,,0.000000,0.000000,0.000000,0.000000,0.000000,0.000000,0.000000,0.000000,0.000000,0.000000,0.000000,0.000000,0.000000,0.000000,0.000000,0.000000,,,,,,,,,,,,,,,,,24.000000,0.000000,0.785410,-0.615662,-0.059021,0.024658,0.058601,-0.983518,0.242217,4.224621,-15.199541,23.010139,,,,,,,,,,,,,,,,,,,,,,,,,,,,,,,,,,,,,,,,,,,,,,,,,,,,,,,,,,,,,,,,,,,,,,,,,,,,,,,,,,,,,,,,,,,,,,,,,,,,,
1738755559.731600,1738755559.732178,97.000000,0.000000,4320.769043,4350.256348,4252.820313,4302.436035,4348.205078,4360.512695,4368.461426,4547.563965,4539.487305,4559.358887,4497.436035,5662.051270,4307.692383,4256.538574,0.000000,3.000000,74.000000,,,,0.000000,0.000000,0.000000,0.000000,0.000000,0.000000,0.000000,0.000000,0.000000,0.000000,0.000000,0.000000,0.000000,0.000000,0.000000,0.000000,,,,,,,,,,,,,,,,,,,,,,,,,,,,,,,,,,,,,,,,,,,,,,,,,,,,,,,,,,,,,,,,,,,,,,,,,,,,,,,,,,,,,,,,,,,,,,,,,,,,,,,,,,,,,,,,,,,,,,,,,,,,,,,,,
1738755559.739408,1738755559.739986,98.000000,0.000000,4321.153809,4349.871582,4251.666504,4298.589844,4351.282227,4360.897461,4365.256348,4549.487305,4540.000000,4558.846191,4495.128418,5662.820313,4309.743652,4252.051270,0.000000,3.000000,74.000000,,,,0.000000,0.000000,0.000000,0.000000,0.000000,0.000000,0.000000,0.000000,0.000000,0.000000,0.000000,0.000000,0.000000,0.000000,0.000000,0.000000,,,,,,,,,,,,,,,,,,,,,,,,,,,,,,,,,,,,,,,,,,,,,,,,,,,,,,,,,,,,,,,,,,,,,,,,,,,,,,,,,,,,,,,,,,,,,,,,,,,,,,,,,,,,,,,,,,,,,,,,,,,,,,,,,
1738755559.747216,1738755559.747694,99.000000,0.000000,4323.846191,4348.333496,4253.717773,4303.974121,4356.153809,4361.282227,4365.512695,4550.641113,4538.077148,4561.153809,4496.922852,5666.794922,4310.769043,4255.128418,0.000000,3.000000,74.000000,,,,0.000000,0.000000,0.000000,0.000000,0.000000,0.000000,0.000000,0.000000,0.000000,0.000000,0.000000,0.000000,0.000000,0.000000,0.000000,0.000000,,,,,,,,,,,,,,,,,,,,,,,,,,,,,,,,,,,,,,,,,,,,,,,,,,,,,,,,,,,,,,,,,,,,,,,,,,,,,,,,,,,,,,,,,,,,,,,,,,,,,,,,,,,,,,,,,,,,,,,,,,,,,,,,,
1738755559.755024,1738755559.755602,100.000000,0.000000,4321.282227,4349.102539,4254.230957,4303.846191,4353.589844,4360.256348,4365.769043,4546.538574,4539.615234,4560.769043,4499.358887,5661.410156,4312.820313,4261.922852,0.000000,3.000000,74.000000,,,,0.000000,0.000000,0.000000,0.000000,0.000000,0.000000,0.000000,0.000000,0.000000,0.000000,0.000000,0.000000,0.000000,0.000000,0.000000,0.000000,,,,,,,,,,,,,,,,,25.000000,0.000000,0.785360,-0.615723,-0.059021,0.024719,0.074228,-0.961055,0.234892,4.518826,-15.296254,22.959126,,,,,,,,,,,,,,,,,,,,,,,,,,,,,,,,,,,,,,,,,,,,,,,,,,,,,,,,,,,,,,,,,,,,,,,,,,,,,,,,,,,,,,,,,,,,,,,,,,,,,
1738755559.762832,1738755559.763411,101.000000,0.000000,4322.436035,4349.358887,4255.000000,4302.820313,4351.666504,4360.000000,4363.846191,4549.358887,4540.641113,4557.563965,4497.179688,5661.794922,4306.666504,4255.256348,0.000000,3.000000,74.000000,,,,0.000000,0.000000,0.000000,0.000000,0.000000,0.000000,0.000000,0.000000,0.000000,0.000000,0.000000,0.000000,0.000000,0.000000,0.000000,0.000000,,,,,,,,,,,,,,,,,,,,,,,,,,,,,,,,,,,,,,,,,,,,,,,,,,,,,,,,,,,,,,,,,,,,,,,,,,,,,,,,,,,,,,,,,,,,,,,,,,,,,,,,,,,,,,,,,,,,,,,,,,,,,,,,,
1738755559.770640,1738755559.771319,102.000000,0.000000,4327.179688,4349.358887,4255.512695,4301.282227,4354.615234,4361.538574,4361.922852,4551.282227,4540.897461,4559.487305,4496.153809,5663.974121,4314.487305,4254.615234,0.000000,3.000000,74.000000,,,,0.000000,0.000000,0.000000,0.000000,0.000000,0.000000,0.000000,0.000000,0.000000,0.000000,0.000000,0.000000,0.000000,0.000000,0.000000,0.000000,,,,,,,,,,,,,,,,,,,,,,,,,,,,,,,,,,,,,,,,,,,,,,,,,,,,,,,,,,,,,,,,,,,,,,,,,,,,,,,,,,,,,,,,,,,,,,,,,,,,,,,,,,,,,,,,,,,,,,,,,,,,,,,,,
1738755559.778448,1738755559.779127,103.000000,0.000000,4325.769043,4351.410156,4256.025879,4301.538574,4353.205078,4363.589844,4368.974121,4549.102539,4541.410156,4560.256348,4495.000000,5662.820313,4316.025879,4258.589844,0.000000,3.000000,74.000000,,,,0.000000,0.000000,0.000000,0.000000,0.000000,0.000000,0.000000,0.000000,0.000000,0.000000,0.000000,0.000000,0.000000,0.000000,0.000000,0.000000,,,,,,,,,,,,,,,,,,,,,,,,,,,,,,,,,,,,,,,,,,,,,,,,,,,,,,,,,,,,,,,,,,,,,,,,,,,,,,,,,,,,,,,,,,,,,,,,,,,,,,,,,,,,,,,,,,,,,,,,,,,,,,,,,
1738755559.786257,1738755559.787035,104.000000,0.000000,4322.563965,4352.179688,4255.769043,4304.615234,4348.717773,4363.461426,4372.948730,4549.230957,4542.051270,4556.922852,4495.897461,5663.205078,4308.205078,4256.538574,0.000000,3.000000,74.000000,,,,0.000000,0.000000,0.000000,0.000000,0.000000,0.000000,0.000000,0.000000,0.000000,0.000000,0.000000,0.000000,0.000000,0.000000,0.000000,0.000000,,,,,,,,,,,,,,,,,26.000000,0.000000,0.785360,-0.615723,-0.059021,0.024719,0.066903,-0.971310,0.230497,4.516943,-15.216629,22.779879,,,,,,,,,,,,,,,,,,,,,,,,,,,,,,,,,,,,,,,,,,,,,,,,,,,,,,,,,,,,,,,,,,,,,,,,,,,,,,,,,,,,,,,,,,,,,,,,,,,,,
1738755559.794065,1738755559.794843,105.000000,0.000000,4322.436035,4351.025879,4255.384766,4302.051270,4349.615234,4363.077148,4367.563965,4550.512695,4542.563965,4560.256348,4498.205078,5661.794922,4315.641113,4256.025879,0.000000,3.000000,74.000000,,,,0.000000,0.000000,0.000000,0.000000,0.000000,0.000000,0.000000,0.000000,0.000000,0.000000,0.000000,0.000000,0.000000,0.000000,0.000000,0.000000,,,,,,,,,,,,,,,,,,,,,,,,,,,,,,,,,,,,,,,,,,,,,,,,,,,,,,,,,,,,,,,,,,,,,,,,,,,,,,,,,,,,,,,,,,,,,,,,,,,,,,,,,,,,,,,,,,,,,,,,,,,,,,,,,
1738755559.801873,1738755559.802651,106.000000,0.000000,4322.307617,4349.743652,4255.256348,4302.179688,4351.666504,4363.461426,4368.077148,4552.179688,4539.230957,4563.974121,4495.769043,5664.871582,4309.743652,4253.717773,0.000000,3.000000,74.000000,,,,0.000000,0.000000,0.000000,0.000000,0.000000,0.000000,0.000000,0.000000,0.000000,0.000000,0.000000,0.000000,0.000000,0.000000,0.000000,0.000000,,,,,,,,,,,,,,,,,,,,,,,,,,,,,,,,,,,,,,,,,,,,,,,,,,,,,,,,,,,,,,,,,,,,,,,,,,,,,,,,,,,,,,,,,,,,,,,,,,,,,,,,,,,,,,,,,,,,,,,,,,,,,,,,,
1738755559.809681,1738755559.810460,107.000000,0.000000,4320.512695,4351.153809,4253.205078,4302.436035,4350.384766,4360.512695,4366.282227,4551.025879,4539.743652,4561.282227,4496.922852,5663.589844,4306.794922,4256.025879,0.000000,3.000000,74.000000,,,,0.000000,0.000000,0.000000,0.000000,0.000000,0.000000,0.000000,0.000000,0.000000,0.000000,0.000000,0.000000,0.000000,0.000000,0.000000,0.000000,,,,,,,,,,,,,,,,,,,,,,,,,,,,,,,,,,,,,,,,,,,,,,,,,,,,,,,,,,,,,,,,,,,,,,,,,,,,,,,,,,,,,,,,,,,,,,,,,,,,,,,,,,,,,,,,,,,,,,,,,,,,,,,,,
1738755559.817489,1738755559.818368,108.000000,0.000000,4322.179688,4352.307617,4255.000000,4301.025879,4349.487305,4358.333496,4363.846191,4550.512695,4541.153809,4558.717773,4499.871582,5663.333496,4311.538574,4258.846191,0.000000,3.000000,74.000000,,,,0.000000,0.000000,0.000000,0.000000,0.000000,0.000000,0.000000,0.000000,0.000000,0.000000,0.000000,0.000000,0.000000,0.000000,0.000000,0.000000,,,,,,,,,,,,,,,,,27.000000,0.000000,0.785365,-0.615723,-0.058960,0.024719,0.071298,-0.978635,0.235869,4.498582,-15.294966,22.768559,,,,,,,,,,,,,,,,,,,,,,,,,,,,,,,,,,,,,,,,,,,,,,,,,,,,,,,,,,,,,,,,,,,,,,,,,,,,,,,,,,,,,,,,,,,,,,,,,,,,,
1738755559.825297,1738755559.826176,109.000000,0.000000,4323.589844,4349.487305,4257.179688,4301.666504,4350.897461,4360.000000,4366.922852,4550.641113,4539.102539,4559.871582,4497.179688,5667.051270,4307.563965,4254.743652,0.000000,3.000000,74.000000,,,,0.000000,0.000000,0.000000,0.000000,0.000000,0.000000,0.000000,0.000000,0.000000,0.000000,0.000000,0.000000,0.000000,0.000000,0.000000,0.000000,,,,,,,,,,,,,,,,,,,,,,,,,,,,,,,,,,,,,,,,,,,,,,,,,,,,,,,,,,,,,,,,,,,,,,,,,,,,,,,,,,,,,,,,,,,,,,,,,,,,,,,,,,,,,,,,,,,,,,,,,,,,,,,,,
1738755559.833105,1738755559.833884,110.000000,0.000000,4321.666504,4347.436035,4253.205078,4300.641113,4353.846191,4360.641113,4366.025879,4546.922852,4543.333496,4561.538574,4496.282227,5662.563965,4313.589844,4254.615234,0.000000,3.000000,74.000000,,,,0.000000,0.000000,0.000000,0.000000,0.000000,0.000000,0.000000,0.000000,0.000000,0.000000,0.000000,0.000000,0.000000,0.000000,0.000000,0.000000,,,,,,,,,,,,,,,,,,,,,,,,,,,,,,,,,,,,,,,,,,,,,,,,,,,,,,,,,,,,0.029066,0.024618,0.025717,0.019623,0.028447,0.017869,0.012947,0.010413,0.015438,0.020362,0.024356,0.019441,0.019495,0.015914,0.030547,0.061740,0.051174,0.019118,0.015180,0.024726,0.022541,0.013663,0.061080,0.038296,0.026107,0.012302,0.032097,0.032661,0.007389,0.030121,0.027681,0.036831,0.053717,0.020771,0.025830,0.024144,0.058645,0.035184,0.029091,0.033015,0.034316,0.029541,0.027129,0.032569,0.020276,0.029598,0.026136,0.021883,0.010594,0.028509,0.027342,0.017359,0.015158,0.015499,0.025845,0.019472,0.040575,0.040481,0.012845,0.027085,0.021966,0.018763,0.011845,0.049258,0.034021,0.022116,0.036172,0.060370,0.038842,0.036481
1738755559.840913,1738755559.841692,111.000000,0.000000,4323.974121,4349.230957,4253.077148,4302.563965,4354.487305,4361.282227,4366.282227,4548.717773,4543.205078,4560.512695,4496.538574,5665.000000,4313.846191,4255.641113,0.000000,3.000000,74.000000,,,,0.000000,0.000000,0.000000,0.000000,0.000000,0.000000,0.000000,0.000000,0.000000,0.000000,0.000000,0.000000,0.000000,0.000000,0.000000,0.000000,,,,,,,,,,,,,,,,,,,,,,,,,,,,,,,,,,,,,,,,,,,,,,,,,,,,,,,,,,,,,,,,,,,,,,,,,,,,,,,,,,,,,,,,,,,,,,,,,,,,,,,,,,,,,,,,,,,,,,,,,,,,,,,,,
1738755559.848721,1738755559.849401,112.000000,0.000000,4324.230957,4351.666504,4256.410156,4303.589844,4349.487305,4363.461426,4367.436035,4550.128418,4537.179688,4560.641113,4495.897461,5666.282227,4311.153809,4257.820313,0.000000,3.000000,74.000000,,,,0.000000,0.000000,0.000000,0.000000,0.000000,0.000000,0.000000,0.000000,0.000000,0.000000,0.000000,0.000000,0.000000,0.000000,0.000000,0.000000,,,,,,,,,,,,,,,,,28.000000,0.000000,0.785410,-0.615662,-0.059021,0.024658,0.069833,-0.975705,0.234404,4.548724,-15.298802,22.775036,,,,,,,,,,,,,,,,,,,,,,,,,,,,,,,,,,,,,,,,,,,,,,,,,,,,,,,,,,,,,,,,,,,,,,,,,,,,,,,,,,,,,,,,,,,,,,,,,,,,,
1738755559.856530,1738755559.857209,113.000000,0.000000,4322.563965,4350.000000,4255.897461,4301.410156,4348.205078,4365.000000,4366.922852,4545.897461,4537.051270,4561.410156,4496.538574,5659.743652,4311.922852,4260.256348,0.000000,3.000000,74.000000,,,,0.000000,0.000000,0.000000,0.000000,0.000000,0.000000,0.000000,0.000000,0.000000,0.000000,0.000000,0.000000,0.000000,0.000000,0.000000,0.000000,,,,,,,,,,,,,,,,,,,,,,,,,,,,,,,,,,,,,,,,,,,,,,,,,,,,,,,,,,,,,,,,,,,,,,,,,,,,,,,,,,,,,,,,,,,,,,,,,,,,,,,,,,,,,,,,,,,,,,,,,,,,,,,,,
1738755559.864338,1738755559.864917,114.000000,0.000000,4323.461426,4348.461426,4254.358887,4303.205078,4352.436035,4362.179688,4366.282227,4543.717773,4539.102539,4560.128418,4495.128418,5662.307617,4305.897461,4254.743652,0.000000,3.000000,74.000000,,,,0.000000,0.000000,0.000000,0.000000,0.000000,0.000000,0.000000,0.000000,0.000000,0.000000,0.000000,0.000000,0.000000,0.000000,0.000000,0.000000,,,,,,,,,,,,,,,,,,,,,,,,,,,,,,,,,,,,,,,,,,,,,,,,,,,,,,,,,,,,,,,,,,,,,,,,,,,,,,,,,,,,,,,,,,,,,,,,,,,,,,,,,,,,,,,,,,,,,,,,,,,,,,,,,
1738755559.872146,1738755559.872725,115.000000,0.000000,4319.487305,4350.897461,4254.230957,4302.948730,4353.205078,4357.692383,4362.820313,4545.384766,4541.025879,4559.871582,4497.692383,5663.974121,4310.384766,4255.897461,0.000000,3.000000,74.000000,,,,0.000000,0.000000,0.000000,0.000000,0.000000,0.000000,0.000000,0.000000,0.000000,0.000000,0.000000,0.000000,0.000000,0.000000,0.000000,0.000000,,,,,,,,,,,,,,,,,,,,,,,,,,,,,,,,,,,,,,,,,,,,,,,,,,,,,,,,,,,,,,,,,,,,,,,,,,,,,,,,,,,,,,,,,,,,,,,,,,,,,,,,,,,,,,,,,,,,,,,,,,,,,,,,,
1738755559.879954,1738755559.880433,116.000000,0.000000,4318.846191,4349.743652,4256.153809,4303.589844,4353.974121,4358.974121,4366.153809,4552.307617,4538.974121,4559.871582,4498.205078,5664.743652,4310.000000,4259.487305,0.000000,3.000000,74.000000,,,,0.000000,0.000000,0.000000,0.000000,0.000000,0.000000,0.000000,0.000000,0.000000,0.000000,0.000000,0.000000,0.000000,0.000000,0.000000,0.000000,,,,,,,,,,,,,,,,,29.000000,0.000000,0.785461,-0.615601,-0.058899,0.024841,0.066414,-0.973263,0.231962,4.493852,-15.185589,22.714199,,,,,,,,,,,,,,,,,,,,,,,,,,,,,,,,,,,,,,,,,,,,,,,,,,,,,,,,,,,,,,,,,,,,,,,,,,,,,,,,,,,,,,,,,,,,,,,,,,,,,
1738755559.887762,1738755559.888241,117.000000,0.000000,4324.102539,4347.948730,4257.051270,4303.205078,4355.256348,4360.512695,4367.948730,4550.897461,4538.717773,4560.897461,4493.846191,5663.974121,4307.563965,4257.563965,0.000000,3.000000,74.000000,,,,0.000000,0.000000,0.000000,0.000000,0.000000,0.000000,0.000000,0.000000,0.000000,0.000000,0.000000,0.000000,0.000000,0.000000,0.000000,0.000000,,,,,,,,,,,,,,,,,,,,,,,,,,,,,,,,,,,,,,,,,,,,,,,,,,,,,,,,,,,,,,,,,,,,,,,,,,,,,,,,,,,,,,,,,,,,,,,,,,,,,,,,,,,,,,,,,,,,,,,,,,,,,,,,,
1738755559.895570,1738755559.895949,118.000000,0.000000,4323.846191,4351.282227,4256.025879,4301.666504,4352.563965,4357.563965,4361.666504,4545.769043,4541.794922,4561.282227,4494.743652,5662.563965,4310.769043,4254.102539,0.000000,3.000000,74.000000,,,,0.000000,0.000000,0.000000,0.000000,0.000000,0.000000,0.000000,0.000000,0.000000,0.000000,0.000000,0.000000,0.000000,0.000000,0.000000,0.000000,,,,,,,,,,,,,,,,,,,,,,,,,,,,,,,,,,,,,,,,,,,,,,,,,,,,,,,,,,,,,,,,,,,,,,,,,,,,,,,,,,,,,,,,,,,,,,,,,,,,,,,,,,,,,,,,,,,,,,,,,,,,,,,,,
1738755559.903378,1738755559.903757,119.000000,0.000000,4322.051270,4350.128418,4255.384766,4304.230957,4352.436035,4357.307617,4363.589844,4551.922852,4539.487305,4560.256348,4494.871582,5667.692383,4306.410156,4253.589844,0.000000,3.000000,74.000000,,,,0.000000,0.000000,0.000000,0.000000,0.000000,0.000000,0.000000,0.000000,0.000000,0.000000,0.000000,0.000000,0.000000,0.000000,0.000000,0.000000,,,,,,,,,,,,,,,,,,,,,,,,,,,,,,,,,,,,,,,,,,,,,,,,,,,,,,,,,,,,,,,,,,,,,,,,,,,,,,,,,,,,,,,,,,,,,,,,,,,,,,,,,,,,,,,,,,,,,,,,,,,,,,,,,
1738755559.911186,1738755559.911465,120.000000,0.000000,4321.025879,4347.948730,4256.025879,4301.794922,4354.102539,4360.897461,4366.922852,4552.820313,4538.589844,4560.512695,4496.025879,5663.205078,4311.538574,4259.871582,0.000000,3.000000,74.000000,,,,0.000000,0.000000,0.000000,0.000000,0.000000,0.000000,0.000000,0.000000,0.000000,0.000000,0.000000,0.000000,0.000000,0.000000,0.000000,0.000000,,,,,,,,,,,,,,,,,30.000000,0.000000,0.785460,-0.615601,-0.058899,0.024902,0.058601,-0.982053,0.238799,4.494466,-15.250363,22.726112,,,,,,,,,,,,,,,,,,,,,,,,,,,,,,,,,,,,,,,,,,,,,,,,,,,,,,,,,,,,,,,,,,,,,,,,,,,,,,,,,,,,,,,,,,,,,,,,,,,,,
1738755559.918994,1738755559.919373,121.000000,0.000000,4320.512695,4348.974121,4255.256348,4300.512695,4351.410156,4363.077148,4366.922852,4548.589844,4539.487305,4558.333496,4496.538574,5659.102539,4309.743652,4256.282227,0.000000,3.000000,74.000000,,,,0.000000,0.000000,0.000000,0.000000,0.000000,0.000000,0.000000,0.000000,0.000000,0.000000,0.000000,0.000000,0.000000,0.000000,0.000000,0.000000,,,,,,,,,,,,,,,,,,,,,,,,,,,,,,,,,,,,,,,,,,,,,,,,,,,,,,,,,,,,,,,,,,,,,,,,,,,,,,,,,,,,,,,,,,,,,,,,,,,,,,,,,,,,,,,,,,,,,,,,,,,,,,,,,
1738755559.926803,1738755559.927182,122.000000,0.000000,4319.358887,4347.948730,4252.948730,4303.205078,4347.563965,4362.307617,4366.025879,4548.846191,4540.769043,4557.051270,4494.102539,5661.794922,4305.641113,4251.410156,0.000000,3.000000,74.000000,,,,0.000000,0.000000,0.000000,0.000000,0.000000,0.000000,0.000000,0.000000,0.000000,0.000000,0.000000,0.000000,0.000000,0.000000,0.000000,0.000000,,,,,,,,,,,,,,,,,,,,,,,,,,,,,,,,,,,,,,,,,,,,,,,,,,,,,,,,,,,,,,,,,,,,,,,,,,,,,,,,,,,,,,,,,,,,,,,,,,,,,,,,,,,,,,,,,,,,,,,,,,,,,,,,,
1738755559.934610,1738755559.935090,123.000000,0.000000,4319.871582,4349.102539,4254.102539,4303.077148,4348.461426,4360.000000,4365.641113,4550.384766,4542.307617,4559.487305,4496.153809,5660.128418,4315.384766,4256.282227,0.000000,3.000000,74.000000,,,,0.000000,0.000000,0.000000,0.000000,0.000000,0.000000,0.000000,0.000000,0.000000,0.000000,0.000000,0.000000,0.000000,0.000000,0.000000,0.000000,,,,,,,,,,,,,,,,,,,,,,,,,,,,,,,,,,,,,,,,,,,,,,,,,,,,,,,,,,,,,,,,,,,,,,,,,,,,,,,,,,,,,,,,,,,,,,,,,,,,,,,,,,,,,,,,,,,,,,,,,,,,,,,,,
1738755559.942419,1738755559.942898,124.000000,0.000000,4324.358887,4350.000000,4254.743652,4303.717773,4350.512695,4358.846191,4368.717773,4553.589844,4539.230957,4559.487305,4498.846191,5661.410156,4312.563965,4254.615234,0.000000,3.000000,74.000000,,,,0.000000,0.000000,0.000000,0.000000,0.000000,0.000000,0.000000,0.000000,0.000000,0.000000,0.000000,0.000000,0.000000,0.000000,0.000000,0.000000,,,,,,,,,,,,,,,,,31.000000,0.000000,0.785460,-0.615601,-0.058899,0.024902,0.070809,-0.973752,0.226590,4.545020,-15.208660,22.736834,,,,,,,,,,,,,,,,,,,,,,,,,,,,,,,,,,,,,,,,,,,,,,,,,,,,,,,,,,,,,,,,,,,,,,,,,,,,,,,,,,,,,,,,,,,,,,,,,,,,,
1738755559.950227,1738755559.950806,125.000000,0.000000,4322.563965,4349.102539,4252.179688,4302.051270,4349.230957,4361.282227,4366.282227,4551.410156,4539.615234,4559.615234,4497.436035,5662.307617,4311.922852,4257.307617,0.000000,3.000000,74.000000,,,,0.000000,0.000000,0.000000,0.000000,0.000000,0.000000,0.000000,0.000000,0.000000,0.000000,0.000000,0.000000,0.000000,0.000000,0.000000,0.000000,,,,,,,,,,,,,,,,,,,,,,,,,,,,,,,,,,,,,,,,,,,,,,,,,,,,,,,,,,,,,,,,,,,,,,,,,,,,,,,,,,,,,,,,,,,,,,,,,,,,,,,,,,,,,,,,,,,,,,,,,,,,,,,,,
1738755559.958035,1738755559.958614,126.000000,0.000000,4320.128418,4347.563965,4253.974121,4302.307617,4349.743652,4362.307617,4366.922852,4547.820313,4541.025879,4559.743652,4493.205078,5663.461426,4310.256348,4258.846191,0.000000,3.000000,74.000000,,,,0.000000,0.000000,0.000000,0.000000,0.000000,0.000000,0.000000,0.000000,0.000000,0.000000,0.000000,0.000000,0.000000,0.000000,0.000000,0.000000,,,,,,,,,,,,,,,,,,,,,,,,,,,,,,,,,,,,,,,,,,,,,,,,,,,,,,,,,,,,0.024449,0.025621,0.027820,0.018741,0.031656,0.017558,0.016098,0.010048,0.018506,0.021175,0.027017,0.018539,0.016625,0.016722,0.031928,0.055319,0.054760,0.018505,0.013241,0.025359,0.027528,0.012302,0.066847,0.036929,0.027600,0.011410,0.029382,0.032355,0.008608,0.030075,0.032958,0.030973,0.042636,0.021200,0.029430,0.024860,0.060902,0.033901,0.030481,0.032961,0.031434,0.032100,0.028072,0.035223,0.021620,0.031971,0.029765,0.023506,0.012440,0.031704,0.030233,0.020458,0.015181,0.014600,0.023080,0.022775,0.034384,0.038560,0.015473,0.027957,0.022358,0.024334,0.012800,0.046026,0.032436,0.022597,0.033463,0.058362,0.037751,0.035259
1738755559.965843,1738755559.966522,127.000000,0.000000,4320.641113,4347.563965,4256.153809,4304.102539,4352.436035,4359.358887,4368.846191,4551.410156,4538.589844,4558.717773,4494.358887,5662.948730,4305.256348,4251.794922,74.000000,3.000000,74.000000,,,,0.000000,0.000000,0.000000,0.000000,0.000000,0.000000,0.000000,0.000000,0.000000,0.000000,0.000000,0.000000,0.000000,0.000000,0.000000,0.000000,,,,,,,,,,,,,,,,,,,,,,,,,,,,,,,,,,,,,,,,,,,,,,,,,,,,,,,,,,,,,,,,,,,,,,,,,,,,,,,,,,,,,,,,,,,,,,,,,,,,,,,,,,,,,,,,,,,,,,,,,,,,,,,,,
1738755559.973651,1738755559.974330,0.000000,0.000000,4319.615234,4348.333496,4252.692383,4300.897461,4351.153809,4358.846191,4364.358887,4551.025879,4538.974121,4560.897461,4496.794922,5658.077148,4312.948730,4254.615234,0.000000,3.000000,74.000000,,,,0.000000,0.000000,0.000000,0.000000,0.000000,0.000000,0.000000,0.000000,0.000000,0.000000,0.000000,0.000000,0.000000,0.000000,0.000000,0.000000,,,,,,,,,,,,,,,,,0.000000,0.000000,0.785460,-0.615601,-0.058899,0.024902,0.068856,-0.975705,0.237334,4.507185,-15.037794,22.746485,,,,,,,,,,,,,,,,,,,,,,,,,,,,,,,,,,,,,,,,,,,,,,,,,,,,,,,,,,,,,,,,,,,,,,,,,,,,,,,,,,,,,,,,,,,,,,,,,,,,,
1738755559.981459,1738755559.982239,1.000000,0.000000,4322.563965,4347.563965,4254.102539,4299.615234,4348.333496,4361.538574,4367.948730,4549.743652,4539.487305,4561.025879,4495.256348,5662.179688,4309.743652,4257.692383,0.000000,3.000000,74.000000,,,,0.000000,0.000000,0.000000,0.000000,0.000000,0.000000,0.000000,0.000000,0.000000,0.000000,0.000000,0.000000,0.000000,0.000000,0.000000,0.000000,,,,,,,,,,,,,,,,,,,,,,,,,,,,,,,,,,,,,,,,,,,,,,,,,,,,,,,,,,,,,,,,,,,,,,,,,,,,,,,,,,,,,,,,,,,,,,,,,,,,,,,,,,,,,,,,,,,,,,,,,,,,,,,,,
1738755559.989267,1738755559.990047,2.000000,0.000000,4323.974121,4350.128418,4256.922852,4300.897461,4351.794922,4360.128418,4368.333496,4550.384766,4539.743652,4560.000000,4497.820313,5662.436035,4308.461426,4252.563965,0.000000,3.000000,74.000000,,,,0.000000,0.000000,0.000000,0.000000,0.000000,0.000000,0.000000,0.000000,0.000000,0.000000,0.000000,0.000000,0.000000,0.000000,0.000000,0.000000,,,,,,,,,,,,,,,,,,,,,,,,,,,,,,,,,,,,,,,,,,,,,,,,,,,,,,,,,,,,,,,,,,,,,,,,,,,,,,,,,,,,,,,,,,,,,,,,,,,,,,,,,,,,,,,,,,,,,,,,,,,,,,,,,
1738755559.997075,1738755559.997755,3.000000,0.000000,4323.077148,4349.871582,4253.846191,4304.871582,4354.230957,4357.820313,4364.358887,4548.974121,4540.000000,4561.282227,4499.230957,5659.358887,4312.692383,4249.743652,0.000000,3.000000,74.000000,,,,0.000000,0.000000,0.000000,0.000000,0.000000,0.000000,0.000000,0.000000,0.000000,0.000000,0.000000,0.000000,0.000000,0.000000,0.000000,0.000000,,,,,,,,,,,,,,,,,,,,,,,,,,,,,,,,,,,,,,,,,,,,,,,,,,,,,,,,,,,,,,,,,,,,,,,,,,,,,,,,,,,,,,,,,,,,,,,,,,,,,,,,,,,,,,,,,,,,,,,,,,,,,,,,,
1738755560.004883,1738755560.005563,4.000000,0.000000,4325.384766,4349.358887,4253.205078,4305.769043,4350.384766,4360.128418,4367.436035,4548.333496,4539.743652,4560.769043,4496.282227,5665.769043,4307.179688,4253.589844,0.000000,3.000000,74.000000,,,,0.000000,0.000000,0.000000,0.000000,0.000000,0.000000,0.000000,0.000000,0.000000,0.000000,0.000000,0.000000,0.000000,0.000000,0.000000,0.000000,,,,,,,,,,,,,,,,,1.000000,0.000000,0.785412,-0.615662,-0.058899,0.024902,0.069833,-0.977170,0.235869,4.639800,-15.200682,22.755169,,,,,,,,,,,,,,,,,,,,,,,,,,,,,,,,,,,,,,,,,,,,,,,,,,,,,,,,,,,,,,,,,,,,,,,,,,,,,,,,,,,,,,,,,,,,,,,,,,,,,
1738755560.012692,1738755560.013272,5.000000,0.000000,4325.512695,4352.436035,4255.384766,4299.102539,4350.128418,4362.436035,4367.051270,4547.563965,4541.922852,4561.153809,4495.512695,5663.077148,4311.794922,4261.922852,0.000000,3.000000,74.000000,,,,0.000000,0.000000,0.000000,0.000000,0.000000,0.000000,0.000000,0.000000,0.000000,0.000000,0.000000,0.000000,0.000000,0.000000,0.000000,0.000000,,,,,,,,,,,,,,,,,,,,,,,,,,,,,,,,,,,,,,,,,,,,,,,,,,,,,,,,,,,,,,,,,,,,,,,,,,,,,,,,,,,,,,,,,,,,,,,,,,,,,,,,,,,,,,,,,,,,,,,,,,,,,,,,,
1738755560.020500,1738755560.021080,6.000000,0.000000,4324.615234,4348.589844,4254.615234,4301.025879,4352.948730,4362.051270,4366.538574,4550.128418,4539.102539,4560.512695,4496.153809,5660.512695,4311.922852,4258.974121,0.000000,3.000000,74.000000,,,,0.000000,0.000000,0.000000,0.000000,0.000000,0.000000,0.000000,0.000000,0.000000,0.000000,0.000000,0.000000,0.000000,0.000000,0.000000,0.000000,,,,,,,,,,,,,,,,,,,,,,,,,,,,,,,,,,,,,,,,,,,,,,,,,,,,,,,,,,,,,,,,,,,,,,,,,,,,,,,,,,,,,,,,,,,,,,,,,,,,,,,,,,,,,,,,,,,,,,,,,,,,,,,,,
1738755560.028308,1738755560.028788,7.000000,0.000000,4322.563965,4346.153809,4252.179688,4303.333496,4352.307617,4359.743652,4364.615234,4549.615234,4535.769043,4560.000000,4496.025879,5661.538574,4312.820313,4255.769043,0.000000,3.000000,74.000000,,,,0.000000,0.000000,0.000000,0.000000,0.000000,0.000000,0.000000,0.000000,0.000000,0.000000,0.000000,0.000000,0.000000,0.000000,0.000000,0.000000,,,,,,,,,,,,,,,,,,,,,,,,,,,,,,,,,,,,,,,,,,,,,,,,,,,,,,,,,,,,,,,,,,,,,,,,,,,,,,,,,,,,,,,,,,,,,,,,,,,,,,,,,,,,,,,,,,,,,,,,,,,,,,,,,
1738755560.036116,1738755560.036596,8.000000,0.000000,4320.897461,4349.487305,4253.974121,4299.487305,4352.051270,4358.846191,4361.666504,4548.717773,4538.974121,4562.436035,4493.717773,5660.256348,4315.384766,4256.410156,0.000000,3.000000,74.000000,,,,0.000000,0.000000,0.000000,0.000000,0.000000,0.000000,0.000000,0.000000,0.000000,0.000000,0.000000,0.000000,0.000000,0.000000,0.000000,0.000000,,,,,,,,,,,,,,,,,2.000000,0.000000,0.785403,-0.615662,-0.059021,0.024902,0.070321,-0.986449,0.237822,4.525819,-15.097281,22.829653,,,,,,,,,,,,,,,,,,,,,,,,,,,,,,,,,,,,,,,,,,,,,,,,,,,,,,,,,,,,,,,,,,,,,,,,,,,,,,,,,,,,,,,,,,,,,,,,,,,,,
1738755560.043924,1738755560.044304,9.000000,0.000000,4321.025879,4348.974121,4255.641113,4301.153809,4351.794922,4361.922852,4365.641113,4552.563965,4538.846191,4562.051270,4494.487305,5664.743652,4306.794922,4251.794922,0.000000,3.000000,74.000000,,,,0.000000,0.000000,0.000000,0.000000,0.000000,0.000000,0.000000,0.000000,0.000000,0.000000,0.000000,0.000000,0.000000,0.000000,0.000000,0.000000,,,,,,,,,,,,,,,,,,,,,,,,,,,,,,,,,,,,,,,,,,,,,,,,,,,,,,,,,,,,,,,,,,,,,,,,,,,,,,,,,,,,,,,,,,,,,,,,,,,,,,,,,,,,,,,,,,,,,,,,,,,,,,,,,
1738755560.051732,1738755560.052112,10.000000,0.000000,4320.897461,4348.717773,4253.717773,4300.384766,4349.358887,4362.948730,4366.794922,4551.153809,4537.820313,4558.846191,4500.256348,5662.179688,4311.666504,4256.922852,0.000000,3.000000,74.000000,,,,0.000000,0.000000,0.000000,0.000000,0.000000,0.000000,0.000000,0.000000,0.000000,0.000000,0.000000,0.000000,0.000000,0.000000,0.000000,0.000000,,,,,,,,,,,,,,,,,,,,,,,,,,,,,,,,,,,,,,,,,,,,,,,,,,,,,,,,,,,,,,,,,,,,,,,,,,,,,,,,,,,,,,,,,,,,,,,,,,,,,,,,,,,,,,,,,,,,,,,,,,,,,,,,,
1738755560.059540,1738755560.059820,11.000000,0.000000,4321.922852,4351.025879,4252.307617,4301.410156,4349.743652,4359.743652,4366.282227,4551.794922,4539.871582,4559.358887,4498.333496,5664.358887,4311.538574,4258.205078,0.000000,3.000000,74.000000,,,,0.000000,0.000000,0.000000,0.000000,0.000000,0.000000,0.000000,0.000000,0.000000,0.000000,0.000000,0.000000,0.000000,0.000000,0.000000,0.000000,,,,,,,,,,,,,,,,,,,,,,,,,,,,,,,,,,,,,,,,,,,,,,,,,,,,,,,,,,,,,,,,,,,,,,,,,,,,,,,,,,,,,,,,,,,,,,,,,,,,,,,,,,,,,,,,,,,,,,,,,,,,,,,,,
1738755560.067348,1738755560.067628,12.000000,0.000000,4323.077148,4351.282227,4252.820313,4304.743652,4349.487305,4359.358887,4364.871582,4552.179688,4542.948730,4561.153809,4493.846191,5668.974121,4307.563965,4254.615234,0.000000,3.000000,74.000000,,,,0.000000,0.000000,0.000000,0.000000,0.000000,0.000000,0.000000,0.000000,0.000000,0.000000,0.000000,0.000000,0.000000,0.000000,0.000000,0.000000,,,,,,,,,,,,,,,,,3.000000,0.000000,0.785401,-0.615662,-0.059021,0.024963,0.054694,-0.980588,0.240264,4.523238,-15.070886,22.830021,,,,,,,,,,,,,,,,,,,,,,,,,,,,,,,,,,,,,,,,,,,,,,,,,,,,,,,,,,,,,,,,,,,,,,,,,,,,,,,,,,,,,,,,,,,,,,,,,,,,,
1738755560.075156,1738755560.075336,13.000000,0.000000,4322.948730,4351.282227,4254.358887,4303.205078,4349.230957,4362.948730,4364.102539,4548.205078,4541.282227,4557.179688,4495.256348,5663.589844,4312.307617,4257.051270,0.000000,3.000000,74.000000,,,,0.000000,0.000000,0.000000,0.000000,0.000000,0.000000,0.000000,0.000000,0.000000,0.000000,0.000000,0.000000,0.000000,0.000000,0.000000,0.000000,,,,,,,,,,,,,,,,,,,,,,,,,,,,,,,,,,,,,,,,,,,,,,,,,,,,,,,,,,,,,,,,,,,,,,,,,,,,,,,,,,,,,,,,,,,,,,,,,,,,,,,,,,,,,,,,,,,,,,,,,,,,,,,,,
1738755560.082965,1738755560.083144,14.000000,0.000000,4321.666504,4350.897461,4255.384766,4303.589844,4352.436035,4363.461426,4365.512695,4550.000000,4537.307617,4555.512695,4496.025879,5662.563965,4308.846191,4257.563965,0.000000,3.000000,74.000000,,,,0.000000,0.000000,0.000000,0.000000,0.000000,0.000000,0.000000,0.000000,0.000000,0.000000,0.000000,0.000000,0.000000,0.000000,0.000000,0.000000,,,,,,,,,,,,,,,,,,,,,,,,,,,,,,,,,,,,,,,,,,,,,,,,,,,,,,,,,,,,0.020715,0.028116,0.031193,0.018601,0.034391,0.017444,0.018900,0.011887,0.021596,0.022558,0.029019,0.017629,0.015506,0.017963,0.031666,0.046051,0.053315,0.020612,0.011923,0.025279,0.031964,0.012065,0.066258,0.033402,0.028941,0.011168,0.024728,0.029090,0.009939,0.029863,0.038987,0.025252,0.032454,0.022056,0.032167,0.027504,0.059429,0.031726,0.032163,0.032679,0.032039,0.035677,0.027150,0.036352,0.022637,0.034127,0.031007,0.024180,0.015250,0.033140,0.032017,0.025138,0.014152,0.013207,0.021682,0.024974,0.029269,0.036103,0.019631,0.028553,0.026009,0.031241,0.016085,0.041620,0.032867,0.023729,0.031689,0.055487,0.034776,0.035334
1738755560.090773,1738755560.090852,15.000000,0.000000,4319.871582,4350.641113,4254.102539,4300.512695,4354.487305,4359.743652,4361.538574,4550.512695,4541.153809,4560.512695,4496.922852,5661.025879,4312.948730,4259.743652,0.000000,3.000000,74.000000,,,,0.000000,0.000000,0.000000,0.000000,0.000000,0.000000,0.000000,0.000000,0.000000,0.000000,0.000000,0.000000,0.000000,0.000000,0.000000,0.000000,,,,,,,,,,,,,,,,,,,,,,,,,,,,,,,,,,,,,,,,,,,,,,,,,,,,,,,,,,,,,,,,,,,,,,,,,,,,,,,,,,,,,,,,,,,,,,,,,,,,,,,,,,,,,,,,,,,,,,,,,,,,,,,,,
1738755560.098581,1738755560.098760,16.000000,0.000000,4321.025879,4351.538574,4254.871582,4298.846191,4353.846191,4359.615234,4362.179688,4550.128418,4542.051270,4560.512695,4497.820313,5660.512695,4312.948730,4256.922852,0.000000,3.000000,74.000000,,,,0.000000,0.000000,0.000000,0.000000,0.000000,0.000000,0.000000,0.000000,0.000000,0.000000,0.000000,0.000000,0.000000,0.000000,0.000000,0.000000,,,,,,,,,,,,,,,,,4.000000,0.000000,0.785403,-0.615662,-0.059021,0.024902,0.064949,-0.969845,0.244659,4.504247,-15.113797,22.763685,,,,,,,,,,,,,,,,,,,,,,,,,,,,,,,,,,,,,,,,,,,,,,,,,,,,,,,,,,,,,,,,,,,,,,,,,,,,,,,,,,,,,,,,,,,,,,,,,,,,,
1738755560.106389,1738755560.106568,17.000000,0.000000,4323.846191,4351.538574,4257.051270,4300.256348,4351.538574,4361.282227,4366.794922,4552.051270,4538.205078,4557.948730,4499.615234,5662.307617,4308.333496,4255.769043,0.000000,3.000000,74.000000,,,,0.000000,0.000000,0.000000,0.000000,0.000000,0.000000,0.000000,0.000000,0.000000,0.000000,0.000000,0.000000,0.000000,0.000000,0.000000,0.000000,,,,,,,,,,,,,,,,,,,,,,,,,,,,,,,,,,,,,,,,,,,,,,,,,,,,,,,,,,,,,,,,,,,,,,,,,,,,,,,,,,,,,,,,,,,,,,,,,,,,,,,,,,,,,,,,,,,,,,,,,,,,,,,,,
1738755560.114197,1738755560.114476,18.000000,0.000000,4322.307617,4350.256348,4255.897461,4299.487305,4347.820313,4359.743652,4363.205078,4548.846191,4541.922852,4560.128418,4500.000000,5658.717773,4311.922852,4257.307617,0.000000,3.000000,74.000000,,,,0.000000,0.000000,0.000000,0.000000,0.000000,0.000000,0.000000,0.000000,0.000000,0.000000,0.000000,0.000000,0.000000,0.000000,0.000000,0.000000,,,,,,,,,,,,,,,,,,,,,,,,,,,,,,,,,,,,,,,,,,,,,,,,,,,,,,,,,,,,,,,,,,,,,,,,,,,,,,,,,,,,,,,,,,,,,,,,,,,,,,,,,,,,,,,,,,,,,,,,,,,,,,,,,
1738755560.122005,1738755560.122285,19.000000,0.000000,4322.692383,4350.641113,4255.000000,4302.692383,4350.000000,4358.717773,4363.205078,4548.461426,4542.179688,4560.384766,4494.743652,5662.051270,4304.615234,4253.717773,0.000000,3.000000,74.000000,,,,0.000000,0.000000,0.000000,0.000000,0.000000,0.000000,0.000000,0.000000,0.000000,0.000000,0.000000,0.000000,0.000000,0.000000,0.000000,0.000000,,,,,,,,,,,,,,,,,,,,,,,,,,,,,,,,,,,,,,,,,,,,,,,,,,,,,,,,,,,,,,,,,,,,,,,,,,,,,,,,,,,,,,,,,,,,,,,,,,,,,,,,,,,,,,,,,,,,,,,,,,,,,,,,,
1738755560.129813,1738755560.130193,20.000000,0.000000,4323.974121,4352.563965,4253.589844,4303.589844,4353.974121,4359.871582,4366.538574,4549.358887,4537.820313,4560.128418,4495.641113,5665.000000,4309.102539,4257.563965,0.000000,3.000000,74.000000,,,,0.000000,0.000000,0.000000,0.000000,0.000000,0.000000,0.000000,0.000000,0.000000,0.000000,0.000000,0.000000,0.000000,0.000000,0.000000,0.000000,,,,,,,,,,,,,,,,,5.000000,0.000000,0.785450,-0.615601,-0.059021,0.024902,0.059578,-0.980100,0.231474,4.487156,-15.019084,22.787317,,,,,,,,,,,,,,,,,,,,,,,,,,,,,,,,,,,,,,,,,,,,,,,,,,,,,,,,,,,,,,,,,,,,,,,,,,,,,,,,,,,,,,,,,,,,,,,,,,,,,
1738755560.137621,1738755560.138001,21.000000,0.000000,4322.820313,4350.641113,4251.153809,4304.230957,4350.897461,4361.153809,4368.077148,4548.974121,4537.820313,4560.000000,4498.717773,5662.563965,4313.846191,4259.487305,0.000000,3.000000,74.000000,,,,0.000000,0.000000,0.000000,0.000000,0.000000,0.000000,0.000000,0.000000,0.000000,0.000000,0.000000,0.000000,0.000000,0.000000,0.000000,0.000000,,,,,,,,,,,,,,,,,,,,,,,,,,,,,,,,,,,,,,,,,,,,,,,,,,,,,,,,,,,,,,,,,,,,,,,,,,,,,,,,,,,,,,,,,,,,,,,,,,,,,,,,,,,,,,,,,,,,,,,,,,,,,,,,,
1738755560.145429,1738755560.145909,22.000000,0.000000,4323.589844,4348.077148,4252.436035,4306.153809,4348.717773,4360.897461,4367.051270,4550.769043,4539.487305,4557.692383,4495.000000,5661.794922,4306.410156,4257.692383,0.000000,3.000000,74.000000,,,,0.000000,0.000000,0.000000,0.000000,0.000000,0.000000,0.000000,0.000000,0.000000,0.000000,0.000000,0.000000,0.000000,0.000000,0.000000,0.000000,,,,,,,,,,,,,,,,,,,,,,,,,,,,,,,,,,,,,,,,,,,,,,,,,,,,,,,,,,,,,,,,,,,,,,,,,,,,,,,,,,,,,,,,,,,,,,,,,,,,,,,,,,,,,,,,,,,,,,,,,,,,,,,,,
1738755560.153237,1738755560.153717,23.000000,0.000000,4321.282227,4349.743652,4256.410156,4302.436035,4350.769043,4360.384766,4364.102539,4551.666504,4541.282227,4558.205078,4493.333496,5662.179688,4311.538574,4264.358887,0.000000,3.000000,74.000000,,,,0.000000,0.000000,0.000000,0.000000,0.000000,0.000000,0.000000,0.000000,0.000000,0.000000,0.000000,0.000000,0.000000,0.000000,0.000000,0.000000,,,,,,,,,,,,,,,,,,,,,,,,,,,,,,,,,,,,,,,,,,,,,,,,,,,,,,,,,,,,,,,,,,,,,,,,,,,,,,,,,,,,,,,,,,,,,,,,,,,,,,,,,,,,,,,,,,,,,,,,,,,,,,,,,
1738755560.161045,1738755560.161625,24.000000,0.000000,4320.769043,4349.743652,4256.282227,4302.820313,4351.282227,4360.512695,4366.666504,4550.769043,4539.615234,4558.077148,4493.205078,5667.051270,4308.461426,4260.769043,0.000000,3.000000,74.000000,,,,0.000000,0.000000,0.000000,0.000000,0.000000,0.000000,0.000000,0.000000,0.000000,0.000000,0.000000,0.000000,0.000000,0.000000,0.000000,0.000000,,,,,,,,,,,,,,,,,6.000000,0.000000,0.785496,-0.615540,-0.059082,0.024841,0.071298,-0.971798,0.236845,4.521773,-14.933842,22.641918,,,,,,,,,,,,,,,,,,,,,,,,,,,,,,,,,,,,,,,,,,,,,,,,,,,,,,,,,,,,,,,,,,,,,,,,,,,,,,,,,,,,,,,,,,,,,,,,,,,,,
1738755560.168854,1738755560.169434,25.000000,0.000000,4323.333496,4349.102539,4251.410156,4303.077148,4350.897461,4361.538574,4366.025879,4547.436035,4540.000000,4557.948730,4494.102539,5663.589844,4307.051270,4252.948730,0.000000,3.000000,74.000000,,,,0.000000,0.000000,0.000000,0.000000,0.000000,0.000000,0.000000,0.000000,0.000000,0.000000,0.000000,0.000000,0.000000,0.000000,0.000000,0.000000,,,,,,,,,,,,,,,,,,,,,,,,,,,,,,,,,,,,,,,,,,,,,,,,,,,,,,,,,,,,,,,,,,,,,,,,,,,,,,,,,,,,,,,,,,,,,,,,,,,,,,,,,,,,,,,,,,,,,,,,,,,,,,,,,
1738755560.176662,1738755560.177342,26.000000,0.000000,4322.692383,4351.794922,4251.666504,4300.256348,4350.128418,4361.794922,4363.333496,4548.974121,4542.307617,4560.256348,4495.384766,5660.000000,4312.307617,4256.410156,0.000000,3.000000,74.000000,,,,0.000000,0.000000,0.000000,0.000000,0.000000,0.000000,0.000000,0.000000,0.000000,0.000000,0.000000,0.000000,0.000000,0.000000,0.000000,0.000000,,,,,,,,,,,,,,,,,,,,,,,,,,,,,,,,,,,,,,,,,,,,,,,,,,,,,,,,,,,,,,,,,,,,,,,,,,,,,,,,,,,,,,,,,,,,,,,,,,,,,,,,,,,,,,,,,,,,,,,,,,,,,,,,,
1738755560.184470,1738755560.185150,27.000000,0.000000,4322.051270,4352.563965,4252.820313,4304.230957,4351.282227,4360.256348,4366.794922,4553.077148,4542.307617,4561.025879,4494.358887,5664.615234,4307.948730,4257.563965,0.000000,3.000000,74.000000,,,,0.000000,0.000000,0.000000,0.000000,0.000000,0.000000,0.000000,0.000000,0.000000,0.000000,0.000000,0.000000,0.000000,0.000000,0.000000,0.000000,,,,,,,,,,,,,,,,,,,,,,,,,,,,,,,,,,,,,,,,,,,,,,,,,,,,,,,,,,,,,,,,,,,,,,,,,,,,,,,,,,,,,,,,,,,,,,,,,,,,,,,,,,,,,,,,,,,,,,,,,,,,,,,,,
1738755560.192278,1738755560.193058,28.000000,0.000000,4321.794922,4350.128418,4249.871582,4305.384766,4353.717773,4360.384766,4367.051270,4547.563965,4542.692383,4560.000000,4496.538574,5658.589844,4313.077148,4257.692383,0.000000,3.000000,74.000000,,,,0.000000,0.000000,0.000000,0.000000,0.000000,0.000000,0.000000,0.000000,0.000000,0.000000,0.000000,0.000000,0.000000,0.000000,0.000000,0.000000,,,,,,,,,,,,,,,,,7.000000,0.000000,0.785496,-0.615540,-0.059082,0.024841,0.059089,-0.975705,0.242705,4.419596,-14.773791,22.594393,,,,,,,,,,,,,,,,,,,,,,,,,,,,,,,,,,,,,,,,,,,,,,,,,,,,,,,,,,,,,,,,,,,,,,,,,,,,,,,,,,,,,,,,,,,,,,,,,,,,,
1738755560.200086,1738755560.200866,29.000000,0.000000,4322.307617,4349.358887,4251.282227,4301.666504,4351.410156,4362.307617,4368.846191,4545.256348,4537.307617,4558.589844,4495.641113,5657.948730,4311.794922,4255.000000,0.000000,3.000000,74.000000,,,,0.000000,0.000000,0.000000,0.000000,0.000000,0.000000,0.000000,0.000000,0.000000,0.000000,0.000000,0.000000,0.000000,0.000000,0.000000,0.000000,,,,,,,,,,,,,,,,,,,,,,,,,,,,,,,,,,,,,,,,,,,,,,,,,,,,,,,,,,,,,,,,,,,,,,,,,,,,,,,,,,,,,,,,,,,,,,,,,,,,,,,,,,,,,,,,,,,,,,,,,,,,,,,,,
1738755560.207894,1738755560.208575,30.000000,0.000000,4320.897461,4351.153809,4254.487305,4300.897461,4347.436035,4361.025879,4368.589844,4546.922852,4535.384766,4557.948730,4494.487305,5662.692383,4309.615234,4254.743652,0.000000,3.000000,74.000000,,,,0.000000,0.000000,0.000000,0.000000,0.000000,0.000000,0.000000,0.000000,0.000000,0.000000,0.000000,0.000000,0.000000,0.000000,0.000000,0.000000,1.000000,0.000000,0.000000,0.000000,0.000000,0.000000,0.000000,0.000000,0.000000,0.000000,0.000000,0.000000,0.000000,0.000000,0.000000,0.000000,,,,,,,,,,,,,,,,,,,,,,,,,,,,,,,,,,,,,,,,,,,,0.017169,0.031783,0.035294,0.019169,0.036385,0.018009,0.020723,0.015626,0.024042,0.023622,0.030264,0.016651,0.016350,0.019256,0.029884,0.036415,0.047147,0.024944,0.011270,0.024682,0.035010,0.014411,0.060993,0.029377,0.029681,0.011824,0.019800,0.025048,0.011497,0.029478,0.044110,0.020980,0.026860,0.024064,0.033340,0.031461,0.054547,0.029964,0.033034,0.032650,0.036089,0.039808,0.024125,0.035805,0.022730,0.035170,0.029540,0.023183,0.018157,0.032429,0.031805,0.029709,0.012595,0.011519,0.021333,0.025711,0.025432,0.034008,0.024359,0.029005,0.031334,0.038175,0.020102,0.036640,0.035067,0.025042,0.030233,0.052587,0.030382,0.037217
1738755560.215702,1738755560.216383,31.000000,0.000000,4321.153809,4351.282227,4254.487305,4303.846191,4350.128418,4358.717773,4364.871582,4546.410156,4540.256348,4559.487305,4496.666504,5661.153809,4313.205078,4257.692383,0.000000,3.000000,74.000000,,,,0.000000,0.000000,0.000000,0.000000,0.000000,0.000000,0.000000,0.000000,0.000000,0.000000,0.000000,0.000000,0.000000,0.000000,0.000000,0.000000,,,,,,,,,,,,,,,,,,,,,,,,,,,,,,,,,,,,,,,,,,,,,,,,,,,,,,,,,,,,,,,,,,,,,,,,,,,,,,,,,,,,,,,,,,,,,,,,,,,,,,,,,,,,,,,,,,,,,,,,,,,,,,,,,
1738755560.223510,1738755560.224091,32.000000,0.000000,4322.436035,4347.948730,4253.846191,4304.615234,4351.410156,4358.589844,4364.230957,4547.563965,4540.000000,4561.410156,4494.871582,5663.461426,4308.717773,4255.128418,0.000000,3.000000,74.000000,,,,0.000000,0.000000,0.000000,0.000000,0.000000,0.000000,0.000000,0.000000,0.000000,0.000000,0.000000,0.000000,0.000000,0.000000,0.000000,0.000000,,,,,,,,,,,,,,,,,8.000000,0.000000,0.785496,-0.615540,-0.059082,0.024841,0.066414,-0.966915,0.238799,4.160970,-14.813079,22.518288,,,,,,,,,,,,,,,,,,,,,,,,,,,,,,,,,,,,,,,,,,,,,,,,,,,,,,,,,,,,,,,,,,,,,,,,,,,,,,,,,,,,,,,,,,,,,,,,,,,,,
1738755560.231318,1738755560.231999,33.000000,0.000000,4321.922852,4349.230957,4253.717773,4301.666504,4346.410156,4357.563965,4362.051270,4545.256348,4540.512695,4559.871582,4495.384766,5659.743652,4313.333496,4257.692383,0.000000,3.000000,74.000000,,,,0.000000,0.000000,0.000000,0.000000,0.000000,0.000000,0.000000,0.000000,0.000000,0.000000,0.000000,0.000000,0.000000,0.000000,0.000000,0.000000,,,,,,,,,,,,,,,,,,,,,,,,,,,,,,,,,,,,,,,,,,,,,,,,,,,,,,,,,,,,,,,,,,,,,,,,,,,,,,,,,,,,,,,,,,,,,,,,,,,,,,,,,,,,,,,,,,,,,,,,,,,,,,,,,
1738755560.239127,1738755560.239807,34.000000,0.000000,4323.846191,4350.000000,4256.025879,4301.922852,4347.179688,4357.563965,4364.230957,4547.179688,4540.256348,4557.179688,4496.538574,5660.128418,4311.922852,4257.307617,0.000000,3.000000,74.000000,,,,0.000000,0.000000,0.000000,0.000000,0.000000,0.000000,0.000000,0.000000,0.000000,0.000000,0.000000,0.000000,0.000000,0.000000,0.000000,0.000000,,,,,,,,,,,,,,,,,,,,,,,,,,,,,,,,,,,,,,,,,,,,,,,,,,,,,,,,,,,,,,,,,,,,,,,,,,,,,,,,,,,,,,,,,,,,,,,,,,,,,,,,,,,,,,,,,,,,,,,,,,,,,,,,,
1738755560.246935,1738755560.247616,35.000000,0.000000,4324.615234,4347.179688,4258.333496,4301.025879,4352.436035,4359.487305,4364.871582,4551.538574,4538.589844,4559.743652,4494.743652,5665.897461,4306.538574,4253.333496,0.000000,3.000000,74.000000,,,,0.000000,0.000000,0.000000,0.000000,0.000000,0.000000,0.000000,0.000000,0.000000,0.000000,0.000000,0.000000,0.000000,0.000000,0.000000,0.000000,,,,,,,,,,,,,,,,,,,,,,,,,,,,,,,,,,,,,,,,,,,,,,,,,,,,,,,,,,,,,,,,,,,,,,,,,,,,,,,,,,,,,,,,,,,,,,,,,,,,,,,,,,,,,,,,,,,,,,,,,,,,,,,,,
1738755560.254743,1738755560.255324,36.000000,0.000000,4324.871582,4349.358887,4255.897461,4300.641113,4351.025879,4360.000000,4362.051270,4549.743652,4539.358887,4564.358887,4496.666504,5662.436035,4311.666504,4254.358887,0.000000,3.000000,74.000000,,,,0.000000,0.000000,0.000000,0.000000,0.000000,0.000000,0.000000,0.000000,0.000000,0.000000,0.000000,0.000000,0.000000,0.000000,0.000000,0.000000,,,,,,,,,,,,,,,,,9.000000,0.000000,0.785443,-0.615601,-0.059143,0.024841,0.067879,-0.971310,0.233427,4.244873,-14.815104,22.433125,,,,,,,,,,,,,,,,,,,,,,,,,,,,,,,,,,,,,,,,,,,,,,,,,,,,,,,,,,,,,,,,,,,,,,,,,,,,,,,,,,,,,,,,,,,,,,,,,,,,,
1738755560.262551,1738755560.263132,37.000000,0.000000,4325.512695,4349.487305,4253.333496,4305.641113,4349.615234,4359.102539,4366.922852,4550.256348,4538.974121,4561.922852,4496.794922,5661.794922,4309.871582,4254.615234,0.000000,3.000000,74.000000,,,,0.000000,0.000000,0.000000,0.000000,0.000000,0.000000,0.000000,0.000000,0.000000,0.000000,0.000000,0.000000,0.000000,0.000000,0.000000,0.000000,,,,,,,,,,,,,,,,,,,,,,,,,,,,,,,,,,,,,,,,,,,,,,,,,,,,,,,,,,,,,,,,,,,,,,,,,,,,,,,,,,,,,,,,,,,,,,,,,,,,,,,,,,,,,,,,,,,,,,,,,,,,,,,,,
1738755560.270359,1738755560.270840,38.000000,0.000000,4320.512695,4348.589844,4253.077148,4304.487305,4353.205078,4358.461426,4367.563965,4549.102539,4540.000000,4560.897461,4494.743652,5662.563965,4310.769043,4255.769043,0.000000,3.000000,74.000000,,,,0.000000,0.000000,0.000000,0.000000,0.000000,0.000000,0.000000,0.000000,0.000000,0.000000,0.000000,0.000000,0.000000,0.000000,0.000000,0.000000,,,,,,,,,,,,,,,,,,,,,,,,,,,,,,,,,,,,,,,,,,,,,,,,,,,,,,,,,,,,,,,,,,,,,,,,,,,,,,,,,,,,,,,,,,,,,,,,,,,,,,,,,,,,,,,,,,,,,,,,,,,,,,,,,
1738755560.278167,1738755560.278648,39.000000,0.000000,4317.948730,4350.512695,4252.563965,4303.333496,4353.717773,4358.846191,4366.153809,4549.487305,4540.000000,4562.051270,4494.487305,5663.205078,4306.538574,4254.230957,0.000000,3.000000,74.000000,,,,0.000000,0.000000,0.000000,0.000000,0.000000,0.000000,0.000000,0.000000,0.000000,0.000000,0.000000,0.000000,0.000000,0.000000,0.000000,0.000000,,,,,,,,,,,,,,,,,,,,,,,,,,,,,,,,,,,,,,,,,,,,,,,,,,,,,,,,,,,,,,,,,,,,,,,,,,,,,,,,,,,,,,,,,,,,,,,,,,,,,,,,,,,,,,,,,,,,,,,,,,,,,,,,,
1738755560.285975,1738755560.286356,40.000000,0.000000,4322.307617,4352.179688,4252.563965,4304.871582,4349.871582,4358.717773,4366.410156,4551.282227,4538.717773,4560.000000,4494.487305,5662.051270,4304.871582,4254.230957,0.000000,3.000000,74.000000,,,,0.000000,0.000000,0.000000,0.000000,0.000000,0.000000,0.000000,0.000000,0.000000,0.000000,0.000000,0.000000,0.000000,0.000000,0.000000,0.000000,,,,,,,,,,,,,,,,,10.000000,0.000000,0.785432,-0.615601,-0.059265,0.024902,0.066414,-0.976193,0.248077,4.420385,-14.933594,22.489813,,,,,,,,,,,,,,,,,,,,,,,,,,,,,,,,,,,,,,,,,,,,,,,,,,,,,,,,,,,,,,,,,,,,,,,,,,,,,,,,,,,,,,,,,,,,,,,,,,,,,
1738755560.293783,1738755560.294164,41.000000,0.000000,4324.358887,4350.384766,4254.615234,4301.153809,4349.230957,4359.230957,4365.512695,4546.666504,4541.153809,4561.410156,4494.102539,5659.102539,4314.230957,4256.538574,0.000000,3.000000,74.000000,,,,0.000000,0.000000,0.000000,0.000000,0.000000,0.000000,0.000000,0.000000,0.000000,0.000000,0.000000,0.000000,0.000000,0.000000,0.000000,0.000000,,,,,,,,,,,,,,,,,,,,,,,,,,,,,,,,,,,,,,,,,,,,,,,,,,,,,,,,,,,,,,,,,,,,,,,,,,,,,,,,,,,,,,,,,,,,,,,,,,,,,,,,,,,,,,,,,,,,,,,,,,,,,,,,,
1738755560.301591,1738755560.301872,42.000000,0.000000,4323.333496,4347.563965,4256.666504,4301.922852,4353.205078,4360.769043,4367.948730,4545.641113,4540.000000,4562.692383,4493.461426,5662.051270,4307.051270,4251.794922,0.000000,3.000000,74.000000,,,,0.000000,0.000000,0.000000,0.000000,0.000000,0.000000,0.000000,0.000000,0.000000,0.000000,0.000000,0.000000,0.000000,0.000000,0.000000,0.000000,,,,,,,,,,,,,,,,,,,,,,,,,,,,,,,,,,,,,,,,,,,,,,,,,,,,,,,,,,,,,,,,,,,,,,,,,,,,,,,,,,,,,,,,,,,,,,,,,,,,,,,,,,,,,,,,,,,,,,,,,,,,,,,,,
1738755560.309399,1738755560.309680,43.000000,0.000000,4320.769043,4351.025879,4253.846191,4302.307617,4354.358887,4361.410156,4366.153809,4548.846191,4536.922852,4561.153809,4495.384766,5660.512695,4306.666504,4253.974121,0.000000,3.000000,74.000000,,,,0.000000,0.000000,0.000000,0.000000,0.000000,0.000000,0.000000,0.000000,0.000000,0.000000,0.000000,0.000000,0.000000,0.000000,0.000000,0.000000,,,,,,,,,,,,,,,,,,,,,,,,,,,,,,,,,,,,,,,,,,,,,,,,,,,,,,,,,,,,,,,,,,,,,,,,,,,,,,,,,,,,,,,,,,,,,,,,,,,,,,,,,,,,,,,,,,,,,,,,,,,,,,,,,
1738755560.317207,1738755560.317388,44.000000,0.000000,4319.358887,4350.641113,4251.538574,4301.922852,4352.051270,4361.922852,4366.666504,4550.000000,4538.846191,4560.897461,4496.794922,5660.641113,4312.563965,4257.563965,0.000000,3.000000,74.000000,,,,0.000000,0.000000,0.000000,0.000000,0.000000,0.000000,0.000000,0.000000,0.000000,0.000000,0.000000,0.000000,0.000000,0.000000,0.000000,0.000000,,,,,,,,,,,,,,,,,11.000000,0.000000,0.785437,-0.615601,-0.059204,0.024902,0.060066,-0.975217,0.230009,4.478347,-15.023568,22.490831,,,,,,,,,,,,,,,,,,,,,,,,,,,,,,,,,,,,,,,,,,,,,,,,,,,,,,,,,,,,,,,,,,,,,,,,,,,,,,,,,,,,,,,,,,,,,,,,,,,,,
1738755560.325016,1738755560.325296,45.000000,0.000000,4320.000000,4347.563965,4254.358887,4305.000000,4352.307617,4362.563965,4369.871582,4547.948730,4538.974121,4560.769043,4498.589844,5665.769043,4308.846191,4252.436035,0.000000,3.000000,74.000000,,,,0.000000,0.000000,0.000000,0.000000,0.000000,0.000000,0.000000,0.000000,0.000000,0.000000,0.000000,0.000000,0.000000,0.000000,0.000000,0.000000,,,,,,,,,,,,,,,,,,,,,,,,,,,,,,,,,,,,,,,,,,,,,,,,,,,,,,,,,,,,,,,,,,,,,,,,,,,,,,,,,,,,,,,,,,,,,,,,,,,,,,,,,,,,,,,,,,,,,,,,,,,,,,,,,
1738755560.332824,1738755560.333104,46.000000,0.000000,4319.230957,4350.512695,4255.128418,4300.384766,4354.358887,4362.307617,4365.256348,4544.102539,4536.282227,4560.897461,4498.333496,5661.282227,4313.333496,4254.871582,0.000000,3.000000,74.000000,,,,0.000000,0.000000,0.000000,0.000000,0.000000,0.000000,0.000000,0.000000,0.000000,0.000000,0.000000,0.000000,0.000000,0.000000,0.000000,0.000000,,,,,,,,,,,,,,,,,,,,,,,,,,,,,,,,,,,,,,,,,,,,,,,,,,,,,,,,,,,,0.014043,0.035708,0.039103,0.020618,0.037232,0.018889,0.021130,0.020305,0.025270,0.023881,0.030626,0.015582,0.018520,0.020112,0.027200,0.028681,0.038061,0.030332,0.011410,0.023858,0.036331,0.020061,0.054597,0.026357,0.029647,0.013340,0.016378,0.022756,0.013357,0.028926,0.048038,0.018867,0.027189,0.027146,0.032869,0.036118,0.047950,0.029404,0.032063,0.033116,0.041491,0.042965,0.020234,0.034155,0.021871,0.034970,0.025920,0.020802,0.020202,0.029929,0.029608,0.032601,0.011386,0.010176,0.021548,0.025028,0.022763,0.033105,0.028596,0.029382,0.036560,0.043899,0.023938,0.031927,0.038036,0.026130,0.028348,0.050313,0.025811,0.041103
1738755560.340632,1738755560.341012,47.000000,0.000000,4320.897461,4350.512695,4252.948730,4299.487305,4354.487305,4361.282227,4367.051270,4547.948730,4536.538574,4561.666504,4494.230957,5658.717773,4307.692383,4256.666504,0.000000,3.000000,74.000000,,,,0.000000,0.000000,0.000000,0.000000,0.000000,0.000000,0.000000,0.000000,0.000000,0.000000,0.000000,0.000000,0.000000,0.000000,0.000000,0.000000,,,,,,,,,,,,,,,,,,,,,,,,,,,,,,,,,,,,,,,,,,,,,,,,,,,,,,,,,,,,,,,,,,,,,,,,,,,,,,,,,,,,,,,,,,,,,,,,,,,,,,,,,,,,,,,,,,,,,,,,,,,,,,,,,
1738755560.348440,1738755560.348820,48.000000,0.000000,4322.563965,4350.128418,4253.333496,4303.974121,4351.922852,4360.128418,4369.230957,4550.769043,4540.897461,4561.025879,4498.077148,5660.256348,4306.538574,4256.153809,0.000000,3.000000,74.000000,,,,0.000000,0.000000,0.000000,0.000000,0.000000,0.000000,0.000000,0.000000,0.000000,0.000000,0.000000,0.000000,0.000000,0.000000,0.000000,0.000000,,,,,,,,,,,,,,,,,12.000000,0.000000,0.785384,-0.615662,-0.059265,0.024902,0.075204,-0.973752,0.234892,4.430512,-15.037878,22.458414,,,,,,,,,,,,,,,,,,,,,,,,,,,,,,,,,,,,,,,,,,,,,,,,,,,,,,,,,,,,,,,,,,,,,,,,,,,,,,,,,,,,,,,,,,,,,,,,,,,,,
1738755560.356248,1738755560.356729,49.000000,0.000000,4322.307617,4350.641113,4255.897461,4304.358887,4351.410156,4360.769043,4365.897461,4547.820313,4541.538574,4559.615234,4501.410156,5661.282227,4312.692383,4256.666504,0.000000,3.000000,74.000000,,,,0.000000,0.000000,0.000000,0.000000,0.000000,0.000000,0.000000,0.000000,0.000000,0.000000,0.000000,0.000000,0.000000,0.000000,0.000000,0.000000,,,,,,,,,,,,,,,,,,,,,,,,,,,,,,,,,,,,,,,,,,,,,,,,,,,,,,,,,,,,,,,,,,,,,,,,,,,,,,,,,,,,,,,,,,,,,,,,,,,,,,,,,,,,,,,,,,,,,,,,,,,,,,,,,
1738755560.364056,1738755560.364537,50.000000,0.000000,4321.666504,4348.333496,4252.051270,4301.794922,4352.179688,4361.025879,4366.922852,4549.743652,4536.794922,4561.282227,4495.384766,5663.205078,4305.384766,4252.436035,0.000000,3.000000,74.000000,,,,0.000000,0.000000,0.000000,0.000000,0.000000,0.000000,0.000000,0.000000,0.000000,0.000000,0.000000,0.000000,0.000000,0.000000,0.000000,0.000000,,,,,,,,,,,,,,,,,,,,,,,,,,,,,,,,,,,,,,,,,,,,,,,,,,,,,,,,,,,,,,,,,,,,,,,,,,,,,,,,,,,,,,,,,,,,,,,,,,,,,,,,,,,,,,,,,,,,,,,,,,,,,,,,,
1738755560.371864,1738755560.372445,51.000000,0.000000,4320.512695,4350.641113,4246.922852,4299.871582,4350.641113,4359.487305,4364.871582,4549.102539,4537.692383,4562.051270,4494.102539,5658.333496,4307.948730,4256.538574,0.000000,3.000000,74.000000,,,,0.000000,0.000000,0.000000,0.000000,0.000000,0.000000,0.000000,0.000000,0.000000,0.000000,0.000000,0.000000,0.000000,0.000000,0.000000,0.000000,,,,,,,,,,,,,,,,,,,,,,,,,,,,,,,,,,,,,,,,,,,,,,,,,,,,,,,,,,,,,,,,,,,,,,,,,,,,,,,,,,,,,,,,,,,,,,,,,,,,,,,,,,,,,,,,,,,,,,,,,,,,,,,,,
1738755560.379672,1738755560.380253,52.000000,0.000000,4322.820313,4352.948730,4251.794922,4304.743652,4350.641113,4360.897461,4364.102539,4548.974121,4540.000000,4559.615234,4497.307617,5661.025879,4309.358887,4258.205078,0.000000,3.000000,74.000000,,,,0.000000,0.000000,0.000000,0.000000,0.000000,0.000000,0.000000,0.000000,0.000000,0.000000,0.000000,0.000000,0.000000,0.000000,0.000000,0.000000,,,,,,,,,,,,,,,,,13.000000,0.000000,0.785336,-0.615723,-0.059265,0.024902,0.059089,-0.972287,0.234892,4.354128,-15.067423,22.545906,,,,,,,,,,,,,,,,,,,,,,,,,,,,,,,,,,,,,,,,,,,,,,,,,,,,,,,,,,,,,,,,,,,,,,,,,,,,,,,,,,,,,,,,,,,,,,,,,,,,,
1738755560.387480,1738755560.388161,53.000000,0.000000,4322.820313,4348.846191,4256.410156,4304.102539,4351.794922,4358.974121,4364.743652,4551.025879,4542.051270,4559.743652,4495.512695,5664.358887,4308.077148,4255.128418,0.000000,3.000000,74.000000,,,,0.000000,0.000000,0.000000,0.000000,0.000000,0.000000,0.000000,0.000000,0.000000,0.000000,0.000000,0.000000,0.000000,0.000000,0.000000,0.000000,,,,,,,,,,,,,,,,,,,,,,,,,,,,,,,,,,,,,,,,,,,,,,,,,,,,,,,,,,,,,,,,,,,,,,,,,,,,,,,,,,,,,,,,,,,,,,,,,,,,,,,,,,,,,,,,,,,,,,,,,,,,,,,,,
1738755560.395289,1738755560.395969,54.000000,0.000000,4320.769043,4348.077148,4255.769043,4299.358887,4351.410156,4354.615234,4363.589844,4549.871582,4543.205078,4560.256348,4492.820313,5659.487305,4310.512695,4255.384766,0.000000,3.000000,74.000000,,,,0.000000,0.000000,0.000000,0.000000,0.000000,0.000000,0.000000,0.000000,0.000000,0.000000,0.000000,0.000000,0.000000,0.000000,0.000000,0.000000,,,,,,,,,,,,,,,,,,,,,,,,,,,,,,,,,,,,,,,,,,,,,,,,,,,,,,,,,,,,,,,,,,,,,,,,,,,,,,,,,,,,,,,,,,,,,,,,,,,,,,,,,,,,,,,,,,,,,,,,,,,,,,,,,
1738755560.403097,1738755560.403678,55.000000,0.000000,4321.666504,4351.922852,4255.641113,4303.333496,4350.897461,4358.461426,4366.922852,4550.641113,4538.333496,4559.487305,4494.487305,5663.846191,4307.692383,4256.922852,0.000000,3.000000,74.000000,,,,0.000000,0.000000,0.000000,0.000000,0.000000,0.000000,0.000000,0.000000,0.000000,0.000000,0.000000,0.000000,0.000000,0.000000,0.000000,0.000000,,,,,,,,,,,,,,,,,,,,,,,,,,,,,,,,,,,,,,,,,,,,,,,,,,,,,,,,,,,,,,,,,,,,,,,,,,,,,,,,,,,,,,,,,,,,,,,,,,,,,,,,,,,,,,,,,,,,,,,,,,,,,,,,,
1738755560.410905,1738755560.411486,56.000000,0.000000,4320.384766,4352.436035,4253.717773,4303.589844,4352.692383,4362.307617,4368.589844,4550.769043,4537.051270,4561.282227,4496.922852,5664.615234,4316.794922,4260.769043,0.000000,3.000000,74.000000,,,,0.000000,0.000000,0.000000,0.000000,0.000000,0.000000,0.000000,0.000000,0.000000,0.000000,0.000000,0.000000,0.000000,0.000000,0.000000,0.000000,,,,,,,,,,,,,,,,,14.000000,0.000000,0.785231,-0.615845,-0.059387,0.024902,0.070321,-0.973752,0.240752,4.402048,-15.160681,22.641315,,,,,,,,,,,,,,,,,,,,,,,,,,,,,,,,,,,,,,,,,,,,,,,,,,,,,,,,,,,,,,,,,,,,,,,,,,,,,,,,,,,,,,,,,,,,,,,,,,,,,
1738755560.418713,1738755560.419194,57.000000,0.000000,4322.179688,4350.512695,4252.179688,4301.025879,4352.948730,4360.000000,4368.717773,4550.000000,4538.205078,4561.794922,4495.000000,5663.589844,4313.974121,4256.538574,0.000000,3.000000,74.000000,,,,0.000000,0.000000,0.000000,0.000000,0.000000,0.000000,0.000000,0.000000,0.000000,0.000000,0.000000,0.000000,0.000000,0.000000,0.000000,0.000000,,,,,,,,,,,,,,,,,,,,,,,,,,,,,,,,,,,,,,,,,,,,,,,,,,,,,,,,,,,,,,,,,,,,,,,,,,,,,,,,,,,,,,,,,,,,,,,,,,,,,,,,,,,,,,,,,,,,,,,,,,,,,,,,,
1738755560.426521,1738755560.427002,58.000000,0.000000,4324.358887,4351.922852,4253.205078,4300.384766,4348.974121,4358.589844,4367.692383,4548.461426,4538.974121,4561.666504,4496.666504,5665.641113,4305.000000,4256.153809,0.000000,3.000000,74.000000,,,,0.000000,0.000000,0.000000,0.000000,0.000000,0.000000,0.000000,0.000000,0.000000,0.000000,0.000000,0.000000,0.000000,0.000000,0.000000,0.000000,,,,,,,,,,,,,,,,,,,,,,,,,,,,,,,,,,,,,,,,,,,,,,,,,,,,,,,,,,,,,,,,,,,,,,,,,,,,,,,,,,,,,,,,,,,,,,,,,,,,,,,,,,,,,,,,,,,,,,,,,,,,,,,,,
1738755560.434329,1738755560.434711,59.000000,0.000000,4321.794922,4352.179688,4253.205078,4299.102539,4348.461426,4360.897461,4365.256348,4548.461426,4539.743652,4563.205078,4500.000000,5661.410156,4312.051270,4260.641113,0.000000,3.000000,74.000000,,,,0.000000,0.000000,0.000000,0.000000,0.000000,0.000000,0.000000,0.000000,0.000000,0.000000,0.000000,0.000000,0.000000,0.000000,0.000000,0.000000,,,,,,,,,,,,,,,,,,,,,,,,,,,,,,,,,,,,,,,,,,,,,,,,,,,,,,,,,,,,,,,,,,,,,,,,,,,,,,,,,,,,,,,,,,,,,,,,,,,,,,,,,,,,,,,,,,,,,,,,,,,,,,,,,
1738755560.442137,1738755560.442519,60.000000,0.000000,4321.922852,4349.230957,4253.589844,4302.051270,4351.666504,4364.615234,4365.641113,4552.179688,4538.589844,4559.102539,4498.333496,5661.538574,4309.743652,4254.871582,0.000000,3.000000,74.000000,,,,0.000000,0.000000,0.000000,0.000000,0.000000,0.000000,0.000000,0.000000,0.000000,0.000000,0.000000,0.000000,0.000000,0.000000,0.000000,0.000000,,,,,,,,,,,,,,,,,15.000000,0.000000,0.785229,-0.615845,-0.059387,0.024963,0.057624,-0.967892,0.237822,4.328510,-15.127946,22.710518,,,,,,,,,,,,,,,,,,,,,,,,,,,,,,,,,,,,,,,,,,,,,,,,,,,,,,,,,,,,,,,,,,,,,,,,,,,,,,,,,,,,,,,,,,,,,,,,,,,,,
1738755560.449945,1738755560.450227,61.000000,0.000000,4323.333496,4351.153809,4252.692383,4303.974121,4351.538574,4364.487305,4363.461426,4548.333496,4542.307617,4556.538574,4497.820313,5661.282227,4310.897461,4255.128418,0.000000,3.000000,74.000000,,,,0.000000,0.000000,0.000000,0.000000,0.000000,0.000000,0.000000,0.000000,0.000000,0.000000,0.000000,0.000000,0.000000,0.000000,0.000000,0.000000,,,,,,,,,,,,,,,,,,,,,,,,,,,,,,,,,,,,,,,,,,,,,,,,,,,,,,,,,,,,,,,,,,,,,,,,,,,,,,,,,,,,,,,,,,,,,,,,,,,,,,,,,,,,,,,,,,,,,,,,,,,,,,,,,
1738755560.457753,1738755560.458035,62.000000,0.000000,4322.820313,4352.692383,4251.538574,4304.871582,4351.025879,4361.282227,4364.743652,4546.282227,4541.153809,4561.282227,4498.077148,5661.410156,4311.025879,4259.102539,0.000000,3.000000,74.000000,,,,0.000000,0.000000,0.000000,0.000000,0.000000,0.000000,0.000000,0.000000,0.000000,0.000000,0.000000,0.000000,0.000000,0.000000,0.000000,0.000000,,,,,,,,,,,,,,,,,,,,,,,,,,,,,,,,,,,,,,,,,,,,,,,,,,,,,,,,,,,,0.012459,0.038883,0.041239,0.023124,0.036469,0.019290,0.020221,0.024579,0.024964,0.023332,0.030148,0.014862,0.020942,0.020317,0.024438,0.023844,0.028404,0.036021,0.012368,0.023084,0.036380,0.028317,0.050242,0.025137,0.029194,0.015386,0.015427,0.023701,0.015414,0.028187,0.051121,0.018677,0.032343,0.030397,0.031258,0.040522,0.042179,0.029823,0.028997,0.033914,0.045245,0.043636,0.016808,0.032184,0.020567,0.033980,0.021154,0.018036,0.020749,0.026539,0.026200,0.033103,0.011193,0.009939,0.021903,0.023479,0.021758,0.033679,0.031599,0.029653,0.040645,0.047408,0.027123,0.028439,0.040552,0.026703,0.025588,0.049071,0.022473,0.046526
1738755560.465562,1738755560.465743,63.000000,0.000000,4321.922852,4348.205078,4252.692383,4304.230957,4353.077148,4358.846191,4367.436035,4550.128418,4537.307617,4562.563965,4498.461426,5663.461426,4306.538574,4258.205078,0.000000,3.000000,74.000000,,,,0.000000,0.000000,0.000000,0.000000,0.000000,0.000000,0.000000,0.000000,0.000000,0.000000,0.000000,0.000000,0.000000,0.000000,0.000000,0.000000,,,,,,,,,,,,,,,,,,,,,,,,,,,,,,,,,,,,,,,,,,,,,,,,,,,,,,,,,,,,,,,,,,,,,,,,,,,,,,,,,,,,,,,,,,,,,,,,,,,,,,,,,,,,,,,,,,,,,,,,,,,,,,,,,
1738755560.473369,1738755560.473551,64.000000,0.000000,4320.641113,4346.922852,4253.974121,4301.153809,4353.205078,4358.589844,4363.077148,4550.256348,4542.307617,4559.102539,4498.589844,5662.179688,4312.051270,4258.333496,0.000000,3.000000,74.000000,,,,0.000000,0.000000,0.000000,0.000000,0.000000,0.000000,0.000000,0.000000,0.000000,0.000000,0.000000,0.000000,0.000000,0.000000,0.000000,0.000000,,,,,,,,,,,,,,,,,16.000000,0.000000,0.785229,-0.615845,-0.059387,0.024963,0.064461,-0.979612,0.233915,4.345659,-15.098485,22.689466,,,,,,,,,,,,,,,,,,,,,,,,,,,,,,,,,,,,,,,,,,,,,,,,,,,,,,,,,,,,,,,,,,,,,,,,,,,,,,,,,,,,,,,,,,,,,,,,,,,,,
1738755560.481178,1738755560.481259,65.000000,0.000000,4322.563965,4347.692383,4255.897461,4306.153809,4351.025879,4359.743652,4366.410156,4551.922852,4541.538574,4556.922852,4496.794922,5667.436035,4308.846191,4256.538574,0.000000,3.000000,74.000000,,,,0.000000,0.000000,0.000000,0.000000,0.000000,0.000000,0.000000,0.000000,0.000000,0.000000,0.000000,0.000000,0.000000,0.000000,0.000000,0.000000,,,,,,,,,,,,,,,,,,,,,,,,,,,,,,,,,,,,,,,,,,,,,,,,,,,,,,,,,,,,,,,,,,,,,,,,,,,,,,,,,,,,,,,,,,,,,,,,,,,,,,,,,,,,,,,,,,,,,,,,,,,,,,,,,
1738755560.488986,1738755560.489067,66.000000,0.000000,4325.000000,4346.666504,4256.538574,4307.436035,4350.641113,4360.897461,4371.794922,4552.179688,4537.307617,4559.358887,4498.205078,5666.794922,4309.743652,4258.461426,0.000000,3.000000,74.000000,,,,0.000000,0.000000,0.000000,0.000000,0.000000,0.000000,0.000000,0.000000,0.000000,0.000000,0.000000,0.000000,0.000000,0.000000,0.000000,0.000000,,,,,,,,,,,,,,,,,,,,,,,,,,,,,,,,,,,,,,,,,,,,,,,,,,,,,,,,,,,,,,,,,,,,,,,,,,,,,,,,,,,,,,,,,,,,,,,,,,,,,,,,,,,,,,,,,,,,,,,,,,,,,,,,,
1738755560.496794,1738755560.496775,67.000000,0.000000,4324.487305,4346.025879,4255.512695,4302.820313,4353.717773,4361.025879,4369.615234,4550.769043,4539.743652,4561.282227,4497.436035,5661.410156,4312.179688,4259.615234,0.000000,3.000000,74.000000,,,,0.000000,0.000000,0.000000,0.000000,0.000000,0.000000,0.000000,0.000000,0.000000,0.000000,0.000000,0.000000,0.000000,0.000000,0.000000,0.000000,,,,,,,,,,,,,,,,,,,,,,,,,,,,,,,,,,,,,,,,,,,,,,,,,,,,,,,,,,,,,,,,,,,,,,,,,,,,,,,,,,,,,,,,,,,,,,,,,,,,,,,,,,,,,,,,,,,,,,,,,,,,,,,,,
1738755560.504602,1738755560.504583,68.000000,0.000000,4322.948730,4346.666504,4254.487305,4303.461426,4353.205078,4359.743652,4367.051270,4551.666504,4539.615234,4558.589844,4494.230957,5664.871582,4306.025879,4256.282227,0.000000,3.000000,74.000000,,,,0.000000,0.000000,0.000000,0.000000,0.000000,0.000000,0.000000,0.000000,0.000000,0.000000,0.000000,0.000000,0.000000,0.000000,0.000000,0.000000,,,,,,,,,,,,,,,,,17.000000,0.000000,0.785182,-0.615906,-0.059326,0.025085,0.062508,-0.960566,0.244659,4.494427,-15.121970,22.703854,,,,,,,,,,,,,,,,,,,,,,,,,,,,,,,,,,,,,,,,,,,,,,,,,,,,,,,,,,,,,,,,,,,,,,,,,,,,,,,,,,,,,,,,,,,,,,,,,,,,,
1738755560.512410,1738755560.512291,69.000000,0.000000,4321.794922,4348.461426,4252.820313,4301.794922,4349.358887,4360.384766,4366.538574,4549.615234,4537.436035,4558.205078,4497.179688,5663.717773,4311.538574,4260.128418,0.000000,3.000000,74.000000,,,,0.000000,0.000000,0.000000,0.000000,0.000000,0.000000,0.000000,0.000000,0.000000,0.000000,0.000000,0.000000,0.000000,0.000000,0.000000,0.000000,,,,,,,,,,,,,,,,,,,,,,,,,,,,,,,,,,,,,,,,,,,,,,,,,,,,,,,,,,,,,,,,,,,,,,,,,,,,,,,,,,,,,,,,,,,,,,,,,,,,,,,,,,,,,,,,,,,,,,,,,,,,,,,,,
1738755560.520218,1738755560.520099,70.000000,0.000000,4323.077148,4347.692383,4254.615234,4301.666504,4350.256348,4362.436035,4369.615234,4550.769043,4538.077148,4559.743652,4496.025879,5662.563965,4310.641113,4259.487305,0.000000,3.000000,74.000000,,,,0.000000,0.000000,0.000000,0.000000,0.000000,0.000000,0.000000,0.000000,0.000000,0.000000,0.000000,0.000000,0.000000,0.000000,0.000000,0.000000,,,,,,,,,,,,,,,,,,,,,,,,,,,,,,,,,,,,,,,,,,,,,,,,,,,,,,,,,,,,,,,,,,,,,,,,,,,,,,,,,,,,,,,,,,,,,,,,,,,,,,,,,,,,,,,,,,,,,,,,,,,,,,,,,
1738755560.528026,1738755560.527807,71.000000,0.000000,4323.717773,4348.077148,4257.692383,4302.436035,4353.974121,4361.794922,4366.153809,4547.948730,4541.794922,4558.846191,4493.589844,5661.922852,4308.846191,4257.179688,0.000000,3.000000,74.000000,,,,0.000000,0.000000,0.000000,0.000000,0.000000,0.000000,0.000000,0.000000,0.000000,0.000000,0.000000,0.000000,0.000000,0.000000,0.000000,0.000000,,,,,,,,,,,,,,,,,,,,,,,,,,,,,,,,,,,,,,,,,,,,,,,,,,,,,,,,,,,,,,,,,,,,,,,,,,,,,,,,,,,,,,,,,,,,,,,,,,,,,,,,,,,,,,,,,,,,,,,,,,,,,,,,,
1738755560.535834,1738755560.535715,72.000000,0.000000,4321.282227,4350.769043,4257.307617,4302.307617,4352.948730,4358.974121,4365.128418,4543.846191,4540.000000,4557.051270,4496.282227,5661.922852,4313.717773,4260.000000,0.000000,3.000000,74.000000,,,,0.000000,0.000000,0.000000,0.000000,0.000000,0.000000,0.000000,0.000000,0.000000,0.000000,0.000000,0.000000,0.000000,0.000000,0.000000,0.000000,,,,,,,,,,,,,,,,,18.000000,0.000000,0.785182,-0.615906,-0.059326,0.025085,0.062508,-0.975705,0.232450,4.444984,-15.076440,22.950134,,,,,,,,,,,,,,,,,,,,,,,,,,,,,,,,,,,,,,,,,,,,,,,,,,,,,,,,,,,,,,,,,,,,,,,,,,,,,,,,,,,,,,,,,,,,,,,,,,,,,
1738755560.543642,1738755560.543523,73.000000,0.000000,4319.871582,4349.743652,4256.025879,4304.230957,4350.897461,4359.230957,4370.256348,4548.205078,4534.358887,4558.077148,4495.512695,5667.179688,4312.179688,4256.538574,0.000000,3.000000,74.000000,,,,0.000000,0.000000,0.000000,0.000000,0.000000,0.000000,0.000000,0.000000,0.000000,0.000000,0.000000,0.000000,0.000000,0.000000,0.000000,0.000000,,,,,,,,,,,,,,,,,,,,,,,,,,,,,,,,,,,,,,,,,,,,,,,,,,,,,,,,,,,,,,,,,,,,,,,,,,,,,,,,,,,,,,,,,,,,,,,,,,,,,,,,,,,,,,,,,,,,,,,,,,,,,,,,,
1738755560.551451,1738755560.551431,74.000000,0.000000,4320.000000,4346.794922,4254.871582,4301.922852,4351.666504,4361.410156,4365.128418,4548.974121,4538.846191,4559.230957,4498.461426,5663.461426,4315.000000,4257.179688,0.000000,3.000000,74.000000,,,,0.000000,0.000000,0.000000,0.000000,0.000000,0.000000,0.000000,0.000000,0.000000,0.000000,0.000000,0.000000,0.000000,0.000000,0.000000,0.000000,,,,,,,,,,,,,,,,,,,,,,,,,,,,,,,,,,,,,,,,,,,,,,,,,,,,,,,,,,,,,,,,,,,,,,,,,,,,,,,,,,,,,,,,,,,,,,,,,,,,,,,,,,,,,,,,,,,,,,,,,,,,,,,,,
1738755560.559259,1738755560.559239,75.000000,0.000000,4323.974121,4347.436035,4254.615234,4301.410156,4351.025879,4360.769043,4361.025879,4547.948730,4540.384766,4556.922852,4498.333496,5661.153809,4311.025879,4257.307617,0.000000,3.000000,74.000000,,,,0.000000,0.000000,0.000000,0.000000,0.000000,0.000000,0.000000,0.000000,0.000000,0.000000,0.000000,0.000000,0.000000,0.000000,0.000000,0.000000,,,,,,,,,,,,,,,,,,,,,,,,,,,,,,,,,,,,,,,,,,,,,,,,,,,,,,,,,,,,,,,,,,,,,,,,,,,,,,,,,,,,,,,,,,,,,,,,,,,,,,,,,,,,,,,,,,,,,,,,,,,,,,,,,
1738755560.567067,1738755560.567148,76.000000,0.000000,4324.102539,4349.743652,4254.358887,4302.948730,4348.974121,4359.743652,4364.358887,4548.717773,4537.948730,4556.794922,4493.846191,5661.538574,4312.436035,4256.282227,0.000000,3.000000,74.000000,,,,0.000000,0.000000,0.000000,0.000000,0.000000,0.000000,0.000000,0.000000,0.000000,0.000000,0.000000,0.000000,0.000000,0.000000,0.000000,0.000000,,,,,,,,,,,,,,,,,19.000000,0.000000,0.785230,-0.615845,-0.059326,0.025085,0.062508,-0.978147,0.252961,4.533819,-14.968796,22.938454,,,,,,,,,,,,,,,,,,,,,,,,,,,,,,,,,,,,,,,,,,,,,,,,,,,,,,,,,,,,,,,,,,,,,,,,,,,,,,,,,,,,,,,,,,,,,,,,,,,,,
1738755560.574875,1738755560.574956,77.000000,0.000000,4320.128418,4347.307617,4255.641113,4303.333496,4351.410156,4360.512695,4368.461426,4546.922852,4540.256348,4558.205078,4496.025879,5659.102539,4319.358887,4259.615234,0.000000,3.000000,74.000000,,,,0.000000,0.000000,0.000000,0.000000,0.000000,0.000000,0.000000,0.000000,0.000000,0.000000,0.000000,0.000000,0.000000,0.000000,0.000000,0.000000,,,,,,,,,,,,,,,,,,,,,,,,,,,,,,,,,,,,,,,,,,,,,,,,,,,,,,,,,,,,,,,,,,,,,,,,,,,,,,,,,,,,,,,,,,,,,,,,,,,,,,,,,,,,,,,,,,,,,,,,,,,,,,,,,
1738755560.582683,1738755560.582864,78.000000,0.000000,4322.051270,4343.974121,4255.128418,4304.102539,4353.077148,4360.128418,4370.384766,4546.410156,4538.717773,4558.333496,4496.025879,5664.358887,4308.077148,4256.922852,0.000000,3.000000,74.000000,,,,0.000000,0.000000,0.000000,0.000000,0.000000,0.000000,0.000000,0.000000,0.000000,0.000000,0.000000,0.000000,0.000000,0.000000,0.000000,0.000000,,,,,,,,,,,,,,,,,,,,,,,,,,,,,,,,,,,,,,,,,,,,,,,,,,,,,,,,,,,,0.013470,0.040351,0.040506,0.026744,0.033908,0.018529,0.018644,0.027070,0.023208,0.022226,0.029264,0.015233,0.022976,0.020370,0.022368,0.021538,0.020274,0.041719,0.014045,0.022555,0.035936,0.037154,0.049239,0.025324,0.028966,0.017922,0.016894,0.027356,0.017388,0.027229,0.054013,0.019057,0.039892,0.032633,0.029274,0.043490,0.039453,0.029974,0.024479,0.034625,0.045108,0.041262,0.014569,0.030524,0.019589,0.032556,0.016222,0.016053,0.019788,0.023240,0.022802,0.031786,0.012274,0.011122,0.022248,0.021552,0.023279,0.035170,0.032983,0.029800,0.043419,0.048204,0.029383,0.026522,0.041633,0.026459,0.022038,0.049399,0.021261,0.052374
1738755560.590491,1738755560.590672,79.000000,0.000000,4323.077148,4346.922852,4251.922852,4301.410156,4348.461426,4359.102539,4367.307617,4546.153809,4537.692383,4558.974121,4493.461426,5663.461426,4307.820313,4254.871582,0.000000,3.000000,74.000000,,,,0.000000,0.000000,0.000000,0.000000,0.000000,0.000000,0.000000,0.000000,0.000000,0.000000,0.000000,0.000000,0.000000,0.000000,0.000000,0.000000,,,,,,,,,,,,,,,,,,,,,,,,,,,,,,,,,,,,,,,,,,,,,,,,,,,,,,,,,,,,,,,,,,,,,,,,,,,,,,,,,,,,,,,,,,,,,,,,,,,,,,,,,,,,,,,,,,,,,,,,,,,,,,,,,
