title:bread1, start timestamp:1738755266.677795, stop timestamp:1738755267.716272, headset type:EPOCX, headset serial:E50208A5, headset firmware:720, channels:168, sampling rate:eeg_128;mot_32;pm_0.1;pow_8, samples:134       , version:2.2, 
Timestamp,OriginalTimestamp,EEG.Counter,EEG.Interpolated,EEG.AF3,EEG.F7,EEG.F3,EEG.FC5,EEG.T7,EEG.P7,EEG.O1,EEG.O2,EEG.P8,EEG.T8,EEG.FC6,EEG.F4,EEG.F8,EEG.AF4,EEG.RawCq,EEG.Battery,EEG.BatteryPercent,MarkerIndex,MarkerType,MarkerValueInt,EEG.MarkerHardware,CQ.AF3,CQ.F7,CQ.F3,CQ.FC5,CQ.T7,CQ.P7,CQ.O1,CQ.O2,CQ.P8,CQ.T8,CQ.FC6,CQ.F4,CQ.F8,CQ.AF4,CQ.Overall,EQ.SampleRateQuality,EQ.OVERALL,EQ.AF3,EQ.F7,EQ.F3,EQ.FC5,EQ.T7,EQ.P7,EQ.O1,EQ.O2,EQ.P8,EQ.T8,EQ.FC6,EQ.F4,EQ.F8,EQ.AF4,MOT.CounterMems,MOT.InterpolatedMems,MOT.Q0,MOT.Q1,MOT.Q2,MOT.Q3,MOT.AccX,MOT.AccY,MOT.AccZ,MOT.MagX,MOT.MagY,MOT.MagZ,PM.Attention.IsActive,PM.Attention.Scaled,PM.Attention.Raw,PM.Attention.Min,PM.Attention.Max,PM.Engagement.IsActive,PM.Engagement.Scaled,PM.Engagement.Raw,PM.Engagement.Min,PM.Engagement.Max,PM.Excitement.IsActive,PM.Excitement.Scaled,PM.Excitement.Raw,PM.Excitement.Min,PM.Excitement.Max,PM.LongTermExcitement,PM.Stress.IsActive,PM.Stress.Scaled,PM.Stress.Raw,PM.Stress.Min,PM.Stress.Max,PM.Relaxation.IsActive,PM.Relaxation.Scaled,PM.Relaxation.Raw,PM.Relaxation.Min,PM.Relaxation.Max,PM.Interest.IsActive,PM.Interest.Scaled,PM.Interest.Raw,PM.Interest.Min,PM.Interest.Max,POW.AF3.Theta,POW.AF3.Alpha,POW.AF3.BetaL,POW.AF3.BetaH,POW.AF3.Gamma,POW.F7.Theta,POW.F7.Alpha,POW.F7.BetaL,POW.F7.BetaH,POW.F7.Gamma,POW.F3.Theta,POW.F3.Alpha,POW.F3.BetaL,POW.F3.BetaH,POW.F3.Gamma,POW.FC5.Theta,POW.FC5.Alpha,POW.FC5.BetaL,POW.FC5.BetaH,POW.FC5.Gamma,POW.T7.Theta,POW.T7.Alpha,POW.T7.BetaL,POW.T7.BetaH,POW.T7.Gamma,POW.P7.Theta,POW.P7.Alpha,POW.P7.BetaL,POW.P7.BetaH,POW.P7.Gamma,POW.O1.Theta,POW.O1.Alpha,POW.O1.BetaL,POW.O1.BetaH,POW.O1.Gamma,POW.O2.Theta,POW.O2.Alpha,POW.O2.BetaL,POW.O2.BetaH,POW.O2.Gamma,POW.P8.Theta,POW.P8.Alpha,POW.P8.BetaL,POW.P8.BetaH,POW.P8.Gamma,POW.T8.Theta,POW.T8.Alpha,POW.T8.BetaL,POW.T8.BetaH,POW.T8.Gamma,POW.FC6.Theta,POW.FC6.Alpha,POW.FC6.BetaL,POW.FC6.BetaH,POW.FC6.Gamma,POW.F4.Theta,POW.F4.Alpha,POW.F4.BetaL,POW.F4.BetaH,POW.F4.Gamma,POW.F8.Theta,POW.F8.Alpha,POW.F8.BetaL,POW.F8.BetaH,POW.F8.Gamma,POW.AF4.Theta,POW.AF4.Alpha,POW.AF4.BetaL,POW.AF4.BetaH,POW.AF4.Gamma
1738755266.677795,1738755266.678275,69.000000,0.000000,4321.153809,4349.102539,4255.641113,4299.230957,4351.282227,4359.743652,4364.615234,4550.641113,4540.384766,4560.512695,4498.846191,5661.282227,4313.205078,4259.487305,0.000000,4.000000,75.000000,,,,0.000000,0.000000,0.000000,0.000000,0.000000,0.000000,0.000000,0.000000,0.000000,0.000000,0.000000,0.000000,0.000000,0.000000,0.000000,0.000000,,,,,,,,,,,,,,,,,,,,,,,,,,,,,,,,,,,,,,,,,,,,,,,,,,,,,,,,,,,,,,,,,,,,,,,,,,,,,,,,,,,,,,,,,,,,,,,,,,,,,,,,,,,,,,,,,,,,,,,,,,,,,,,,,
1738755266.685603,1738755266.686183,70.000000,0.000000,4320.128418,4348.333496,4255.000000,4303.589844,4349.743652,4360.128418,4365.641113,4549.230957,4539.487305,4560.128418,4500.256348,5660.128418,4312.563965,4260.000000,0.000000,4.000000,75.000000,,,,0.000000,0.000000,0.000000,0.000000,0.000000,0.000000,0.000000,0.000000,0.000000,0.000000,0.000000,0.000000,0.000000,0.000000,0.000000,0.000000,,,,,,,,,,,,,,,,,,,,,,,,,,,,,,,,,,,,,,,,,,,,,,,,,,,,,,,,,,,,,,,,,,,,,,,,,,,,,,,,,,,,,,,,,,,,,,,,,,,,,,,,,,,,,,,,,,,,,,,,,,,,,,,,,
1738755266.693411,1738755266.693991,71.000000,0.000000,4323.589844,4349.743652,4254.358887,4307.436035,4351.282227,4361.410156,4365.512695,4550.128418,4537.563965,4560.256348,4497.692383,5661.538574,4310.769043,4256.153809,0.000000,4.000000,75.000000,,,,0.000000,0.000000,0.000000,0.000000,0.000000,0.000000,0.000000,0.000000,0.000000,0.000000,0.000000,0.000000,0.000000,0.000000,0.000000,0.000000,,,,,,,,,,,,,,,,,,,,,,,,,,,,,,,,,,,,,,,,,,,,,,,,,,,,,,,,,,,,,,,,,,,,,,,,,,,,,,,,,,,,,,,,,,,,,,,,,,,,,,,,,,,,,,,,,,,,,,,,,,,,,,,,,
1738755266.701219,1738755266.701900,72.000000,0.000000,4324.487305,4349.615234,4252.692383,4303.846191,4355.512695,4360.384766,4364.102539,4548.461426,4538.717773,4558.333496,4493.717773,5660.769043,4313.461426,4253.461426,0.000000,4.000000,75.000000,,,,0.000000,0.000000,0.000000,0.000000,0.000000,0.000000,0.000000,0.000000,0.000000,0.000000,0.000000,0.000000,0.000000,0.000000,0.000000,0.000000,,,,,,,,,,,,,,,,,18.000000,0.000000,0.785924,-0.614807,-0.060364,0.026306,0.072274,-0.971798,0.242705,4.418935,-15.143990,22.986423,,,,,,,,,,,,,,,,,,,,,,,,,,,,,,,,,,,,,,,,,,,,,,,,,,,,,,,,,,,,,,,,,,,,,,,,,,,,,,,,,,,,,,,,,,,,,,,,,,,,,
1738755266.709027,1738755266.709708,73.000000,0.000000,4323.589844,4353.461426,4252.948730,4300.641113,4354.743652,4360.897461,4363.589844,4545.897461,4542.051270,4560.641113,4494.358887,5662.307617,4311.410156,4255.256348,0.000000,4.000000,75.000000,,,,0.000000,0.000000,0.000000,0.000000,0.000000,0.000000,0.000000,0.000000,0.000000,0.000000,0.000000,0.000000,0.000000,0.000000,0.000000,0.000000,,,,,,,,,,,,,,,,,,,,,,,,,,,,,,,,,,,,,,,,,,,,,,,,,,,,,,,,,,,,,,,,,,,,,,,,,,,,,,,,,,,,,,,,,,,,,,,,,,,,,,,,,,,,,,,,,,,,,,,,,,,,,,,,,
1738755266.716835,1738755266.717616,74.000000,0.000000,4324.358887,4355.256348,4255.256348,4301.666504,4351.922852,4363.974121,4366.794922,4547.692383,4539.615234,4561.922852,4497.436035,5660.256348,4310.000000,4258.461426,0.000000,4.000000,75.000000,,,,0.000000,0.000000,0.000000,0.000000,0.000000,0.000000,0.000000,0.000000,0.000000,0.000000,0.000000,0.000000,0.000000,0.000000,0.000000,0.000000,,,,,,,,,,,,,,,,,,,,,,,,,,,,,,,,,,,,,,,,,,,,,,,,,,,,,,,,,,,,,,,,,,,,,,,,,,,,,,,,,,,,,,,,,,,,,,,,,,,,,,,,,,,,,,,,,,,,,,,,,,,,,,,,,
1738755266.724644,1738755266.725524,75.000000,0.000000,4323.077148,4350.384766,4255.769043,4303.717773,4352.948730,4361.538574,4367.692383,4549.487305,4535.897461,4558.077148,4496.922852,5656.922852,4314.358887,4257.563965,0.000000,4.000000,75.000000,,,,0.000000,0.000000,0.000000,0.000000,0.000000,0.000000,0.000000,0.000000,0.000000,0.000000,0.000000,0.000000,0.000000,0.000000,0.000000,0.000000,,,,,,,,,,,,,,,,,,,,,,,,,,,,,,,,,,,,,,,,,,,,,,,,,,,,,,,,,,,,,,,,,,,,,,,,,,,,,,,,,,,,,,,,,,,,,,,,,,,,,,,,,,,,,,,,,,,,,,,,,,,,,,,,,
1738755266.732452,1738755266.733332,76.000000,0.000000,4321.922852,4350.128418,4254.871582,4304.102539,4353.205078,4356.410156,4366.282227,4547.948730,4538.461426,4556.538574,4494.487305,5662.179688,4312.051270,4255.000000,0.000000,4.000000,75.000000,,,,0.000000,0.000000,0.000000,0.000000,0.000000,0.000000,0.000000,0.000000,0.000000,0.000000,0.000000,0.000000,0.000000,0.000000,0.000000,0.000000,,,,,,,,,,,,,,,,,19.000000,0.000000,0.785924,-0.614807,-0.060364,0.026306,0.061531,-0.973263,0.235869,4.460375,-15.179590,22.904449,,,,,,,,,,,,,,,,,,,,,,,,,,,,,,,,,,,,,,,,,,,,,,,,,,,,,,,,,,,,,,,,,,,,,,,,,,,,,,,,,,,,,,,,,,,,,,,,,,,,,
1738755266.740260,1738755266.741140,77.000000,0.000000,4323.589844,4353.846191,4255.641113,4302.692383,4351.025879,4358.974121,4364.487305,4547.051270,4539.487305,4559.230957,4495.384766,5663.589844,4310.128418,4258.846191,0.000000,4.000000,75.000000,,,,0.000000,0.000000,0.000000,0.000000,0.000000,0.000000,0.000000,0.000000,0.000000,0.000000,0.000000,0.000000,0.000000,0.000000,0.000000,0.000000,,,,,,,,,,,,,,,,,,,,,,,,,,,,,,,,,,,,,,,,,,,,,,,,,,,,,,,,,,,,,,,,,,,,,,,,,,,,,,,,,,,,,,,,,,,,,,,,,,,,,,,,,,,,,,,,,,,,,,,,,,,,,,,,,
1738755266.748068,1738755266.748849,78.000000,0.000000,4324.743652,4351.538574,4257.436035,4302.563965,4352.820313,4362.436035,4367.179688,4551.025879,4537.948730,4560.128418,4496.794922,5660.641113,4306.922852,4257.692383,0.000000,4.000000,75.000000,,,,0.000000,0.000000,0.000000,0.000000,0.000000,0.000000,0.000000,0.000000,0.000000,0.000000,0.000000,0.000000,0.000000,0.000000,0.000000,0.000000,,,,,,,,,,,,,,,,,,,,,,,,,,,,,,,,,,,,,,,,,,,,,,,,,,,,,,,,,,,,0.033274,0.024461,0.022618,0.011993,0.026422,0.032558,0.030273,0.019446,0.012520,0.019670,0.034564,0.029248,0.018792,0.031651,0.018493,0.015656,0.014453,0.029110,0.009879,0.024668,0.046358,0.037579,0.015978,0.020257,0.042397,0.009589,0.009159,0.007916,0.012365,0.020808,0.041641,0.014506,0.008844,0.019811,0.042273,0.036388,0.020007,0.033946,0.025719,0.025669,0.043534,0.071379,0.028799,0.018449,0.016653,0.023229,0.016539,0.008804,0.016683,0.015150,0.015003,0.024160,0.011750,0.015609,0.027754,0.008721,0.022270,0.055015,0.032347,0.034705,0.037379,0.015397,0.042418,0.026803,0.041136,0.016999,0.021214,0.026781,0.026196,0.031508
1738755266.755876,1738755266.756657,79.000000,0.000000,4323.461426,4347.436035,4256.538574,4301.922852,4354.871582,4360.512695,4370.000000,4552.692383,4540.641113,4560.384766,4497.948730,5662.179688,4301.282227,4251.410156,0.000000,4.000000,75.000000,,,,0.000000,0.000000,0.000000,0.000000,0.000000,0.000000,0.000000,0.000000,0.000000,0.000000,0.000000,0.000000,0.000000,0.000000,0.000000,0.000000,,,,,,,,,,,,,,,,,,,,,,,,,,,,,,,,,,,,,,,,,,,,,,,,,,,,,,,,,,,,,,,,,,,,,,,,,,,,,,,,,,,,,,,,,,,,,,,,,,,,,,,,,,,,,,,,,,,,,,,,,,,,,,,,,
1738755266.763684,1738755266.764365,80.000000,0.000000,4322.179688,4350.641113,4255.384766,4302.820313,4352.307617,4360.769043,4366.153809,4546.410156,4541.282227,4562.179688,4497.051270,5663.077148,4305.000000,4251.282227,0.000000,4.000000,75.000000,,,,0.000000,0.000000,0.000000,0.000000,0.000000,0.000000,0.000000,0.000000,0.000000,0.000000,0.000000,0.000000,0.000000,0.000000,0.000000,0.000000,,,,,,,,,,,,,,,,,20.000000,0.000000,0.785974,-0.614746,-0.060364,0.026245,0.061531,-0.980100,0.241240,4.381004,-15.361631,22.980671,,,,,,,,,,,,,,,,,,,,,,,,,,,,,,,,,,,,,,,,,,,,,,,,,,,,,,,,,,,,,,,,,,,,,,,,,,,,,,,,,,,,,,,,,,,,,,,,,,,,,
1738755266.771492,1738755266.772173,81.000000,0.000000,4321.153809,4351.666504,4256.922852,4304.871582,4350.897461,4362.820313,4362.307617,4545.897461,4539.102539,4561.282227,4493.461426,5664.230957,4307.820313,4254.230957,0.000000,4.000000,75.000000,,,,0.000000,0.000000,0.000000,0.000000,0.000000,0.000000,0.000000,0.000000,0.000000,0.000000,0.000000,0.000000,0.000000,0.000000,0.000000,0.000000,,,,,,,,,,,,,,,,,,,,,,,,,,,,,,,,,,,,,,,,,,,,,,,,,,,,,,,,,,,,,,,,,,,,,,,,,,,,,,,,,,,,,,,,,,,,,,,,,,,,,,,,,,,,,,,,,,,,,,,,,,,,,,,,,
1738755266.779300,1738755266.779881,82.000000,0.000000,4320.256348,4349.230957,4256.410156,4302.692383,4351.666504,4361.538574,4361.153809,4552.179688,4540.128418,4560.256348,4494.871582,5663.974121,4306.922852,4255.641113,0.000000,4.000000,75.000000,,,,0.000000,0.000000,0.000000,0.000000,0.000000,0.000000,0.000000,0.000000,0.000000,0.000000,0.000000,0.000000,0.000000,0.000000,0.000000,0.000000,,,,,,,,,,,,,,,,,,,,,,,,,,,,,,,,,,,,,,,,,,,,,,,,,,,,,,,,,,,,,,,,,,,,,,,,,,,,,,,,,,,,,,,,,,,,,,,,,,,,,,,,,,,,,,,,,,,,,,,,,,,,,,,,,
1738755266.787108,1738755266.787689,83.000000,0.000000,4322.563965,4350.769043,4255.512695,4302.179688,4350.641113,4360.512695,4363.077148,4551.794922,4540.641113,4561.666504,4499.358887,5661.794922,4308.205078,4257.307617,0.000000,4.000000,75.000000,,,,0.000000,0.000000,0.000000,0.000000,0.000000,0.000000,0.000000,0.000000,0.000000,0.000000,0.000000,0.000000,0.000000,0.000000,0.000000,0.000000,,,,,,,,,,,,,,,,,,,,,,,,,,,,,,,,,,,,,,,,,,,,,,,,,,,,,,,,,,,,,,,,,,,,,,,,,,,,,,,,,,,,,,,,,,,,,,,,,,,,,,,,,,,,,,,,,,,,,,,,,,,,,,,,,
1738755266.794917,1738755266.795397,84.000000,0.000000,4323.846191,4351.922852,4255.128418,4304.871582,4351.794922,4362.948730,4366.410156,4547.948730,4540.256348,4561.282227,4498.205078,5664.102539,4312.051270,4258.589844,0.000000,4.000000,75.000000,,,,0.000000,0.000000,0.000000,0.000000,0.000000,0.000000,0.000000,0.000000,0.000000,0.000000,0.000000,0.000000,0.000000,0.000000,0.000000,0.000000,,,,,,,,,,,,,,,,,21.000000,0.000000,0.785928,-0.614807,-0.060364,0.026184,0.062019,-0.969845,0.233915,4.292904,-15.242135,22.899269,,,,,,,,,,,,,,,,,,,,,,,,,,,,,,,,,,,,,,,,,,,,,,,,,,,,,,,,,,,,,,,,,,,,,,,,,,,,,,,,,,,,,,,,,,,,,,,,,,,,,
1738755266.802724,1738755266.803205,85.000000,0.000000,4320.000000,4351.025879,4254.102539,4304.615234,4353.205078,4363.846191,4368.589844,4550.256348,4540.641113,4561.153809,4495.769043,5664.871582,4312.179688,4257.692383,0.000000,4.000000,75.000000,,,,0.000000,0.000000,0.000000,0.000000,0.000000,0.000000,0.000000,0.000000,0.000000,0.000000,0.000000,0.000000,0.000000,0.000000,0.000000,0.000000,,,,,,,,,,,,,,,,,,,,,,,,,,,,,,,,,,,,,,,,,,,,,,,,,,,,,,,,,,,,,,,,,,,,,,,,,,,,,,,,,,,,,,,,,,,,,,,,,,,,,,,,,,,,,,,,,,,,,,,,,,,,,,,,,
1738755266.810533,1738755266.810913,86.000000,0.000000,4320.897461,4350.256348,4254.358887,4303.333496,4351.538574,4360.897461,4367.563965,4551.794922,4538.589844,4562.563965,4496.153809,5661.794922,4305.384766,4255.256348,0.000000,4.000000,75.000000,,,,0.000000,0.000000,0.000000,0.000000,0.000000,0.000000,0.000000,0.000000,0.000000,0.000000,0.000000,0.000000,0.000000,0.000000,0.000000,0.000000,,,,,,,,,,,,,,,,,,,,,,,,,,,,,,,,,,,,,,,,,,,,,,,,,,,,,,,,,,,,,,,,,,,,,,,,,,,,,,,,,,,,,,,,,,,,,,,,,,,,,,,,,,,,,,,,,,,,,,,,,,,,,,,,,
1738755266.818341,1738755266.818721,87.000000,0.000000,4326.666504,4349.230957,4254.743652,4304.230957,4349.487305,4358.461426,4365.256348,4549.487305,4539.743652,4562.436035,4496.025879,5661.666504,4305.897461,4254.743652,0.000000,4.000000,75.000000,,,,0.000000,0.000000,0.000000,0.000000,0.000000,0.000000,0.000000,0.000000,0.000000,0.000000,0.000000,0.000000,0.000000,0.000000,0.000000,0.000000,,,,,,,,,,,,,,,,,,,,,,,,,,,,,,,,,,,,,,,,,,,,,,,,,,,,,,,,,,,,,,,,,,,,,,,,,,,,,,,,,,,,,,,,,,,,,,,,,,,,,,,,,,,,,,,,,,,,,,,,,,,,,,,,,
1738755266.826149,1738755266.826429,88.000000,0.000000,4325.512695,4348.205078,4253.077148,4305.128418,4348.846191,4360.000000,4366.153809,4551.922852,4542.820313,4559.487305,4494.871582,5663.461426,4309.871582,4256.538574,0.000000,4.000000,75.000000,,,,0.000000,0.000000,0.000000,0.000000,0.000000,0.000000,0.000000,0.000000,0.000000,0.000000,0.000000,0.000000,0.000000,0.000000,0.000000,0.000000,,,,,,,,,,,,,,,,,22.000000,0.000000,0.785974,-0.614746,-0.060364,0.026245,0.060066,-0.971310,0.239287,4.446947,-15.034588,22.892677,,,,,,,,,,,,,,,,,,,,,,,,,,,,,,,,,,,,,,,,,,,,,,,,,,,,,,,,,,,,,,,,,,,,,,,,,,,,,,,,,,,,,,,,,,,,,,,,,,,,,
1738755266.833957,1738755266.834237,89.000000,0.000000,4320.769043,4351.666504,4254.358887,4303.333496,4351.025879,4361.794922,4366.666504,4554.871582,4540.384766,4559.743652,4495.897461,5663.333496,4307.948730,4257.563965,0.000000,4.000000,75.000000,,,,0.000000,0.000000,0.000000,0.000000,0.000000,0.000000,0.000000,0.000000,0.000000,0.000000,0.000000,0.000000,0.000000,0.000000,0.000000,0.000000,,,,,,,,,,,,,,,,,,,,,,,,,,,,,,,,,,,,,,,,,,,,,,,,,,,,,,,,,,,,,,,,,,,,,,,,,,,,,,,,,,,,,,,,,,,,,,,,,,,,,,,,,,,,,,,,,,,,,,,,,,,,,,,,,
1738755266.841765,1738755266.841945,90.000000,0.000000,4322.948730,4353.846191,4258.077148,4300.641113,4351.410156,4360.769043,4366.410156,4550.256348,4539.230957,4561.538574,4497.051270,5660.897461,4308.717773,4257.179688,0.000000,4.000000,75.000000,,,,0.000000,0.000000,0.000000,0.000000,0.000000,0.000000,0.000000,0.000000,0.000000,0.000000,0.000000,0.000000,0.000000,0.000000,0.000000,0.000000,,,,,,,,,,,,,,,,,,,,,,,,,,,,,,,,,,,,,,,,,,,,,,,,,,,,,,,,,,,,,,,,,,,,,,,,,,,,,,,,,,,,,,,,,,,,,,,,,,,,,,,,,,,,,,,,,,,,,,,,,,,,,,,,,
1738755266.849573,1738755266.849853,91.000000,0.000000,4325.769043,4351.410156,4257.307617,4300.256348,4350.641113,4360.384766,4365.897461,4547.948730,4540.384766,4558.077148,4495.128418,5660.769043,4309.230957,4254.487305,0.000000,4.000000,75.000000,,,,0.000000,0.000000,0.000000,0.000000,0.000000,0.000000,0.000000,0.000000,0.000000,0.000000,0.000000,0.000000,0.000000,0.000000,0.000000,0.000000,,,,,,,,,,,,,,,,,,,,,,,,,,,,,,,,,,,,,,,,,,,,,,,,,,,,,,,,,,,,,,,,,,,,,,,,,,,,,,,,,,,,,,,,,,,,,,,,,,,,,,,,,,,,,,,,,,,,,,,,,,,,,,,,,
1738755266.857381,1738755266.857662,92.000000,0.000000,4322.307617,4352.820313,4253.974121,4301.282227,4351.153809,4362.307617,4366.666504,4551.410156,4538.846191,4555.769043,4495.384766,5662.179688,4307.692383,4253.333496,0.000000,4.000000,75.000000,,,,0.000000,0.000000,0.000000,0.000000,0.000000,0.000000,0.000000,0.000000,0.000000,0.000000,0.000000,0.000000,0.000000,0.000000,0.000000,0.000000,,,,,,,,,,,,,,,,,23.000000,0.000000,0.785980,-0.614746,-0.060303,0.026184,0.065926,-0.969357,0.226102,4.368919,-15.014462,22.936743,,,,,,,,,,,,,,,,,,,,,,,,,,,,,,,,,,,,,,,,,,,,,,,,,,,,,,,,,,,,,,,,,,,,,,,,,,,,,,,,,,,,,,,,,,,,,,,,,,,,,
1738755266.865189,1738755266.865570,93.000000,0.000000,4320.769043,4355.512695,4253.974121,4302.948730,4354.230957,4361.794922,4367.820313,4551.282227,4538.077148,4559.487305,4497.051270,5662.051270,4308.077148,4254.487305,0.000000,4.000000,75.000000,,,,0.000000,0.000000,0.000000,0.000000,0.000000,0.000000,0.000000,0.000000,0.000000,0.000000,0.000000,0.000000,0.000000,0.000000,0.000000,0.000000,,,,,,,,,,,,,,,,,,,,,,,,,,,,,,,,,,,,,,,,,,,,,,,,,,,,,,,,,,,,,,,,,,,,,,,,,,,,,,,,,,,,,,,,,,,,,,,,,,,,,,,,,,,,,,,,,,,,,,,,,,,,,,,,,
1738755266.872997,1738755266.873378,94.000000,0.000000,4322.436035,4352.436035,4255.384766,4303.974121,4355.769043,4360.256348,4365.897461,4549.487305,4539.871582,4561.282227,4494.743652,5662.820313,4307.948730,4255.384766,0.000000,4.000000,75.000000,,,,0.000000,0.000000,0.000000,0.000000,0.000000,0.000000,0.000000,0.000000,0.000000,0.000000,0.000000,0.000000,0.000000,0.000000,0.000000,0.000000,1.000000,0.000000,0.000000,0.000000,0.000000,0.000000,0.000000,0.000000,0.000000,0.000000,0.000000,0.000000,0.000000,0.000000,0.000000,0.000000,,,,,,,,,,,,,,,,,,,,,,,,,,,,,,,,,,,,,,,,,,,,0.033606,0.019012,0.025782,0.013485,0.027934,0.032271,0.033518,0.017077,0.010264,0.016839,0.037288,0.037500,0.014156,0.032129,0.021215,0.010992,0.016073,0.032036,0.009014,0.025300,0.044966,0.037249,0.017979,0.023136,0.038127,0.007428,0.010818,0.007326,0.012300,0.020294,0.050100,0.016022,0.006845,0.020814,0.042364,0.037249,0.023473,0.031138,0.027748,0.025936,0.041621,0.071422,0.032048,0.017493,0.017305,0.026718,0.020685,0.009319,0.013547,0.015140,0.015720,0.025488,0.017511,0.019950,0.031143,0.008381,0.019332,0.059591,0.029126,0.035065,0.039132,0.019418,0.040764,0.030105,0.042494,0.021064,0.021636,0.026395,0.025721,0.034250
1738755266.880806,1738755266.881286,95.000000,0.000000,4322.436035,4349.358887,4256.153809,4302.692383,4353.077148,4361.922852,4364.102539,4550.384766,4539.615234,4559.358887,4492.692383,5663.589844,4309.230957,4256.794922,0.000000,4.000000,75.000000,,,,0.000000,0.000000,0.000000,0.000000,0.000000,0.000000,0.000000,0.000000,0.000000,0.000000,0.000000,0.000000,0.000000,0.000000,0.000000,0.000000,,,,,,,,,,,,,,,,,,,,,,,,,,,,,,,,,,,,,,,,,,,,,,,,,,,,,,,,,,,,,,,,,,,,,,,,,,,,,,,,,,,,,,,,,,,,,,,,,,,,,,,,,,,,,,,,,,,,,,,,,,,,,,,,,
1738755266.888614,1738755266.889094,96.000000,0.000000,4321.922852,4350.000000,4256.410156,4303.205078,4352.051270,4362.179688,4364.230957,4552.307617,4536.666504,4558.846191,4494.871582,5665.128418,4308.846191,4253.846191,0.000000,4.000000,75.000000,,,,0.000000,0.000000,0.000000,0.000000,0.000000,0.000000,0.000000,0.000000,0.000000,0.000000,0.000000,0.000000,0.000000,0.000000,0.000000,0.000000,,,,,,,,,,,,,,,,,24.000000,0.000000,0.786023,-0.614685,-0.060364,0.026184,0.064461,-0.967892,0.233915,4.415360,-14.846350,23.026402,,,,,,,,,,,,,,,,,,,,,,,,,,,,,,,,,,,,,,,,,,,,,,,,,,,,,,,,,,,,,,,,,,,,,,,,,,,,,,,,,,,,,,,,,,,,,,,,,,,,,
1738755266.896422,1738755266.897002,97.000000,0.000000,4322.948730,4349.871582,4253.461426,4304.871582,4353.461426,4359.487305,4363.077148,4552.436035,4538.974121,4560.641113,4496.794922,5664.358887,4310.512695,4252.179688,0.000000,4.000000,75.000000,,,,0.000000,0.000000,0.000000,0.000000,0.000000,0.000000,0.000000,0.000000,0.000000,0.000000,0.000000,0.000000,0.000000,0.000000,0.000000,0.000000,,,,,,,,,,,,,,,,,,,,,,,,,,,,,,,,,,,,,,,,,,,,,,,,,,,,,,,,,,,,,,,,,,,,,,,,,,,,,,,,,,,,,,,,,,,,,,,,,,,,,,,,,,,,,,,,,,,,,,,,,,,,,,,,,
1738755266.904230,1738755266.904810,98.000000,0.000000,4323.846191,4350.000000,4252.692383,4305.512695,4353.077148,4359.615234,4363.589844,4551.282227,4543.077148,4561.282227,4496.153809,5661.282227,4312.051270,4256.538574,0.000000,4.000000,75.000000,,,,0.000000,0.000000,0.000000,0.000000,0.000000,0.000000,0.000000,0.000000,0.000000,0.000000,0.000000,0.000000,0.000000,0.000000,0.000000,0.000000,,,,,,,,,,,,,,,,,,,,,,,,,,,,,,,,,,,,,,,,,,,,,,,,,,,,,,,,,,,,,,,,,,,,,,,,,,,,,,,,,,,,,,,,,,,,,,,,,,,,,,,,,,,,,,,,,,,,,,,,,,,,,,,,,
1738755266.912038,1738755266.912719,99.000000,0.000000,4323.846191,4349.230957,4256.282227,4305.897461,4349.487305,4362.692383,4367.051270,4550.256348,4540.641113,4559.871582,4496.410156,5663.589844,4307.436035,4257.436035,0.000000,4.000000,75.000000,,,,0.000000,0.000000,0.000000,0.000000,0.000000,0.000000,0.000000,0.000000,0.000000,0.000000,0.000000,0.000000,0.000000,0.000000,0.000000,0.000000,,,,,,,,,,,,,,,,,,,,,,,,,,,,,,,,,,,,,,,,,,,,,,,,,,,,,,,,,,,,,,,,,,,,,,,,,,,,,,,,,,,,,,,,,,,,,,,,,,,,,,,,,,,,,,,,,,,,,,,,,,,,,,,,,
1738755266.919846,1738755266.920527,100.000000,0.000000,4322.436035,4349.102539,4255.641113,4302.948730,4350.384766,4363.205078,4365.000000,4549.743652,4539.487305,4559.358887,4496.538574,5665.256348,4310.512695,4253.974121,0.000000,4.000000,75.000000,,,,0.000000,0.000000,0.000000,0.000000,0.000000,0.000000,0.000000,0.000000,0.000000,0.000000,0.000000,0.000000,0.000000,0.000000,0.000000,0.000000,,,,,,,,,,,,,,,,,25.000000,0.000000,0.785978,-0.614746,-0.060364,0.026123,0.065926,-0.985472,0.234404,4.390491,-14.978381,22.890429,,,,,,,,,,,,,,,,,,,,,,,,,,,,,,,,,,,,,,,,,,,,,,,,,,,,,,,,,,,,,,,,,,,,,,,,,,,,,,,,,,,,,,,,,,,,,,,,,,,,,
1738755266.927654,1738755266.928235,101.000000,0.000000,4320.641113,4351.153809,4254.358887,4301.282227,4353.717773,4360.128418,4364.743652,4549.615234,4541.922852,4560.512695,4494.358887,5666.153809,4313.461426,4252.948730,0.000000,4.000000,75.000000,,,,0.000000,0.000000,0.000000,0.000000,0.000000,0.000000,0.000000,0.000000,0.000000,0.000000,0.000000,0.000000,0.000000,0.000000,0.000000,0.000000,,,,,,,,,,,,,,,,,,,,,,,,,,,,,,,,,,,,,,,,,,,,,,,,,,,,,,,,,,,,,,,,,,,,,,,,,,,,,,,,,,,,,,,,,,,,,,,,,,,,,,,,,,,,,,,,,,,,,,,,,,,,,,,,,
1738755266.935462,1738755266.936043,102.000000,0.000000,4323.589844,4352.307617,4257.051270,4302.436035,4353.205078,4358.846191,4369.743652,4550.128418,4541.794922,4560.512695,4494.615234,5666.410156,4307.436035,4257.563965,0.000000,4.000000,75.000000,,,,0.000000,0.000000,0.000000,0.000000,0.000000,0.000000,0.000000,0.000000,0.000000,0.000000,0.000000,0.000000,0.000000,0.000000,0.000000,0.000000,,,,,,,,,,,,,,,,,,,,,,,,,,,,,,,,,,,,,,,,,,,,,,,,,,,,,,,,,,,,,,,,,,,,,,,,,,,,,,,,,,,,,,,,,,,,,,,,,,,,,,,,,,,,,,,,,,,,,,,,,,,,,,,,,
1738755266.943270,1738755266.943751,103.000000,0.000000,4326.282227,4351.666504,4256.922852,4301.922852,4352.820313,4360.769043,4368.461426,4550.000000,4542.179688,4561.025879,4497.307617,5662.563965,4307.051270,4258.974121,0.000000,4.000000,75.000000,,,,0.000000,0.000000,0.000000,0.000000,0.000000,0.000000,0.000000,0.000000,0.000000,0.000000,0.000000,0.000000,0.000000,0.000000,0.000000,0.000000,,,,,,,,,,,,,,,,,,,,,,,,,,,,,,,,,,,,,,,,,,,,,,,,,,,,,,,,,,,,,,,,,,,,,,,,,,,,,,,,,,,,,,,,,,,,,,,,,,,,,,,,,,,,,,,,,,,,,,,,,,,,,,,,,
1738755266.951078,1738755266.951559,104.000000,0.000000,4323.205078,4350.000000,4255.641113,4303.589844,4353.974121,4362.436035,4365.769043,4550.128418,4540.000000,4560.769043,4495.256348,5661.410156,4309.230957,4253.077148,0.000000,4.000000,75.000000,,,,0.000000,0.000000,0.000000,0.000000,0.000000,0.000000,0.000000,0.000000,0.000000,0.000000,0.000000,0.000000,0.000000,0.000000,0.000000,0.000000,,,,,,,,,,,,,,,,,26.000000,0.000000,0.785980,-0.614746,-0.060303,0.026184,0.058113,-0.973752,0.237334,4.451442,-14.830544,22.884718,,,,,,,,,,,,,,,,,,,,,,,,,,,,,,,,,,,,,,,,,,,,,,,,,,,,,,,,,,,,,,,,,,,,,,,,,,,,,,,,,,,,,,,,,,,,,,,,,,,,,
1738755266.958887,1738755266.959267,105.000000,0.000000,4319.743652,4351.538574,4256.538574,4304.230957,4354.487305,4360.512695,4366.922852,4551.410156,4536.153809,4559.230957,4493.333496,5664.358887,4310.769043,4252.179688,0.000000,4.000000,75.000000,,,,0.000000,0.000000,0.000000,0.000000,0.000000,0.000000,0.000000,0.000000,0.000000,0.000000,0.000000,0.000000,0.000000,0.000000,0.000000,0.000000,,,,,,,,,,,,,,,,,,,,,,,,,,,,,,,,,,,,,,,,,,,,,,,,,,,,,,,,,,,,,,,,,,,,,,,,,,,,,,,,,,,,,,,,,,,,,,,,,,,,,,,,,,,,,,,,,,,,,,,,,,,,,,,,,
1738755266.966694,1738755266.967075,106.000000,0.000000,4320.256348,4352.436035,4255.000000,4301.153809,4354.487305,4359.743652,4371.025879,4551.153809,4537.948730,4559.230957,4495.384766,5665.128418,4312.307617,4257.820313,0.000000,4.000000,75.000000,,,,0.000000,0.000000,0.000000,0.000000,0.000000,0.000000,0.000000,0.000000,0.000000,0.000000,0.000000,0.000000,0.000000,0.000000,0.000000,0.000000,,,,,,,,,,,,,,,,,,,,,,,,,,,,,,,,,,,,,,,,,,,,,,,,,,,,,,,,,,,,,,,,,,,,,,,,,,,,,,,,,,,,,,,,,,,,,,,,,,,,,,,,,,,,,,,,,,,,,,,,,,,,,,,,,
1738755266.974503,1738755266.974783,107.000000,0.000000,4320.897461,4350.128418,4253.205078,4300.769043,4354.487305,4362.436035,4371.666504,4549.743652,4540.512695,4560.641113,4496.025879,5661.794922,4312.179688,4257.563965,0.000000,4.000000,75.000000,,,,0.000000,0.000000,0.000000,0.000000,0.000000,0.000000,0.000000,0.000000,0.000000,0.000000,0.000000,0.000000,0.000000,0.000000,0.000000,0.000000,,,,,,,,,,,,,,,,,,,,,,,,,,,,,,,,,,,,,,,,,,,,,,,,,,,,,,,,,,,,,,,,,,,,,,,,,,,,,,,,,,,,,,,,,,,,,,,,,,,,,,,,,,,,,,,,,,,,,,,,,,,,,,,,,
1738755266.982311,1738755266.982591,108.000000,0.000000,4320.256348,4350.000000,4255.000000,4301.922852,4351.025879,4363.846191,4366.410156,4549.615234,4539.102539,4560.384766,4494.102539,5661.794922,4310.769043,4254.871582,0.000000,4.000000,75.000000,,,,0.000000,0.000000,0.000000,0.000000,0.000000,0.000000,0.000000,0.000000,0.000000,0.000000,0.000000,0.000000,0.000000,0.000000,0.000000,0.000000,,,,,,,,,,,,,,,,,27.000000,0.000000,0.785974,-0.614746,-0.060364,0.026245,0.070809,-0.976682,0.244170,4.422964,-14.880822,22.929581,,,,,,,,,,,,,,,,,,,,,,,,,,,,,,,,,,,,,,,,,,,,,,,,,,,,,,,,,,,,,,,,,,,,,,,,,,,,,,,,,,,,,,,,,,,,,,,,,,,,,
1738755266.990119,1738755266.990299,109.000000,0.000000,4321.794922,4351.153809,4255.512695,4300.897461,4349.230957,4360.512695,4363.846191,4552.820313,4537.051270,4560.384766,4493.974121,5665.512695,4307.563965,4255.128418,0.000000,4.000000,75.000000,,,,0.000000,0.000000,0.000000,0.000000,0.000000,0.000000,0.000000,0.000000,0.000000,0.000000,0.000000,0.000000,0.000000,0.000000,0.000000,0.000000,,,,,,,,,,,,,,,,,,,,,,,,,,,,,,,,,,,,,,,,,,,,,,,,,,,,,,,,,,,,,,,,,,,,,,,,,,,,,,,,,,,,,,,,,,,,,,,,,,,,,,,,,,,,,,,,,,,,,,,,,,,,,,,,,
1738755266.997927,1738755266.998107,110.000000,0.000000,4322.948730,4349.487305,4253.077148,4300.128418,4353.205078,4358.974121,4365.384766,4552.436035,4538.205078,4559.487305,4498.974121,5663.205078,4310.769043,4256.794922,0.000000,4.000000,75.000000,,,,0.000000,0.000000,0.000000,0.000000,0.000000,0.000000,0.000000,0.000000,0.000000,0.000000,0.000000,0.000000,0.000000,0.000000,0.000000,0.000000,,,,,,,,,,,,,,,,,,,,,,,,,,,,,,,,,,,,,,,,,,,,,,,,,,,,,,,,,,,,0.033369,0.016523,0.028927,0.015096,0.028545,0.031246,0.034114,0.015898,0.009184,0.014867,0.038395,0.046942,0.012650,0.031428,0.024412,0.009918,0.017766,0.033975,0.009573,0.024872,0.042566,0.034369,0.019662,0.027393,0.035028,0.006490,0.012863,0.007855,0.013108,0.020078,0.056177,0.021269,0.007046,0.020752,0.041136,0.038169,0.026007,0.027409,0.028339,0.025530,0.038799,0.065465,0.032388,0.016611,0.018327,0.029737,0.025677,0.011084,0.011110,0.015778,0.016542,0.029109,0.024784,0.025981,0.034449,0.009800,0.018161,0.059861,0.025505,0.034384,0.042503,0.022673,0.037458,0.033361,0.045302,0.026352,0.020978,0.025968,0.025376,0.035765
1738755267.005735,1738755267.005815,111.000000,0.000000,4324.358887,4350.000000,4251.538574,4301.538574,4355.897461,4362.563965,4368.077148,4549.615234,4540.769043,4556.666504,4501.025879,5661.025879,4314.102539,4257.563965,0.000000,4.000000,75.000000,,,,0.000000,0.000000,0.000000,0.000000,0.000000,0.000000,0.000000,0.000000,0.000000,0.000000,0.000000,0.000000,0.000000,0.000000,0.000000,0.000000,,,,,,,,,,,,,,,,,,,,,,,,,,,,,,,,,,,,,,,,,,,,,,,,,,,,,,,,,,,,,,,,,,,,,,,,,,,,,,,,,,,,,,,,,,,,,,,,,,,,,,,,,,,,,,,,,,,,,,,,,,,,,,,,,
1738755267.013543,1738755267.013623,112.000000,0.000000,4324.230957,4353.077148,4253.077148,4303.589844,4353.846191,4362.563965,4367.307617,4550.641113,4538.589844,4558.205078,4497.051270,5664.487305,4307.563965,4256.153809,0.000000,4.000000,75.000000,,,,0.000000,0.000000,0.000000,0.000000,0.000000,0.000000,0.000000,0.000000,0.000000,0.000000,0.000000,0.000000,0.000000,0.000000,0.000000,0.000000,,,,,,,,,,,,,,,,,28.000000,0.000000,0.785960,-0.614746,-0.060547,0.026245,0.065438,-0.987914,0.229520,4.430668,-15.059406,22.969955,,,,,,,,,,,,,,,,,,,,,,,,,,,,,,,,,,,,,,,,,,,,,,,,,,,,,,,,,,,,,,,,,,,,,,,,,,,,,,,,,,,,,,,,,,,,,,,,,,,,,
1738755267.021351,1738755267.021331,113.000000,0.000000,4321.282227,4350.641113,4254.487305,4303.974121,4351.153809,4358.077148,4366.282227,4551.538574,4536.538574,4562.307617,4496.282227,5666.025879,4306.025879,4257.051270,0.000000,4.000000,75.000000,,,,0.000000,0.000000,0.000000,0.000000,0.000000,0.000000,0.000000,0.000000,0.000000,0.000000,0.000000,0.000000,0.000000,0.000000,0.000000,0.000000,,,,,,,,,,,,,,,,,,,,,,,,,,,,,,,,,,,,,,,,,,,,,,,,,,,,,,,,,,,,,,,,,,,,,,,,,,,,,,,,,,,,,,,,,,,,,,,,,,,,,,,,,,,,,,,,,,,,,,,,,,,,,,,,,
1738755267.029159,1738755267.029239,114.000000,0.000000,4322.051270,4348.589844,4254.487305,4302.307617,4350.128418,4358.333496,4369.615234,4552.563965,4538.846191,4560.641113,4498.846191,5665.512695,4311.410156,4257.692383,0.000000,4.000000,75.000000,,,,0.000000,0.000000,0.000000,0.000000,0.000000,0.000000,0.000000,0.000000,0.000000,0.000000,0.000000,0.000000,0.000000,0.000000,0.000000,0.000000,,,,,,,,,,,,,,,,,,,,,,,,,,,,,,,,,,,,,,,,,,,,,,,,,,,,,,,,,,,,,,,,,,,,,,,,,,,,,,,,,,,,,,,,,,,,,,,,,,,,,,,,,,,,,,,,,,,,,,,,,,,,,,,,,
1738755267.036967,1738755267.037047,115.000000,0.000000,4325.897461,4351.410156,4254.871582,4300.641113,4349.871582,4361.538574,4368.974121,4550.512695,4540.384766,4559.230957,4498.205078,5664.487305,4313.846191,4257.436035,0.000000,4.000000,75.000000,,,,0.000000,0.000000,0.000000,0.000000,0.000000,0.000000,0.000000,0.000000,0.000000,0.000000,0.000000,0.000000,0.000000,0.000000,0.000000,0.000000,,,,,,,,,,,,,,,,,,,,,,,,,,,,,,,,,,,,,,,,,,,,,,,,,,,,,,,,,,,,,,,,,,,,,,,,,,,,,,,,,,,,,,,,,,,,,,,,,,,,,,,,,,,,,,,,,,,,,,,,,,,,,,,,,
1738755267.044776,1738755267.044956,116.000000,0.000000,4327.307617,4349.871582,4256.538574,4301.666504,4352.051270,4361.025879,4364.615234,4549.230957,4538.717773,4560.512695,4497.820313,5663.205078,4311.153809,4257.436035,0.000000,4.000000,75.000000,,,,0.000000,0.000000,0.000000,0.000000,0.000000,0.000000,0.000000,0.000000,0.000000,0.000000,0.000000,0.000000,0.000000,0.000000,0.000000,0.000000,,,,,,,,,,,,,,,,,29.000000,0.000000,0.785955,-0.614746,-0.060608,0.026245,0.064461,-0.983030,0.235380,4.420934,-15.103466,22.889626,,,,,,,,,,,,,,,,,,,,,,,,,,,,,,,,,,,,,,,,,,,,,,,,,,,,,,,,,,,,,,,,,,,,,,,,,,,,,,,,,,,,,,,,,,,,,,,,,,,,,
1738755267.052584,1738755267.052764,117.000000,0.000000,4323.846191,4347.692383,4256.025879,4302.436035,4353.974121,4360.128418,4364.871582,4552.307617,4538.461426,4559.230957,4499.230957,5667.179688,4307.051270,4255.769043,0.000000,4.000000,75.000000,,,,0.000000,0.000000,0.000000,0.000000,0.000000,0.000000,0.000000,0.000000,0.000000,0.000000,0.000000,0.000000,0.000000,0.000000,0.000000,0.000000,,,,,,,,,,,,,,,,,,,,,,,,,,,,,,,,,,,,,,,,,,,,,,,,,,,,,,,,,,,,,,,,,,,,,,,,,,,,,,,,,,,,,,,,,,,,,,,,,,,,,,,,,,,,,,,,,,,,,,,,,,,,,,,,,
1738755267.060392,1738755267.060672,118.000000,0.000000,4320.000000,4349.871582,4255.000000,4300.897461,4353.461426,4360.384766,4365.897461,4552.179688,4540.128418,4557.948730,4497.948730,5666.922852,4309.230957,4256.794922,0.000000,4.000000,75.000000,,,,0.000000,0.000000,0.000000,0.000000,0.000000,0.000000,0.000000,0.000000,0.000000,0.000000,0.000000,0.000000,0.000000,0.000000,0.000000,0.000000,,,,,,,,,,,,,,,,,,,,,,,,,,,,,,,,,,,,,,,,,,,,,,,,,,,,,,,,,,,,,,,,,,,,,,,,,,,,,,,,,,,,,,,,,,,,,,,,,,,,,,,,,,,,,,,,,,,,,,,,,,,,,,,,,
1738755267.068200,1738755267.068480,119.000000,0.000000,4321.922852,4349.743652,4256.538574,4301.025879,4350.641113,4359.615234,4366.410156,4549.487305,4540.641113,4558.589844,4493.589844,5662.179688,4310.000000,4257.436035,0.000000,4.000000,75.000000,,,,0.000000,0.000000,0.000000,0.000000,0.000000,0.000000,0.000000,0.000000,0.000000,0.000000,0.000000,0.000000,0.000000,0.000000,0.000000,0.000000,,,,,,,,,,,,,,,,,,,,,,,,,,,,,,,,,,,,,,,,,,,,,,,,,,,,,,,,,,,,,,,,,,,,,,,,,,,,,,,,,,,,,,,,,,,,,,,,,,,,,,,,,,,,,,,,,,,,,,,,,,,,,,,,,
1738755267.076008,1738755267.076388,120.000000,0.000000,4323.077148,4348.846191,4256.538574,4302.948730,4348.846191,4359.871582,4368.077148,4548.846191,4540.512695,4559.358887,4491.282227,5663.205078,4308.077148,4256.153809,0.000000,4.000000,75.000000,,,,0.000000,0.000000,0.000000,0.000000,0.000000,0.000000,0.000000,0.000000,0.000000,0.000000,0.000000,0.000000,0.000000,0.000000,0.000000,0.000000,,,,,,,,,,,,,,,,,30.000000,0.000000,0.785955,-0.614746,-0.060608,0.026245,0.063484,-0.981077,0.251007,4.412174,-15.059786,22.983997,,,,,,,,,,,,,,,,,,,,,,,,,,,,,,,,,,,,,,,,,,,,,,,,,,,,,,,,,,,,,,,,,,,,,,,,,,,,,,,,,,,,,,,,,,,,,,,,,,,,,
1738755267.083816,1738755267.084196,121.000000,0.000000,4321.282227,4350.512695,4255.769043,4302.948730,4351.666504,4360.897461,4366.922852,4550.512695,4542.179688,4560.128418,4495.000000,5665.512695,4310.641113,4255.256348,0.000000,4.000000,75.000000,,,,0.000000,0.000000,0.000000,0.000000,0.000000,0.000000,0.000000,0.000000,0.000000,0.000000,0.000000,0.000000,0.000000,0.000000,0.000000,0.000000,,,,,,,,,,,,,,,,,,,,,,,,,,,,,,,,,,,,,,,,,,,,,,,,,,,,,,,,,,,,,,,,,,,,,,,,,,,,,,,,,,,,,,,,,,,,,,,,,,,,,,,,,,,,,,,,,,,,,,,,,,,,,,,,,
1738755267.091624,1738755267.092104,122.000000,0.000000,4323.589844,4349.743652,4254.487305,4302.051270,4352.692383,4360.384766,4365.256348,4551.666504,4542.563965,4559.871582,4498.205078,5665.128418,4311.794922,4255.897461,0.000000,4.000000,75.000000,,,,0.000000,0.000000,0.000000,0.000000,0.000000,0.000000,0.000000,0.000000,0.000000,0.000000,0.000000,0.000000,0.000000,0.000000,0.000000,0.000000,,,,,,,,,,,,,,,,,,,,,,,,,,,,,,,,,,,,,,,,,,,,,,,,,,,,,,,,,,,,,,,,,,,,,,,,,,,,,,,,,,,,,,,,,,,,,,,,,,,,,,,,,,,,,,,,,,,,,,,,,,,,,,,,,
1738755267.099432,1738755267.099913,123.000000,0.000000,4324.358887,4350.000000,4252.692383,4300.897461,4349.102539,4360.000000,4365.897461,4551.538574,4540.128418,4559.487305,4499.358887,5661.282227,4312.436035,4259.102539,0.000000,4.000000,75.000000,,,,0.000000,0.000000,0.000000,0.000000,0.000000,0.000000,0.000000,0.000000,0.000000,0.000000,0.000000,0.000000,0.000000,0.000000,0.000000,0.000000,,,,,,,,,,,,,,,,,,,,,,,,,,,,,,,,,,,,,,,,,,,,,,,,,,,,,,,,,,,,,,,,,,,,,,,,,,,,,,,,,,,,,,,,,,,,,,,,,,,,,,,,,,,,,,,,,,,,,,,,,,,,,,,,,
1738755267.107240,1738755267.107721,124.000000,0.000000,4321.666504,4351.410156,4253.974121,4302.948730,4351.025879,4360.000000,4366.794922,4552.563965,4539.871582,4560.000000,4500.256348,5660.897461,4310.769043,4258.461426,0.000000,4.000000,75.000000,,,,0.000000,0.000000,0.000000,0.000000,0.000000,0.000000,0.000000,0.000000,0.000000,0.000000,0.000000,0.000000,0.000000,0.000000,0.000000,0.000000,,,,,,,,,,,,,,,,,31.000000,0.000000,0.785995,-0.614685,-0.060730,0.026184,0.064461,-0.968380,0.241729,4.370957,-14.970474,22.985598,,,,,,,,,,,,,,,,,,,,,,,,,,,,,,,,,,,,,,,,,,,,,,,,,,,,,,,,,,,,,,,,,,,,,,,,,,,,,,,,,,,,,,,,,,,,,,,,,,,,,
1738755267.115049,1738755267.115529,125.000000,0.000000,4323.333496,4350.897461,4255.769043,4305.769043,4354.487305,4360.128418,4365.641113,4553.077148,4541.025879,4559.871582,4497.563965,5664.487305,4308.461426,4255.256348,0.000000,4.000000,75.000000,,,,0.000000,0.000000,0.000000,0.000000,0.000000,0.000000,0.000000,0.000000,0.000000,0.000000,0.000000,0.000000,0.000000,0.000000,0.000000,0.000000,,,,,,,,,,,,,,,,,,,,,,,,,,,,,,,,,,,,,,,,,,,,,,,,,,,,,,,,,,,,,,,,,,,,,,,,,,,,,,,,,,,,,,,,,,,,,,,,,,,,,,,,,,,,,,,,,,,,,,,,,,,,,,,,,
1738755267.122857,1738755267.123237,126.000000,0.000000,4325.512695,4352.179688,4255.512695,4303.589844,4350.769043,4361.153809,4364.358887,4551.666504,4539.358887,4560.256348,4497.692383,5664.358887,4310.641113,4258.461426,0.000000,4.000000,75.000000,,,,0.000000,0.000000,0.000000,0.000000,0.000000,0.000000,0.000000,0.000000,0.000000,0.000000,0.000000,0.000000,0.000000,0.000000,0.000000,0.000000,,,,,,,,,,,,,,,,,,,,,,,,,,,,,,,,,,,,,,,,,,,,,,,,,,,,,,,,,,,,0.032716,0.016721,0.029918,0.016896,0.027939,0.029766,0.031832,0.016199,0.008893,0.013737,0.038071,0.055246,0.013121,0.029107,0.027306,0.011118,0.018846,0.034696,0.012186,0.023850,0.040116,0.029836,0.020436,0.031954,0.033380,0.006322,0.014693,0.009304,0.014304,0.020334,0.057443,0.029053,0.008998,0.019932,0.038823,0.039335,0.026936,0.023611,0.027264,0.024673,0.036333,0.055557,0.029534,0.016091,0.019491,0.031692,0.031006,0.013612,0.010090,0.017009,0.017342,0.034863,0.031431,0.032620,0.036185,0.012885,0.019161,0.056010,0.022407,0.033265,0.048027,0.025058,0.034605,0.036774,0.048521,0.030951,0.019396,0.025663,0.026423,0.036109
1738755267.130665,1738755267.131045,127.000000,0.000000,4321.794922,4351.922852,4254.230957,4301.282227,4347.948730,4360.769043,4367.179688,4552.563965,4538.077148,4562.948730,4499.743652,5662.179688,4310.897461,4260.769043,75.000000,4.000000,75.000000,,,,0.000000,0.000000,0.000000,0.000000,0.000000,0.000000,0.000000,0.000000,0.000000,0.000000,0.000000,0.000000,0.000000,0.000000,0.000000,0.000000,,,,,,,,,,,,,,,,,,,,,,,,,,,,,,,,,,,,,,,,,,,,,,,,,,,,,,,,,,,,,,,,,,,,,,,,,,,,,,,,,,,,,,,,,,,,,,,,,,,,,,,,,,,,,,,,,,,,,,,,,,,,,,,,,
1738755267.138473,1738755267.138753,0.000000,0.000000,4318.589844,4349.615234,4253.205078,4301.922852,4351.538574,4358.461426,4366.666504,4550.769043,4539.358887,4562.436035,4499.230957,5662.051270,4310.769043,4257.179688,0.000000,4.000000,75.000000,,,,0.000000,0.000000,0.000000,0.000000,0.000000,0.000000,0.000000,0.000000,0.000000,0.000000,0.000000,0.000000,0.000000,0.000000,0.000000,0.000000,,,,,,,,,,,,,,,,,0.000000,0.000000,0.785954,-0.614746,-0.060669,0.026123,0.063973,-0.976682,0.236845,4.333861,-14.890094,22.953705,,,,,,,,,,,,,,,,,,,,,,,,,,,,,,,,,,,,,,,,,,,,,,,,,,,,,,,,,,,,,,,,,,,,,,,,,,,,,,,,,,,,,,,,,,,,,,,,,,,,,
1738755267.146281,1738755267.146561,1.000000,0.000000,4320.897461,4349.871582,4253.205078,4303.846191,4353.589844,4359.358887,4362.820313,4547.563965,4539.230957,4560.000000,4498.077148,5665.000000,4310.384766,4255.256348,0.000000,4.000000,75.000000,,,,0.000000,0.000000,0.000000,0.000000,0.000000,0.000000,0.000000,0.000000,0.000000,0.000000,0.000000,0.000000,0.000000,0.000000,0.000000,0.000000,,,,,,,,,,,,,,,,,,,,,,,,,,,,,,,,,,,,,,,,,,,,,,,,,,,,,,,,,,,,,,,,,,,,,,,,,,,,,,,,,,,,,,,,,,,,,,,,,,,,,,,,,,,,,,,,,,,,,,,,,,,,,,,,,
1738755267.154089,1738755267.154269,2.000000,0.000000,4323.717773,4350.128418,4254.102539,4303.846191,4351.282227,4361.153809,4366.025879,4550.512695,4537.948730,4561.794922,4498.589844,5666.410156,4309.358887,4255.256348,0.000000,4.000000,75.000000,,,,0.000000,0.000000,0.000000,0.000000,0.000000,0.000000,0.000000,0.000000,0.000000,0.000000,0.000000,0.000000,0.000000,0.000000,0.000000,0.000000,,,,,,,,,,,,,,,,,,,,,,,,,,,,,,,,,,,,,,,,,,,,,,,,,,,,,,,,,,,,,,,,,,,,,,,,,,,,,,,,,,,,,,,,,,,,,,,,,,,,,,,,,,,,,,,,,,,,,,,,,,,,,,,,,
1738755267.161897,1738755267.162177,3.000000,0.000000,4322.179688,4349.743652,4254.487305,4301.794922,4351.666504,4360.128418,4369.102539,4553.205078,4538.717773,4561.922852,4498.589844,5665.000000,4311.922852,4253.846191,0.000000,4.000000,75.000000,,,,0.000000,0.000000,0.000000,0.000000,0.000000,0.000000,0.000000,0.000000,0.000000,0.000000,0.000000,0.000000,0.000000,0.000000,0.000000,0.000000,,,,,,,,,,,,,,,,,,,,,,,,,,,,,,,,,,,,,,,,,,,,,,,,,,,,,,,,,,,,,,,,,,,,,,,,,,,,,,,,,,,,,,,,,,,,,,,,,,,,,,,,,,,,,,,,,,,,,,,,,,,,,,,,,
1738755267.169705,1738755267.169986,4.000000,0.000000,4321.410156,4348.461426,4255.128418,4302.436035,4352.051270,4359.743652,4366.153809,4553.077148,4537.820313,4560.256348,4497.179688,5664.743652,4314.871582,4254.487305,0.000000,4.000000,75.000000,,,,0.000000,0.000000,0.000000,0.000000,0.000000,0.000000,0.000000,0.000000,0.000000,0.000000,0.000000,0.000000,0.000000,0.000000,0.000000,0.000000,,,,,,,,,,,,,,,,,1.000000,0.000000,0.785904,-0.614807,-0.060730,0.026062,0.059578,-0.971798,0.237334,4.350475,-15.017751,23.025000,,,,,,,,,,,,,,,,,,,,,,,,,,,,,,,,,,,,,,,,,,,,,,,,,,,,,,,,,,,,,,,,,,,,,,,,,,,,,,,,,,,,,,,,,,,,,,,,,,,,,
1738755267.177513,1738755267.177894,5.000000,0.000000,4325.000000,4348.461426,4256.538574,4301.153809,4350.512695,4360.641113,4364.230957,4550.897461,4538.461426,4560.512695,4497.820313,5662.948730,4314.487305,4257.820313,0.000000,4.000000,75.000000,,,,0.000000,0.000000,0.000000,0.000000,0.000000,0.000000,0.000000,0.000000,0.000000,0.000000,0.000000,0.000000,0.000000,0.000000,0.000000,0.000000,,,,,,,,,,,,,,,,,,,,,,,,,,,,,,,,,,,,,,,,,,,,,,,,,,,,,,,,,,,,,,,,,,,,,,,,,,,,,,,,,,,,,,,,,,,,,,,,,,,,,,,,,,,,,,,,,,,,,,,,,,,,,,,,,
1738755267.185321,1738755267.185702,6.000000,0.000000,4324.743652,4350.384766,4255.128418,4299.871582,4353.205078,4361.153809,4365.897461,4550.384766,4539.743652,4558.846191,4497.563965,5662.563965,4311.282227,4257.948730,0.000000,4.000000,75.000000,,,,0.000000,0.000000,0.000000,0.000000,0.000000,0.000000,0.000000,0.000000,0.000000,0.000000,0.000000,0.000000,0.000000,0.000000,0.000000,0.000000,,,,,,,,,,,,,,,,,,,,,,,,,,,,,,,,,,,,,,,,,,,,,,,,,,,,,,,,,,,,,,,,,,,,,,,,,,,,,,,,,,,,,,,,,,,,,,,,,,,,,,,,,,,,,,,,,,,,,,,,,,,,,,,,,
1738755267.193129,1738755267.193510,7.000000,0.000000,4320.384766,4351.153809,4254.615234,4303.077148,4356.794922,4361.282227,4366.538574,4550.384766,4537.563965,4557.051270,4495.384766,5667.179688,4311.282227,4256.538574,0.000000,4.000000,75.000000,,,,0.000000,0.000000,0.000000,0.000000,0.000000,0.000000,0.000000,0.000000,0.000000,0.000000,0.000000,0.000000,0.000000,0.000000,0.000000,0.000000,,,,,,,,,,,,,,,,,,,,,,,,,,,,,,,,,,,,,,,,,,,,,,,,,,,,,,,,,,,,,,,,,,,,,,,,,,,,,,,,,,,,,,,,,,,,,,,,,,,,,,,,,,,,,,,,,,,,,,,,,,,,,,,,,
1738755267.200938,1738755267.201218,8.000000,0.000000,4320.384766,4350.512695,4257.820313,4303.717773,4353.589844,4361.153809,4366.410156,4548.589844,4537.820313,4558.974121,4496.410156,5666.666504,4314.615234,4258.974121,0.000000,4.000000,75.000000,,,,0.000000,0.000000,0.000000,0.000000,0.000000,0.000000,0.000000,0.000000,0.000000,0.000000,0.000000,0.000000,0.000000,0.000000,0.000000,0.000000,,,,,,,,,,,,,,,,,2.000000,0.000000,0.785897,-0.614807,-0.060791,0.026123,0.071298,-0.980100,0.234404,4.365427,-15.099309,23.005835,,,,,,,,,,,,,,,,,,,,,,,,,,,,,,,,,,,,,,,,,,,,,,,,,,,,,,,,,,,,,,,,,,,,,,,,,,,,,,,,,,,,,,,,,,,,,,,,,,,,,
1738755267.208746,1738755267.209026,9.000000,0.000000,4323.717773,4348.333496,4255.641113,4303.846191,4351.153809,4361.794922,4368.846191,4551.282227,4541.922852,4559.615234,4499.358887,5663.205078,4313.205078,4257.307617,0.000000,4.000000,75.000000,,,,0.000000,0.000000,0.000000,0.000000,0.000000,0.000000,0.000000,0.000000,0.000000,0.000000,0.000000,0.000000,0.000000,0.000000,0.000000,0.000000,,,,,,,,,,,,,,,,,,,,,,,,,,,,,,,,,,,,,,,,,,,,,,,,,,,,,,,,,,,,,,,,,,,,,,,,,,,,,,,,,,,,,,,,,,,,,,,,,,,,,,,,,,,,,,,,,,,,,,,,,,,,,,,,,
1738755267.216554,1738755267.216734,10.000000,0.000000,4323.846191,4348.717773,4250.256348,4305.000000,4354.615234,4361.666504,4370.128418,4555.641113,4542.692383,4559.487305,4497.051270,5666.025879,4310.000000,4255.769043,0.000000,4.000000,75.000000,,,,0.000000,0.000000,0.000000,0.000000,0.000000,0.000000,0.000000,0.000000,0.000000,0.000000,0.000000,0.000000,0.000000,0.000000,0.000000,0.000000,,,,,,,,,,,,,,,,,,,,,,,,,,,,,,,,,,,,,,,,,,,,,,,,,,,,,,,,,,,,,,,,,,,,,,,,,,,,,,,,,,,,,,,,,,,,,,,,,,,,,,,,,,,,,,,,,,,,,,,,,,,,,,,,,
1738755267.224362,1738755267.224642,11.000000,0.000000,4322.436035,4351.282227,4252.051270,4303.974121,4352.820313,4359.743652,4367.179688,4552.820313,4537.948730,4562.051270,4493.846191,5668.205078,4310.256348,4259.102539,0.000000,4.000000,75.000000,,,,0.000000,0.000000,0.000000,0.000000,0.000000,0.000000,0.000000,0.000000,0.000000,0.000000,0.000000,0.000000,0.000000,0.000000,0.000000,0.000000,,,,,,,,,,,,,,,,,,,,,,,,,,,,,,,,,,,,,,,,,,,,,,,,,,,,,,,,,,,,,,,,,,,,,,,,,,,,,,,,,,,,,,,,,,,,,,,,,,,,,,,,,,,,,,,,,,,,,,,,,,,,,,,,,
1738755267.232170,1738755267.232451,12.000000,0.000000,4323.461426,4350.769043,4254.743652,4302.692383,4348.589844,4360.128418,4366.153809,4549.487305,4534.615234,4561.410156,4495.769043,5666.666504,4310.897461,4256.410156,0.000000,4.000000,75.000000,,,,0.000000,0.000000,0.000000,0.000000,0.000000,0.000000,0.000000,0.000000,0.000000,0.000000,0.000000,0.000000,0.000000,0.000000,0.000000,0.000000,,,,,,,,,,,,,,,,,3.000000,0.000000,0.785890,-0.614807,-0.060852,0.026184,0.067879,-0.975705,0.232450,4.295551,-15.039378,22.988585,,,,,,,,,,,,,,,,,,,,,,,,,,,,,,,,,,,,,,,,,,,,,,,,,,,,,,,,,,,,,,,,,,,,,,,,,,,,,,,,,,,,,,,,,,,,,,,,,,,,,
1738755267.239978,1738755267.240359,13.000000,0.000000,4320.897461,4351.538574,4253.589844,4301.410156,4350.384766,4362.563965,4366.153809,4552.179688,4538.205078,4559.358887,4497.563965,5665.641113,4314.230957,4254.358887,0.000000,4.000000,75.000000,,,,0.000000,0.000000,0.000000,0.000000,0.000000,0.000000,0.000000,0.000000,0.000000,0.000000,0.000000,0.000000,0.000000,0.000000,0.000000,0.000000,,,,,,,,,,,,,,,,,,,,,,,,,,,,,,,,,,,,,,,,,,,,,,,,,,,,,,,,,,,,,,,,,,,,,,,,,,,,,,,,,,,,,,,,,,,,,,,,,,,,,,,,,,,,,,,,,,,,,,,,,,,,,,,,,
1738755267.247786,1738755267.248167,14.000000,0.000000,4319.615234,4351.410156,4253.589844,4300.897461,4351.794922,4362.307617,4367.051270,4553.461426,4541.282227,4560.256348,4496.794922,5664.487305,4313.205078,4255.641113,0.000000,4.000000,75.000000,,,,0.000000,0.000000,0.000000,0.000000,0.000000,0.000000,0.000000,0.000000,0.000000,0.000000,0.000000,0.000000,0.000000,0.000000,0.000000,0.000000,,,,,,,,,,,,,,,,,,,,,,,,,,,,,,,,,,,,,,,,,,,,,,,,,,,,,,,,,,,,0.031595,0.018894,0.028221,0.019068,0.026336,0.028349,0.027926,0.018032,0.008834,0.013381,0.036703,0.060041,0.013670,0.025208,0.029117,0.013580,0.019006,0.034232,0.016808,0.022813,0.038323,0.025163,0.020472,0.035600,0.032786,0.006543,0.015841,0.011152,0.015485,0.021073,0.053932,0.038019,0.012107,0.019291,0.036184,0.040336,0.025938,0.020563,0.024826,0.023818,0.034428,0.044317,0.024442,0.015875,0.020633,0.032329,0.035912,0.016222,0.010557,0.018601,0.017965,0.041480,0.035489,0.038471,0.035615,0.017607,0.022051,0.048738,0.020351,0.032322,0.055088,0.026915,0.033966,0.040592,0.050835,0.033547,0.017213,0.025345,0.029530,0.035825
1738755267.255594,1738755267.256075,15.000000,0.000000,4324.358887,4349.102539,4252.436035,4304.487305,4349.615234,4361.282227,4367.307617,4550.128418,4541.282227,4559.102539,4495.897461,5663.077148,4310.769043,4256.153809,0.000000,4.000000,75.000000,,,,0.000000,0.000000,0.000000,0.000000,0.000000,0.000000,0.000000,0.000000,0.000000,0.000000,0.000000,0.000000,0.000000,0.000000,0.000000,0.000000,,,,,,,,,,,,,,,,,,,,,,,,,,,,,,,,,,,,,,,,,,,,,,,,,,,,,,,,,,,,,,,,,,,,,,,,,,,,,,,,,,,,,,,,,,,,,,,,,,,,,,,,,,,,,,,,,,,,,,,,,,,,,,,,,
1738755267.263402,1738755267.263883,16.000000,0.000000,4323.077148,4349.615234,4251.153809,4305.256348,4349.102539,4360.897461,4364.871582,4550.000000,4541.282227,4557.436035,4497.307617,5663.333496,4314.358887,4256.794922,0.000000,4.000000,75.000000,,,,0.000000,0.000000,0.000000,0.000000,0.000000,0.000000,0.000000,0.000000,0.000000,0.000000,0.000000,0.000000,0.000000,0.000000,0.000000,0.000000,,,,,,,,,,,,,,,,,4.000000,0.000000,0.785849,-0.614868,-0.060791,0.026123,0.067391,-0.966915,0.230985,4.299330,-15.185440,22.956392,,,,,,,,,,,,,,,,,,,,,,,,,,,,,,,,,,,,,,,,,,,,,,,,,,,,,,,,,,,,,,,,,,,,,,,,,,,,,,,,,,,,,,,,,,,,,,,,,,,,,
1738755267.271211,1738755267.271791,17.000000,0.000000,4321.538574,4350.128418,4253.589844,4302.436035,4350.000000,4360.128418,4363.974121,4552.563965,4541.025879,4558.846191,4498.077148,5663.333496,4313.205078,4254.615234,0.000000,4.000000,75.000000,,,,0.000000,0.000000,0.000000,0.000000,0.000000,0.000000,0.000000,0.000000,0.000000,0.000000,0.000000,0.000000,0.000000,0.000000,0.000000,0.000000,,,,,,,,,,,,,,,,,,,,,,,,,,,,,,,,,,,,,,,,,,,,,,,,,,,,,,,,,,,,,,,,,,,,,,,,,,,,,,,,,,,,,,,,,,,,,,,,,,,,,,,,,,,,,,,,,,,,,,,,,,,,,,,,,
1738755267.279019,1738755267.279599,18.000000,0.000000,4326.282227,4349.871582,4253.461426,4303.461426,4349.358887,4358.974121,4366.025879,4550.256348,4538.846191,4560.897461,4497.820313,5662.948730,4310.512695,4254.615234,0.000000,4.000000,75.000000,,,,0.000000,0.000000,0.000000,0.000000,0.000000,0.000000,0.000000,0.000000,0.000000,0.000000,0.000000,0.000000,0.000000,0.000000,0.000000,0.000000,,,,,,,,,,,,,,,,,,,,,,,,,,,,,,,,,,,,,,,,,,,,,,,,,,,,,,,,,,,,,,,,,,,,,,,,,,,,,,,,,,,,,,,,,,,,,,,,,,,,,,,,,,,,,,,,,,,,,,,,,,,,,,,,,
1738755267.286827,1738755267.287508,19.000000,0.000000,4327.051270,4349.743652,4252.307617,4304.743652,4350.384766,4359.102539,4365.769043,4547.692383,4537.948730,4560.256348,4495.897461,5663.205078,4312.563965,4258.077148,0.000000,4.000000,75.000000,,,,0.000000,0.000000,0.000000,0.000000,0.000000,0.000000,0.000000,0.000000,0.000000,0.000000,0.000000,0.000000,0.000000,0.000000,0.000000,0.000000,,,,,,,,,,,,,,,,,,,,,,,,,,,,,,,,,,,,,,,,,,,,,,,,,,,,,,,,,,,,,,,,,,,,,,,,,,,,,,,,,,,,,,,,,,,,,,,,,,,,,,,,,,,,,,,,,,,,,,,,,,,,,,,,,
1738755267.294635,1738755267.295316,20.000000,0.000000,4321.922852,4350.128418,4253.846191,4302.179688,4351.922852,4359.871582,4363.589844,4550.000000,4539.358887,4561.025879,4495.256348,5662.948730,4314.102539,4258.077148,0.000000,4.000000,75.000000,,,,0.000000,0.000000,0.000000,0.000000,0.000000,0.000000,0.000000,0.000000,0.000000,0.000000,0.000000,0.000000,0.000000,0.000000,0.000000,0.000000,,,,,,,,,,,,,,,,,5.000000,0.000000,0.785795,-0.614929,-0.060852,0.026184,0.062996,-0.975217,0.230497,4.302730,-15.083563,23.010754,,,,,,,,,,,,,,,,,,,,,,,,,,,,,,,,,,,,,,,,,,,,,,,,,,,,,,,,,,,,,,,,,,,,,,,,,,,,,,,,,,,,,,,,,,,,,,,,,,,,,
1738755267.302443,1738755267.303224,21.000000,0.000000,4321.666504,4351.025879,4253.589844,4300.128418,4351.794922,4361.538574,4365.897461,4551.025879,4540.641113,4561.153809,4497.948730,5663.717773,4313.205078,4255.641113,0.000000,4.000000,75.000000,,,,0.000000,0.000000,0.000000,0.000000,0.000000,0.000000,0.000000,0.000000,0.000000,0.000000,0.000000,0.000000,0.000000,0.000000,0.000000,0.000000,,,,,,,,,,,,,,,,,,,,,,,,,,,,,,,,,,,,,,,,,,,,,,,,,,,,,,,,,,,,,,,,,,,,,,,,,,,,,,,,,,,,,,,,,,,,,,,,,,,,,,,,,,,,,,,,,,,,,,,,,,,,,,,,,
1738755267.310251,1738755267.311032,22.000000,0.000000,4323.205078,4351.666504,4253.205078,4302.692383,4351.666504,4363.205078,4367.948730,4550.897461,4541.538574,4556.153809,4498.333496,5666.025879,4309.615234,4257.692383,0.000000,4.000000,75.000000,,,,0.000000,0.000000,0.000000,0.000000,0.000000,0.000000,0.000000,0.000000,0.000000,0.000000,0.000000,0.000000,0.000000,0.000000,0.000000,0.000000,,,,,,,,,,,,,,,,,,,,,,,,,,,,,,,,,,,,,,,,,,,,,,,,,,,,,,,,,,,,,,,,,,,,,,,,,,,,,,,,,,,,,,,,,,,,,,,,,,,,,,,,,,,,,,,,,,,,,,,,,,,,,,,,,
1738755267.318059,1738755267.318740,23.000000,0.000000,4321.666504,4351.410156,4253.205078,4305.256348,4352.948730,4362.820313,4364.871582,4550.512695,4541.153809,4555.897461,4497.948730,5663.589844,4310.384766,4258.589844,0.000000,4.000000,75.000000,,,,0.000000,0.000000,0.000000,0.000000,0.000000,0.000000,0.000000,0.000000,0.000000,0.000000,0.000000,0.000000,0.000000,0.000000,0.000000,0.000000,,,,,,,,,,,,,,,,,,,,,,,,,,,,,,,,,,,,,,,,,,,,,,,,,,,,,,,,,,,,,,,,,,,,,,,,,,,,,,,,,,,,,,,,,,,,,,,,,,,,,,,,,,,,,,,,,,,,,,,,,,,,,,,,,
1738755267.325867,1738755267.326549,24.000000,0.000000,4322.563965,4348.717773,4251.922852,4303.717773,4353.974121,4361.153809,4365.769043,4548.717773,4540.000000,4561.153809,4498.461426,5661.666504,4310.641113,4255.512695,0.000000,4.000000,75.000000,,,,0.000000,0.000000,0.000000,0.000000,0.000000,0.000000,0.000000,0.000000,0.000000,0.000000,0.000000,0.000000,0.000000,0.000000,0.000000,0.000000,,,,,,,,,,,,,,,,,6.000000,0.000000,0.785749,-0.614990,-0.060852,0.026123,0.052741,-0.974728,0.227078,4.439124,-15.125207,23.009678,,,,,,,,,,,,,,,,,,,,,,,,,,,,,,,,,,,,,,,,,,,,,,,,,,,,,,,,,,,,,,,,,,,,,,,,,,,,,,,,,,,,,,,,,,,,,,,,,,,,,
1738755267.333675,1738755267.334257,25.000000,0.000000,4324.743652,4346.025879,4253.717773,4302.948730,4353.205078,4360.000000,4368.846191,4550.256348,4541.794922,4560.769043,4497.307617,5664.230957,4309.743652,4256.538574,0.000000,4.000000,75.000000,,,,0.000000,0.000000,0.000000,0.000000,0.000000,0.000000,0.000000,0.000000,0.000000,0.000000,0.000000,0.000000,0.000000,0.000000,0.000000,0.000000,,,,,,,,,,,,,,,,,,,,,,,,,,,,,,,,,,,,,,,,,,,,,,,,,,,,,,,,,,,,,,,,,,,,,,,,,,,,,,,,,,,,,,,,,,,,,,,,,,,,,,,,,,,,,,,,,,,,,,,,,,,,,,,,,
1738755267.341483,1738755267.342065,26.000000,0.000000,4325.000000,4349.358887,4255.897461,4305.256348,4351.666504,4360.512695,4365.897461,4552.436035,4544.743652,4557.307617,4496.410156,5662.307617,4314.487305,4257.436035,0.000000,4.000000,75.000000,,,,0.000000,0.000000,0.000000,0.000000,0.000000,0.000000,0.000000,0.000000,0.000000,0.000000,0.000000,0.000000,0.000000,0.000000,0.000000,0.000000,,,,,,,,,,,,,,,,,,,,,,,,,,,,,,,,,,,,,,,,,,,,,,,,,,,,,,,,,,,,,,,,,,,,,,,,,,,,,,,,,,,,,,,,,,,,,,,,,,,,,,,,,,,,,,,,,,,,,,,,,,,,,,,,,
1738755267.349291,1738755267.349773,27.000000,0.000000,4323.974121,4353.333496,4255.000000,4307.436035,4351.538574,4360.769043,4365.128418,4550.512695,4539.743652,4559.871582,4496.410156,5663.205078,4314.487305,4255.128418,0.000000,4.000000,75.000000,,,,0.000000,0.000000,0.000000,0.000000,0.000000,0.000000,0.000000,0.000000,0.000000,0.000000,0.000000,0.000000,0.000000,0.000000,0.000000,0.000000,,,,,,,,,,,,,,,,,,,,,,,,,,,,,,,,,,,,,,,,,,,,,,,,,,,,,,,,,,,,,,,,,,,,,,,,,,,,,,,,,,,,,,,,,,,,,,,,,,,,,,,,,,,,,,,,,,,,,,,,,,,,,,,,,
1738755267.357100,1738755267.357581,28.000000,0.000000,4322.436035,4347.436035,4253.717773,4305.000000,4351.538574,4359.230957,4366.282227,4548.077148,4535.769043,4562.820313,4497.692383,5665.641113,4309.615234,4256.794922,0.000000,4.000000,75.000000,,,,0.000000,0.000000,0.000000,0.000000,0.000000,0.000000,0.000000,0.000000,0.000000,0.000000,0.000000,0.000000,0.000000,0.000000,0.000000,0.000000,,,,,,,,,,,,,,,,,7.000000,0.000000,0.785759,-0.614990,-0.060730,0.026123,0.068856,-0.968380,0.230497,4.411878,-15.196019,23.042044,,,,,,,,,,,,,,,,,,,,,,,,,,,,,,,,,,,,,,,,,,,,,,,,,,,,,,,,,,,,,,,,,,,,,,,,,,,,,,,,,,,,,,,,,,,,,,,,,,,,,
1738755267.364908,1738755267.365289,29.000000,0.000000,4322.436035,4343.077148,4252.563965,4301.538574,4350.897461,4359.487305,4363.589844,4548.974121,4539.487305,4560.384766,4497.436035,5661.794922,4309.871582,4261.153809,0.000000,4.000000,75.000000,,,,0.000000,0.000000,0.000000,0.000000,0.000000,0.000000,0.000000,0.000000,0.000000,0.000000,0.000000,0.000000,0.000000,0.000000,0.000000,0.000000,,,,,,,,,,,,,,,,,,,,,,,,,,,,,,,,,,,,,,,,,,,,,,,,,,,,,,,,,,,,,,,,,,,,,,,,,,,,,,,,,,,,,,,,,,,,,,,,,,,,,,,,,,,,,,,,,,,,,,,,,,,,,,,,,
1738755267.372716,1738755267.373097,30.000000,0.000000,4323.077148,4351.282227,4252.820313,4301.922852,4351.794922,4362.563965,4364.615234,4550.128418,4538.717773,4558.589844,4495.641113,5660.769043,4309.871582,4258.717773,0.000000,4.000000,75.000000,,,,0.000000,0.000000,0.000000,0.000000,0.000000,0.000000,0.000000,0.000000,0.000000,0.000000,0.000000,0.000000,0.000000,0.000000,0.000000,0.000000,1.000000,0.000000,0.000000,0.000000,0.000000,0.000000,0.000000,0.000000,0.000000,0.000000,0.000000,0.000000,0.000000,0.000000,0.000000,0.000000,,,,,,,,,,,,,,,,,,,,,,,,,,,,,,,,,,,,,,,,,,,,0.029740,0.022329,0.024388,0.021725,0.024509,0.027569,0.024361,0.021045,0.008663,0.013807,0.034704,0.060220,0.013116,0.020475,0.029361,0.016399,0.018584,0.033033,0.022504,0.022086,0.037636,0.021904,0.020415,0.037618,0.032644,0.006902,0.016030,0.012837,0.016351,0.022148,0.047699,0.046589,0.015647,0.019862,0.033983,0.039889,0.023497,0.019082,0.021847,0.023439,0.033265,0.033935,0.018856,0.015629,0.021664,0.031672,0.039565,0.018112,0.011991,0.020156,0.018193,0.047596,0.035922,0.042331,0.033027,0.023684,0.025503,0.039371,0.019187,0.031933,0.061916,0.028852,0.035817,0.044524,0.051295,0.033846,0.015016,0.024933,0.034017,0.035593
1738755267.380524,1738755267.380805,31.000000,0.000000,4322.820313,4356.025879,4257.051270,4301.410156,4354.102539,4363.077148,4367.307617,4547.436035,4536.410156,4560.256348,4495.256348,5662.820313,4311.153809,4255.384766,0.000000,4.000000,75.000000,,,,0.000000,0.000000,0.000000,0.000000,0.000000,0.000000,0.000000,0.000000,0.000000,0.000000,0.000000,0.000000,0.000000,0.000000,0.000000,0.000000,,,,,,,,,,,,,,,,,,,,,,,,,,,,,,,,,,,,,,,,,,,,,,,,,,,,,,,,,,,,,,,,,,,,,,,,,,,,,,,,,,,,,,,,,,,,,,,,,,,,,,,,,,,,,,,,,,,,,,,,,,,,,,,,,
1738755267.388332,1738755267.388613,32.000000,0.000000,4323.589844,4350.384766,4258.974121,4301.538574,4356.538574,4360.128418,4367.051270,4548.333496,4537.563965,4560.769043,4494.743652,5665.384766,4308.589844,4254.102539,0.000000,4.000000,75.000000,,,,0.000000,0.000000,0.000000,0.000000,0.000000,0.000000,0.000000,0.000000,0.000000,0.000000,0.000000,0.000000,0.000000,0.000000,0.000000,0.000000,,,,,,,,,,,,,,,,,8.000000,0.000000,0.785759,-0.614990,-0.060730,0.026123,0.055183,-0.965938,0.221707,4.320690,-15.009750,23.087839,,,,,,,,,,,,,,,,,,,,,,,,,,,,,,,,,,,,,,,,,,,,,,,,,,,,,,,,,,,,,,,,,,,,,,,,,,,,,,,,,,,,,,,,,,,,,,,,,,,,,
1738755267.396140,1738755267.396321,33.000000,0.000000,4323.333496,4346.538574,4254.487305,4302.820313,4355.512695,4359.358887,4365.512695,4552.179688,4537.692383,4560.512695,4494.358887,5666.410156,4308.333496,4255.769043,0.000000,4.000000,75.000000,,,,0.000000,0.000000,0.000000,0.000000,0.000000,0.000000,0.000000,0.000000,0.000000,0.000000,0.000000,0.000000,0.000000,0.000000,0.000000,0.000000,,,,,,,,,,,,,,,,,,,,,,,,,,,,,,,,,,,,,,,,,,,,,,,,,,,,,,,,,,,,,,,,,,,,,,,,,,,,,,,,,,,,,,,,,,,,,,,,,,,,,,,,,,,,,,,,,,,,,,,,,,,,,,,,,
1738755267.403948,1738755267.404129,34.000000,0.000000,4323.077148,4348.589844,4250.897461,4301.538574,4350.769043,4360.384766,4365.769043,4550.897461,4538.717773,4562.692383,4495.000000,5663.974121,4312.820313,4259.102539,0.000000,4.000000,75.000000,,,,0.000000,0.000000,0.000000,0.000000,0.000000,0.000000,0.000000,0.000000,0.000000,0.000000,0.000000,0.000000,0.000000,0.000000,0.000000,0.000000,,,,,,,,,,,,,,,,,,,,,,,,,,,,,,,,,,,,,,,,,,,,,,,,,,,,,,,,,,,,,,,,,,,,,,,,,,,,,,,,,,,,,,,,,,,,,,,,,,,,,,,,,,,,,,,,,,,,,,,,,,,,,,,,,
1738755267.411756,1738755267.411837,35.000000,0.000000,4323.717773,4350.897461,4252.820313,4303.205078,4351.153809,4359.487305,4366.025879,4547.948730,4541.282227,4562.179688,4497.948730,5663.589844,4309.487305,4255.384766,0.000000,4.000000,75.000000,,,,0.000000,0.000000,0.000000,0.000000,0.000000,0.000000,0.000000,0.000000,0.000000,0.000000,0.000000,0.000000,0.000000,0.000000,0.000000,0.000000,,,,,,,,,,,,,,,,,,,,,,,,,,,,,,,,,,,,,,,,,,,,,,,,,,,,,,,,,,,,,,,,,,,,,,,,,,,,,,,,,,,,,,,,,,,,,,,,,,,,,,,,,,,,,,,,,,,,,,,,,,,,,,,,,
1738755267.419564,1738755267.419745,36.000000,0.000000,4321.282227,4349.358887,4255.256348,4304.102539,4355.384766,4357.179688,4364.487305,4550.128418,4541.410156,4558.974121,4499.743652,5664.615234,4309.230957,4253.717773,0.000000,4.000000,75.000000,,,,0.000000,0.000000,0.000000,0.000000,0.000000,0.000000,0.000000,0.000000,0.000000,0.000000,0.000000,0.000000,0.000000,0.000000,0.000000,0.000000,,,,,,,,,,,,,,,,,9.000000,0.000000,0.785706,-0.615051,-0.060791,0.026123,0.062508,-0.969357,0.249054,4.288621,-14.758776,22.962389,,,,,,,,,,,,,,,,,,,,,,,,,,,,,,,,,,,,,,,,,,,,,,,,,,,,,,,,,,,,,,,,,,,,,,,,,,,,,,,,,,,,,,,,,,,,,,,,,,,,,
1738755267.427373,1738755267.427553,37.000000,0.000000,4321.025879,4347.820313,4256.282227,4301.410156,4355.769043,4358.974121,4365.769043,4552.563965,4539.487305,4558.846191,4496.282227,5664.102539,4312.563965,4254.871582,0.000000,4.000000,75.000000,,,,0.000000,0.000000,0.000000,0.000000,0.000000,0.000000,0.000000,0.000000,0.000000,0.000000,0.000000,0.000000,0.000000,0.000000,0.000000,0.000000,,,,,,,,,,,,,,,,,,,,,,,,,,,,,,,,,,,,,,,,,,,,,,,,,,,,,,,,,,,,,,,,,,,,,,,,,,,,,,,,,,,,,,,,,,,,,,,,,,,,,,,,,,,,,,,,,,,,,,,,,,,,,,,,,
1738755267.435181,1738755267.435461,38.000000,0.000000,4323.717773,4349.102539,4254.871582,4302.051270,4351.538574,4361.282227,4365.641113,4548.461426,4539.615234,4558.974121,4495.769043,5662.820313,4311.410156,4255.384766,0.000000,4.000000,75.000000,,,,0.000000,0.000000,0.000000,0.000000,0.000000,0.000000,0.000000,0.000000,0.000000,0.000000,0.000000,0.000000,0.000000,0.000000,0.000000,0.000000,,,,,,,,,,,,,,,,,,,,,,,,,,,,,,,,,,,,,,,,,,,,,,,,,,,,,,,,,,,,,,,,,,,,,,,,,,,,,,,,,,,,,,,,,,,,,,,,,,,,,,,,,,,,,,,,,,,,,,,,,,,,,,,,,
1738755267.442989,1738755267.443270,39.000000,0.000000,4323.589844,4349.230957,4252.307617,4306.153809,4348.589844,4360.897461,4364.487305,4547.051270,4538.974121,4558.717773,4500.769043,5663.717773,4311.282227,4257.307617,0.000000,4.000000,75.000000,,,,0.000000,0.000000,0.000000,0.000000,0.000000,0.000000,0.000000,0.000000,0.000000,0.000000,0.000000,0.000000,0.000000,0.000000,0.000000,0.000000,,,,,,,,,,,,,,,,,,,,,,,,,,,,,,,,,,,,,,,,,,,,,,,,,,,,,,,,,,,,,,,,,,,,,,,,,,,,,,,,,,,,,,,,,,,,,,,,,,,,,,,,,,,,,,,,,,,,,,,,,,,,,,,,,
1738755267.450797,1738755267.451178,40.000000,0.000000,4324.615234,4347.307617,4253.205078,4306.538574,4350.641113,4362.179688,4368.077148,4551.282227,4536.282227,4560.384766,4500.512695,5666.025879,4309.487305,4254.615234,0.000000,4.000000,75.000000,,,,0.000000,0.000000,0.000000,0.000000,0.000000,0.000000,0.000000,0.000000,0.000000,0.000000,0.000000,0.000000,0.000000,0.000000,0.000000,0.000000,,,,,,,,,,,,,,,,,10.000000,0.000000,0.785709,-0.615051,-0.060730,0.026184,0.063484,-0.983518,0.233915,4.276426,-14.816232,23.116150,,,,,,,,,,,,,,,,,,,,,,,,,,,,,,,,,,,,,,,,,,,,,,,,,,,,,,,,,,,,,,,,,,,,,,,,,,,,,,,,,,,,,,,,,,,,,,,,,,,,,
1738755267.458605,1738755267.458986,41.000000,0.000000,4325.128418,4348.333496,4255.384766,4303.717773,4352.307617,4363.077148,4367.179688,4550.769043,4535.384766,4561.922852,4497.307617,5663.589844,4307.948730,4253.846191,0.000000,4.000000,75.000000,,,,0.000000,0.000000,0.000000,0.000000,0.000000,0.000000,0.000000,0.000000,0.000000,0.000000,0.000000,0.000000,0.000000,0.000000,0.000000,0.000000,,,,,,,,,,,,,,,,,,,,,,,,,,,,,,,,,,,,,,,,,,,,,,,,,,,,,,,,,,,,,,,,,,,,,,,,,,,,,,,,,,,,,,,,,,,,,,,,,,,,,,,,,,,,,,,,,,,,,,,,,,,,,,,,,
1738755267.466413,1738755267.466894,42.000000,0.000000,4323.717773,4351.410156,4255.256348,4304.102539,4351.666504,4361.538574,4363.589844,4548.333496,4538.077148,4561.282227,4497.692383,5661.666504,4307.820313,4257.307617,0.000000,4.000000,75.000000,,,,0.000000,0.000000,0.000000,0.000000,0.000000,0.000000,0.000000,0.000000,0.000000,0.000000,0.000000,0.000000,0.000000,0.000000,0.000000,0.000000,,,,,,,,,,,,,,,,,,,,,,,,,,,,,,,,,,,,,,,,,,,,,,,,,,,,,,,,,,,,,,,,,,,,,,,,,,,,,,,,,,,,,,,,,,,,,,,,,,,,,,,,,,,,,,,,,,,,,,,,,,,,,,,,,
1738755267.474221,1738755267.474702,43.000000,0.000000,4323.717773,4352.820313,4254.487305,4303.974121,4351.922852,4361.794922,4366.794922,4548.717773,4539.615234,4559.615234,4497.436035,5662.948730,4308.846191,4254.871582,0.000000,4.000000,75.000000,,,,0.000000,0.000000,0.000000,0.000000,0.000000,0.000000,0.000000,0.000000,0.000000,0.000000,0.000000,0.000000,0.000000,0.000000,0.000000,0.000000,,,,,,,,,,,,,,,,,,,,,,,,,,,,,,,,,,,,,,,,,,,,,,,,,,,,,,,,,,,,,,,,,,,,,,,,,,,,,,,,,,,,,,,,,,,,,,,,,,,,,,,,,,,,,,,,,,,,,,,,,,,,,,,,,
1738755267.482029,1738755267.482610,44.000000,0.000000,4324.358887,4351.025879,4253.974121,4303.077148,4352.179688,4361.922852,4366.025879,4548.333496,4538.717773,4560.128418,4496.025879,5662.179688,4309.743652,4252.307617,0.000000,4.000000,75.000000,,,,0.000000,0.000000,0.000000,0.000000,0.000000,0.000000,0.000000,0.000000,0.000000,0.000000,0.000000,0.000000,0.000000,0.000000,0.000000,0.000000,,,,,,,,,,,,,,,,,11.000000,0.000000,0.785749,-0.614990,-0.060852,0.026123,0.071786,-0.971798,0.237822,4.348783,-14.951275,23.254534,,,,,,,,,,,,,,,,,,,,,,,,,,,,,,,,,,,,,,,,,,,,,,,,,,,,,,,,,,,,,,,,,,,,,,,,,,,,,,,,,,,,,,,,,,,,,,,,,,,,,
1738755267.489837,1738755267.490418,45.000000,0.000000,4325.000000,4349.102539,4255.384766,4303.589844,4352.820313,4359.102539,4362.307617,4547.436035,4539.615234,4561.410156,4498.461426,5662.179688,4307.948730,4256.153809,0.000000,4.000000,75.000000,,,,0.000000,0.000000,0.000000,0.000000,0.000000,0.000000,0.000000,0.000000,0.000000,0.000000,0.000000,0.000000,0.000000,0.000000,0.000000,0.000000,,,,,,,,,,,,,,,,,,,,,,,,,,,,,,,,,,,,,,,,,,,,,,,,,,,,,,,,,,,,,,,,,,,,,,,,,,,,,,,,,,,,,,,,,,,,,,,,,,,,,,,,,,,,,,,,,,,,,,,,,,,,,,,,,
1738755267.497645,1738755267.498327,46.000000,0.000000,4322.820313,4351.282227,4256.666504,4301.410156,4353.333496,4358.077148,4366.282227,4547.692383,4541.794922,4560.897461,4499.743652,5663.461426,4309.871582,4257.436035,0.000000,4.000000,75.000000,,,,0.000000,0.000000,0.000000,0.000000,0.000000,0.000000,0.000000,0.000000,0.000000,0.000000,0.000000,0.000000,0.000000,0.000000,0.000000,0.000000,,,,,,,,,,,,,,,,,,,,,,,,,,,,,,,,,,,,,,,,,,,,,,,,,,,,,,,,,,,,0.027035,0.026358,0.019705,0.024761,0.023467,0.027477,0.022435,0.024255,0.008330,0.014966,0.032380,0.056408,0.011557,0.016097,0.028067,0.018632,0.018163,0.031912,0.027821,0.021599,0.037749,0.021013,0.020843,0.037927,0.032512,0.007219,0.015307,0.013965,0.016719,0.023286,0.041603,0.053237,0.018752,0.022030,0.032582,0.037401,0.020407,0.019459,0.019267,0.023818,0.033368,0.025977,0.014558,0.015135,0.022588,0.030192,0.041359,0.018917,0.013644,0.021187,0.018233,0.052123,0.033054,0.043650,0.029505,0.030437,0.027898,0.029509,0.018246,0.032117,0.065698,0.031113,0.039202,0.047833,0.049848,0.032169,0.013702,0.024712,0.038225,0.035820
1738755267.505453,1738755267.506135,47.000000,0.000000,4320.769043,4352.563965,4255.384766,4300.769043,4353.333496,4361.538574,4368.077148,4551.410156,4542.307617,4560.000000,4496.153809,5663.589844,4312.436035,4253.846191,0.000000,4.000000,75.000000,,,,0.000000,0.000000,0.000000,0.000000,0.000000,0.000000,0.000000,0.000000,0.000000,0.000000,0.000000,0.000000,0.000000,0.000000,0.000000,0.000000,,,,,,,,,,,,,,,,,,,,,,,,,,,,,,,,,,,,,,,,,,,,,,,,,,,,,,,,,,,,,,,,,,,,,,,,,,,,,,,,,,,,,,,,,,,,,,,,,,,,,,,,,,,,,,,,,,,,,,,,,,,,,,,,,
1738755267.513261,1738755267.513843,48.000000,0.000000,4323.333496,4347.563965,4253.333496,4302.307617,4352.051270,4362.820313,4364.358887,4553.461426,4542.820313,4561.410156,4495.512695,5664.358887,4308.846191,4252.948730,0.000000,4.000000,75.000000,,,,0.000000,0.000000,0.000000,0.000000,0.000000,0.000000,0.000000,0.000000,0.000000,0.000000,0.000000,0.000000,0.000000,0.000000,0.000000,0.000000,,,,,,,,,,,,,,,,,12.000000,0.000000,0.785705,-0.615051,-0.060730,0.026306,0.064461,-0.977170,0.230497,4.313905,-14.972815,23.145748,,,,,,,,,,,,,,,,,,,,,,,,,,,,,,,,,,,,,,,,,,,,,,,,,,,,,,,,,,,,,,,,,,,,,,,,,,,,,,,,,,,,,,,,,,,,,,,,,,,,,
1738755267.521070,1738755267.521651,49.000000,0.000000,4325.641113,4346.538574,4253.589844,4302.820313,4351.153809,4359.743652,4363.077148,4546.922852,4543.077148,4562.692383,4497.307617,5663.974121,4308.717773,4253.974121,0.000000,4.000000,75.000000,,,,0.000000,0.000000,0.000000,0.000000,0.000000,0.000000,0.000000,0.000000,0.000000,0.000000,0.000000,0.000000,0.000000,0.000000,0.000000,0.000000,,,,,,,,,,,,,,,,,,,,,,,,,,,,,,,,,,,,,,,,,,,,,,,,,,,,,,,,,,,,,,,,,,,,,,,,,,,,,,,,,,,,,,,,,,,,,,,,,,,,,,,,,,,,,,,,,,,,,,,,,,,,,,,,,
1738755267.528878,1738755267.529359,50.000000,0.000000,4322.563965,4350.512695,4254.230957,4304.743652,4350.512695,4357.948730,4363.846191,4544.230957,4540.256348,4560.512695,4498.846191,5663.717773,4308.974121,4254.102539,0.000000,4.000000,75.000000,,,,0.000000,0.000000,0.000000,0.000000,0.000000,0.000000,0.000000,0.000000,0.000000,0.000000,0.000000,0.000000,0.000000,0.000000,0.000000,0.000000,,,,,,,,,,,,,,,,,,,,,,,,,,,,,,,,,,,,,,,,,,,,,,,,,,,,,,,,,,,,,,,,,,,,,,,,,,,,,,,,,,,,,,,,,,,,,,,,,,,,,,,,,,,,,,,,,,,,,,,,,,,,,,,,,
1738755267.536686,1738755267.537167,51.000000,0.000000,4319.230957,4349.743652,4252.820313,4303.846191,4351.410156,4359.487305,4363.589844,4551.538574,4539.871582,4560.000000,4500.641113,5664.615234,4306.666504,4256.666504,0.000000,4.000000,75.000000,,,,0.000000,0.000000,0.000000,0.000000,0.000000,0.000000,0.000000,0.000000,0.000000,0.000000,0.000000,0.000000,0.000000,0.000000,0.000000,0.000000,,,,,,,,,,,,,,,,,,,,,,,,,,,,,,,,,,,,,,,,,,,,,,,,,,,,,,,,,,,,,,,,,,,,,,,,,,,,,,,,,,,,,,,,,,,,,,,,,,,,,,,,,,,,,,,,,,,,,,,,,,,,,,,,,
1738755267.544494,1738755267.544875,52.000000,0.000000,4321.666504,4348.717773,4252.948730,4300.000000,4350.128418,4361.410156,4362.051270,4551.153809,4540.512695,4561.794922,4500.000000,5663.717773,4307.307617,4255.769043,0.000000,4.000000,75.000000,,,,0.000000,0.000000,0.000000,0.000000,0.000000,0.000000,0.000000,0.000000,0.000000,0.000000,0.000000,0.000000,0.000000,0.000000,0.000000,0.000000,,,,,,,,,,,,,,,,,13.000000,0.000000,0.785754,-0.614990,-0.060730,0.026245,0.056159,-0.974728,0.238799,4.332514,-15.058866,23.197840,,,,,,,,,,,,,,,,,,,,,,,,,,,,,,,,,,,,,,,,,,,,,,,,,,,,,,,,,,,,,,,,,,,,,,,,,,,,,,,,,,,,,,,,,,,,,,,,,,,,,
1738755267.552302,1738755267.552683,53.000000,0.000000,4324.102539,4350.641113,4254.358887,4303.589844,4350.000000,4360.897461,4363.333496,4545.769043,4538.077148,4561.922852,4498.589844,5664.487305,4308.846191,4251.922852,0.000000,4.000000,75.000000,,,,0.000000,0.000000,0.000000,0.000000,0.000000,0.000000,0.000000,0.000000,0.000000,0.000000,0.000000,0.000000,0.000000,0.000000,0.000000,0.000000,,,,,,,,,,,,,,,,,,,,,,,,,,,,,,,,,,,,,,,,,,,,,,,,,,,,,,,,,,,,,,,,,,,,,,,,,,,,,,,,,,,,,,,,,,,,,,,,,,,,,,,,,,,,,,,,,,,,,,,,,,,,,,,,,
1738755267.560110,1738755267.560391,54.000000,0.000000,4321.538574,4349.743652,4253.846191,4306.538574,4352.563965,4358.974121,4365.769043,4547.179688,4538.205078,4561.282227,4498.333496,5664.230957,4308.974121,4255.000000,0.000000,4.000000,75.000000,,,,0.000000,0.000000,0.000000,0.000000,0.000000,0.000000,0.000000,0.000000,0.000000,0.000000,0.000000,0.000000,0.000000,0.000000,0.000000,0.000000,,,,,,,,,,,,,,,,,,,,,,,,,,,,,,,,,,,,,,,,,,,,,,,,,,,,,,,,,,,,,,,,,,,,,,,,,,,,,,,,,,,,,,,,,,,,,,,,,,,,,,,,,,,,,,,,,,,,,,,,,,,,,,,,,
1738755267.567918,1738755267.568199,55.000000,0.000000,4319.615234,4349.230957,4256.025879,4303.589844,4350.512695,4359.102539,4365.897461,4550.769043,4540.000000,4561.666504,4497.436035,5661.282227,4304.743652,4257.436035,0.000000,4.000000,75.000000,,,,0.000000,0.000000,0.000000,0.000000,0.000000,0.000000,0.000000,0.000000,0.000000,0.000000,0.000000,0.000000,0.000000,0.000000,0.000000,0.000000,,,,,,,,,,,,,,,,,,,,,,,,,,,,,,,,,,,,,,,,,,,,,,,,,,,,,,,,,,,,,,,,,,,,,,,,,,,,,,,,,,,,,,,,,,,,,,,,,,,,,,,,,,,,,,,,,,,,,,,,,,,,,,,,,
1738755267.575726,1738755267.575908,56.000000,0.000000,4321.153809,4351.282227,4259.230957,4301.282227,4349.230957,4360.384766,4366.153809,4550.512695,4540.512695,4559.871582,4497.307617,5661.794922,4305.512695,4255.256348,0.000000,4.000000,75.000000,,,,0.000000,0.000000,0.000000,0.000000,0.000000,0.000000,0.000000,0.000000,0.000000,0.000000,0.000000,0.000000,0.000000,0.000000,0.000000,0.000000,,,,,,,,,,,,,,,,,14.000000,0.000000,0.785709,-0.615051,-0.060730,0.026184,0.072274,-0.975217,0.227078,4.115930,-15.152980,23.228056,,,,,,,,,,,,,,,,,,,,,,,,,,,,,,,,,,,,,,,,,,,,,,,,,,,,,,,,,,,,,,,,,,,,,,,,,,,,,,,,,,,,,,,,,,,,,,,,,,,,,
1738755267.583534,1738755267.583715,57.000000,0.000000,4320.897461,4350.897461,4256.666504,4300.641113,4352.948730,4360.128418,4369.230957,4549.358887,4539.871582,4558.846191,4498.846191,5662.563965,4310.897461,4253.717773,0.000000,4.000000,75.000000,,,,0.000000,0.000000,0.000000,0.000000,0.000000,0.000000,0.000000,0.000000,0.000000,0.000000,0.000000,0.000000,0.000000,0.000000,0.000000,0.000000,,,,,,,,,,,,,,,,,,,,,,,,,,,,,,,,,,,,,,,,,,,,,,,,,,,,,,,,,,,,,,,,,,,,,,,,,,,,,,,,,,,,,,,,,,,,,,,,,,,,,,,,,,,,,,,,,,,,,,,,,,,,,,,,,
1738755267.591343,1738755267.591424,58.000000,0.000000,4320.256348,4351.025879,4253.717773,4302.692383,4354.102539,4360.256348,4370.000000,4551.410156,4538.974121,4561.025879,4497.179688,5663.589844,4309.230957,4252.436035,0.000000,4.000000,75.000000,,,,0.000000,0.000000,0.000000,0.000000,0.000000,0.000000,0.000000,0.000000,0.000000,0.000000,0.000000,0.000000,0.000000,0.000000,0.000000,0.000000,,,,,,,,,,,,,,,,,,,,,,,,,,,,,,,,,,,,,,,,,,,,,,,,,,,,,,,,,,,,,,,,,,,,,,,,,,,,,,,,,,,,,,,,,,,,,,,,,,,,,,,,,,,,,,,,,,,,,,,,,,,,,,,,,
1738755267.599151,1738755267.599332,59.000000,0.000000,4321.794922,4352.820313,4255.512695,4304.487305,4351.538574,4361.025879,4365.641113,4551.282227,4541.794922,4560.897461,4497.051270,5664.487305,4307.820313,4254.615234,0.000000,4.000000,75.000000,,,,0.000000,0.000000,0.000000,0.000000,0.000000,0.000000,0.000000,0.000000,0.000000,0.000000,0.000000,0.000000,0.000000,0.000000,0.000000,0.000000,,,,,,,,,,,,,,,,,,,,,,,,,,,,,,,,,,,,,,,,,,,,,,,,,,,,,,,,,,,,,,,,,,,,,,,,,,,,,,,,,,,,,,,,,,,,,,,,,,,,,,,,,,,,,,,,,,,,,,,,,,,,,,,,,
1738755267.606959,1738755267.607140,60.000000,0.000000,4322.051270,4351.538574,4256.025879,4303.974121,4352.563965,4360.256348,4365.384766,4551.538574,4543.461426,4558.205078,4500.897461,5663.461426,4308.333496,4255.256348,0.000000,4.000000,75.000000,,,,0.000000,0.000000,0.000000,0.000000,0.000000,0.000000,0.000000,0.000000,0.000000,0.000000,0.000000,0.000000,0.000000,0.000000,0.000000,0.000000,,,,,,,,,,,,,,,,,15.000000,0.000000,0.785761,-0.614990,-0.060730,0.026062,0.066414,-0.979612,0.243194,4.204337,-15.171015,23.188583,,,,,,,,,,,,,,,,,,,,,,,,,,,,,,,,,,,,,,,,,,,,,,,,,,,,,,,,,,,,,,,,,,,,,,,,,,,,,,,,,,,,,,,,,,,,,,,,,,,,,
1738755267.614767,1738755267.615048,61.000000,0.000000,4320.384766,4348.589844,4255.512695,4302.948730,4355.512695,4359.615234,4366.666504,4554.743652,4540.512695,4559.487305,4500.000000,5662.563965,4307.179688,4253.974121,0.000000,4.000000,75.000000,,,,0.000000,0.000000,0.000000,0.000000,0.000000,0.000000,0.000000,0.000000,0.000000,0.000000,0.000000,0.000000,0.000000,0.000000,0.000000,0.000000,,,,,,,,,,,,,,,,,,,,,,,,,,,,,,,,,,,,,,,,,,,,,,,,,,,,,,,,,,,,,,,,,,,,,,,,,,,,,,,,,,,,,,,,,,,,,,,,,,,,,,,,,,,,,,,,,,,,,,,,,,,,,,,,,
1738755267.622575,1738755267.622856,62.000000,0.000000,4321.282227,4349.615234,4256.794922,4302.820313,4354.743652,4359.871582,4365.769043,4552.051270,4539.358887,4562.307617,4498.077148,5661.410156,4308.717773,4257.179688,0.000000,4.000000,75.000000,,,,0.000000,0.000000,0.000000,0.000000,0.000000,0.000000,0.000000,0.000000,0.000000,0.000000,0.000000,0.000000,0.000000,0.000000,0.000000,0.000000,,,,,,,,,,,,,,,,,,,,,,,,,,,,,,,,,,,,,,,,,,,,,,,,,,,,,,,,,,,,0.023700,0.030266,0.015453,0.027802,0.023909,0.027846,0.022357,0.026528,0.007954,0.016853,0.029892,0.050315,0.009672,0.013057,0.025760,0.019495,0.018088,0.031642,0.031401,0.021082,0.038803,0.022344,0.021609,0.036930,0.032193,0.007274,0.013962,0.014687,0.016465,0.024131,0.037867,0.056748,0.020552,0.025180,0.031810,0.032537,0.017430,0.020740,0.017786,0.024945,0.035477,0.021604,0.013046,0.014591,0.023485,0.027964,0.040941,0.018850,0.014994,0.021422,0.018744,0.054408,0.028187,0.042624,0.026254,0.037005,0.028482,0.020772,0.016978,0.032576,0.064213,0.033282,0.042478,0.049394,0.047186,0.029265,0.014041,0.024912,0.040195,0.036417
1738755267.630383,1738755267.630764,63.000000,0.000000,4323.461426,4350.641113,4257.179688,4303.461426,4352.563965,4358.077148,4367.692383,4547.307617,4538.846191,4562.051270,4498.333496,5663.077148,4307.436035,4257.692383,0.000000,4.000000,75.000000,,,,0.000000,0.000000,0.000000,0.000000,0.000000,0.000000,0.000000,0.000000,0.000000,0.000000,0.000000,0.000000,0.000000,0.000000,0.000000,0.000000,,,,,,,,,,,,,,,,,,,,,,,,,,,,,,,,,,,,,,,,,,,,,,,,,,,,,,,,,,,,,,,,,,,,,,,,,,,,,,,,,,,,,,,,,,,,,,,,,,,,,,,,,,,,,,,,,,,,,,,,,,,,,,,,,
1738755267.638191,1738755267.638573,64.000000,0.000000,4324.743652,4350.769043,4255.769043,4303.846191,4351.922852,4356.666504,4365.256348,4550.000000,4538.461426,4561.282227,4497.820313,5663.717773,4306.153809,4254.487305,0.000000,4.000000,75.000000,,,,0.000000,0.000000,0.000000,0.000000,0.000000,0.000000,0.000000,0.000000,0.000000,0.000000,0.000000,0.000000,0.000000,0.000000,0.000000,0.000000,,,,,,,,,,,,,,,,,16.000000,0.000000,0.785804,-0.614929,-0.060791,0.026062,0.064461,-0.980100,0.237334,4.300570,-15.070580,23.219725,,,,,,,,,,,,,,,,,,,,,,,,,,,,,,,,,,,,,,,,,,,,,,,,,,,,,,,,,,,,,,,,,,,,,,,,,,,,,,,,,,,,,,,,,,,,,,,,,,,,,
1738755267.645999,1738755267.646481,65.000000,0.000000,4323.077148,4351.538574,4256.153809,4304.230957,4352.051270,4359.102539,4360.897461,4552.948730,4538.589844,4560.256348,4497.051270,5661.794922,4309.487305,4254.102539,0.000000,4.000000,75.000000,,,,0.000000,0.000000,0.000000,0.000000,0.000000,0.000000,0.000000,0.000000,0.000000,0.000000,0.000000,0.000000,0.000000,0.000000,0.000000,0.000000,,,,,,,,,,,,,,,,,,,,,,,,,,,,,,,,,,,,,,,,,,,,,,,,,,,,,,,,,,,,,,,,,,,,,,,,,,,,,,,,,,,,,,,,,,,,,,,,,,,,,,,,,,,,,,,,,,,,,,,,,,,,,,,,,
1738755267.653807,1738755267.654289,66.000000,0.000000,4319.871582,4351.025879,4256.538574,4302.692383,4349.871582,4361.410156,4363.077148,4551.794922,4537.692383,4560.897461,4498.333496,5661.410156,4310.000000,4255.256348,0.000000,4.000000,75.000000,,,,0.000000,0.000000,0.000000,0.000000,0.000000,0.000000,0.000000,0.000000,0.000000,0.000000,0.000000,0.000000,0.000000,0.000000,0.000000,0.000000,,,,,,,,,,,,,,,,,,,,,,,,,,,,,,,,,,,,,,,,,,,,,,,,,,,,,,,,,,,,,,,,,,,,,,,,,,,,,,,,,,,,,,,,,,,,,,,,,,,,,,,,,,,,,,,,,,,,,,,,,,,,,,,,,
1738755267.661615,1738755267.662197,67.000000,0.000000,4321.153809,4351.410156,4257.692383,4304.871582,4353.974121,4361.666504,4365.256348,4549.743652,4538.333496,4562.179688,4498.846191,5663.205078,4310.128418,4254.615234,0.000000,4.000000,75.000000,,,,0.000000,0.000000,0.000000,0.000000,0.000000,0.000000,0.000000,0.000000,0.000000,0.000000,0.000000,0.000000,0.000000,0.000000,0.000000,0.000000,,,,,,,,,,,,,,,,,,,,,,,,,,,,,,,,,,,,,,,,,,,,,,,,,,,,,,,,,,,,,,,,,,,,,,,,,,,,,,,,,,,,,,,,,,,,,,,,,,,,,,,,,,,,,,,,,,,,,,,,,,,,,,,,,
1738755267.669423,1738755267.670005,68.000000,0.000000,4322.307617,4352.051270,4258.846191,4308.974121,4359.743652,4362.179688,4365.256348,4549.230957,4539.615234,4559.743652,4495.769043,5665.897461,4309.230957,4252.179688,0.000000,4.000000,75.000000,,,,0.000000,0.000000,0.000000,0.000000,0.000000,0.000000,0.000000,0.000000,0.000000,0.000000,0.000000,0.000000,0.000000,0.000000,0.000000,0.000000,,,,,,,,,,,,,,,,,17.000000,0.000000,0.785751,-0.614990,-0.060852,0.026062,0.049322,-0.969845,0.236845,4.320513,-14.963522,23.147753,,,,,,,,,,,,,,,,,,,,,,,,,,,,,,,,,,,,,,,,,,,,,,,,,,,,,,,,,,,,,,,,,,,,,,,,,,,,,,,,,,,,,,,,,,,,,,,,,,,,,
1738755267.677232,1738755267.677913,69.000000,0.000000,4321.153809,4349.871582,4253.717773,4305.512695,4354.871582,4360.641113,4365.641113,4551.538574,4541.153809,4561.153809,4495.512695,5661.794922,4307.051270,4252.948730,0.000000,4.000000,75.000000,,,,0.000000,0.000000,0.000000,0.000000,0.000000,0.000000,0.000000,0.000000,0.000000,0.000000,0.000000,0.000000,0.000000,0.000000,0.000000,0.000000,,,,,,,,,,,,,,,,,,,,,,,,,,,,,,,,,,,,,,,,,,,,,,,,,,,,,,,,,,,,,,,,,,,,,,,,,,,,,,,,,,,,,,,,,,,,,,,,,,,,,,,,,,,,,,,,,,,,,,,,,,,,,,,,,
1738755267.685040,1738755267.685721,70.000000,0.000000,4323.077148,4348.333496,4249.871582,4300.897461,4349.102539,4357.820313,4364.871582,4551.538574,4540.000000,4563.589844,4495.000000,5658.205078,4308.333496,4257.051270,0.000000,4.000000,75.000000,,,,0.000000,0.000000,0.000000,0.000000,0.000000,0.000000,0.000000,0.000000,0.000000,0.000000,0.000000,0.000000,0.000000,0.000000,0.000000,0.000000,,,,,,,,,,,,,,,,,,,,,,,,,,,,,,,,,,,,,,,,,,,,,,,,,,,,,,,,,,,,,,,,,,,,,,,,,,,,,,,,,,,,,,,,,,,,,,,,,,,,,,,,,,,,,,,,,,,,,,,,,,,,,,,,,
1738755267.692848,1738755267.693630,71.000000,0.000000,4324.743652,4349.358887,4254.102539,4302.820313,4350.384766,4358.974121,4362.051270,4548.974121,4537.051270,4560.128418,4495.897461,5662.179688,4309.230957,4259.230957,0.000000,4.000000,75.000000,,,,0.000000,0.000000,0.000000,0.000000,0.000000,0.000000,0.000000,0.000000,0.000000,0.000000,0.000000,0.000000,0.000000,0.000000,0.000000,0.000000,,,,,,,,,,,,,,,,,,,,,,,,,,,,,,,,,,,,,,,,,,,,,,,,,,,,,,,,,,,,,,,,,,,,,,,,,,,,,,,,,,,,,,,,,,,,,,,,,,,,,,,,,,,,,,,,,,,,,,,,,,,,,,,,,
1738755267.700656,1738755267.701438,72.000000,0.000000,4321.794922,4350.512695,4256.025879,4304.487305,4352.307617,4363.205078,4363.333496,4548.974121,4538.846191,4559.487305,4498.461426,5664.871582,4310.641113,4259.102539,0.000000,4.000000,75.000000,,,,0.000000,0.000000,0.000000,0.000000,0.000000,0.000000,0.000000,0.000000,0.000000,0.000000,0.000000,0.000000,0.000000,0.000000,0.000000,0.000000,,,,,,,,,,,,,,,,,,,,,,,,,,,,,,,,,,,,,,,,,,,,,,,,,,,,,,,,,,,,,,,,,,,,,,,,,,,,,,,,,,,,,,,,,,,,,,,,,,,,,,,,,,,,,,,,,,,,,,,,,,,,,,,,,
1738755267.708464,1738755267.709146,73.000000,0.000000,4320.897461,4350.384766,4253.589844,4303.205078,4350.769043,4362.692383,4368.589844,4551.538574,4541.922852,4562.820313,4494.743652,5664.230957,4308.589844,4256.025879,0.000000,4.000000,75.000000,,,,0.000000,0.000000,0.000000,0.000000,0.000000,0.000000,0.000000,0.000000,0.000000,0.000000,0.000000,0.000000,0.000000,0.000000,0.000000,0.000000,,,,,,,,,,,,,,,,,,,,,,,,,,,,,,,,,,,,,,,,,,,,,,,,,,,,,,,,,,,,,,,,,,,,,,,,,,,,,,,,,,,,,,,,,,,,,,,,,,,,,,,,,,,,,,,,,,,,,,,,,,,,,,,,,
1738755267.716272,1738755267.716954,74.000000,0.000000,4321.794922,4351.153809,4251.922852,4303.461426,4349.615234,4358.461426,4366.410156,4551.538574,4538.974121,4560.128418,4492.948730,5663.589844,4309.230957,4252.948730,0.000000,4.000000,75.000000,,,,0.000000,0.000000,0.000000,0.000000,0.000000,0.000000,0.000000,0.000000,0.000000,0.000000,0.000000,0.000000,0.000000,0.000000,0.000000,0.000000,,,,,,,,,,,,,,,,,,,,,,,,,,,,,,,,,,,,,,,,,,,,,,,,,,,,,,,,,,,,,,,,,,,,,,,,,,,,,,,,,,,,,,,,,,,,,,,,,,,,,,,,,,,,,,,,,,,,,,,,,,,,,,,,,
