title:bread1, start timestamp:1738755381.449202, stop timestamp:1738755382.479871, headset type:EPOCX, headset serial:E50208A5, headset firmware:720, channels:168, sampling rate:eeg_128;mot_32;pm_0.1;pow_8, samples:133       , version:2.2, 
Timestamp,OriginalTimestamp,EEG.Counter,EEG.Interpolated,EEG.AF3,EEG.F7,EEG.F3,EEG.FC5,EEG.T7,EEG.P7,EEG.O1,EEG.O2,EEG.P8,EEG.T8,EEG.FC6,EEG.F4,EEG.F8,EEG.AF4,EEG.RawCq,EEG.Battery,EEG.BatteryPercent,MarkerIndex,MarkerType,MarkerValueInt,EEG.MarkerHardware,CQ.AF3,CQ.F7,CQ.F3,CQ.FC5,CQ.T7,CQ.P7,CQ.O1,CQ.O2,CQ.P8,CQ.T8,CQ.FC6,CQ.F4,CQ.F8,CQ.AF4,CQ.Overall,EQ.SampleRateQuality,EQ.OVERALL,EQ.AF3,EQ.F7,EQ.F3,EQ.FC5,EQ.T7,EQ.P7,EQ.O1,EQ.O2,EQ.P8,EQ.T8,EQ.FC6,EQ.F4,EQ.F8,EQ.AF4,MOT.CounterMems,MOT.InterpolatedMems,MOT.Q0,MOT.Q1,MOT.Q2,MOT.Q3,MOT.AccX,MOT.AccY,MOT.AccZ,MOT.MagX,MOT.MagY,MOT.MagZ,PM.Attention.IsActive,PM.Attention.Scaled,PM.Attention.Raw,PM.Attention.Min,PM.Attention.Max,PM.Engagement.IsActive,PM.Engagement.Scaled,PM.Engagement.Raw,PM.Engagement.Min,PM.Engagement.Max,PM.Excitement.IsActive,PM.Excitement.Scaled,PM.Excitement.Raw,PM.Excitement.Min,PM.Excitement.Max,PM.LongTermExcitement,PM.Stress.IsActive,PM.Stress.Scaled,PM.Stress.Raw,PM.Stress.Min,PM.Stress.Max,PM.Relaxation.IsActive,PM.Relaxation.Scaled,PM.Relaxation.Raw,PM.Relaxation.Min,PM.Relaxation.Max,PM.Interest.IsActive,PM.Interest.Scaled,PM.Interest.Raw,PM.Interest.Min,PM.Interest.Max,POW.AF3.Theta,POW.AF3.Alpha,POW.AF3.BetaL,POW.AF3.BetaH,POW.AF3.Gamma,POW.F7.Theta,POW.F7.Alpha,POW.F7.BetaL,POW.F7.BetaH,POW.F7.Gamma,POW.F3.Theta,POW.F3.Alpha,POW.F3.BetaL,POW.F3.BetaH,POW.F3.Gamma,POW.FC5.Theta,POW.FC5.Alpha,POW.FC5.BetaL,POW.FC5.BetaH,POW.FC5.Gamma,POW.T7.Theta,POW.T7.Alpha,POW.T7.BetaL,POW.T7.BetaH,POW.T7.Gamma,POW.P7.Theta,POW.P7.Alpha,POW.P7.BetaL,POW.P7.BetaH,POW.P7.Gamma,POW.O1.Theta,POW.O1.Alpha,POW.O1.BetaL,POW.O1.BetaH,POW.O1.Gamma,POW.O2.Theta,POW.O2.Alpha,POW.O2.BetaL,POW.O2.BetaH,POW.O2.Gamma,POW.P8.Theta,POW.P8.Alpha,POW.P8.BetaL,POW.P8.BetaH,POW.P8.Gamma,POW.T8.Theta,POW.T8.Alpha,POW.T8.BetaL,POW.T8.BetaH,POW.T8.Gamma,POW.FC6.Theta,POW.FC6.Alpha,POW.FC6.BetaL,POW.FC6.BetaH,POW.FC6.Gamma,POW.F4.Theta,POW.F4.Alpha,POW.F4.BetaL,POW.F4.BetaH,POW.F4.Gamma,POW.F8.Theta,POW.F8.Alpha,POW.F8.BetaL,POW.F8.BetaH,POW.F8.Gamma,POW.AF4.Theta,POW.AF4.Alpha,POW.AF4.BetaL,POW.AF4.BetaH,POW.AF4.Gamma
1738755381.449202,1738755381.450030,48.000000,0.000000,4323.461426,4349.358887,4255.769043,4301.410156,4354.871582,4356.025879,4364.230957,4550.641113,4542.563965,4556.666504,4497.051270,5660.256348,4308.333496,4254.871582,0.000000,4.000000,75.000000,,,,0.000000,0.000000,0.000000,0.000000,0.000000,0.000000,0.000000,0.000000,0.000000,0.000000,0.000000,0.000000,0.000000,0.000000,0.000000,0.000000,,,,,,,,,,,,,,,,,12.000000,0.000000,0.785330,-0.615356,-0.062378,0.026489,0.074228,-0.970333,0.234892,4.110685,-15.544447,22.722082,,,,,,,,,,,,,,,,,,,,,,,,,,,,,,,,,,,,,,,,,,,,,,,,,,,,,,,,,,,,,,,,,,,,,,,,,,,,,,,,,,,,,,,,,,,,,,,,,,,,,
1738755381.457010,1738755381.457738,49.000000,0.000000,4322.179688,4348.589844,4256.410156,4303.589844,4353.205078,4355.512695,4367.307617,4551.922852,4537.692383,4559.615234,4496.282227,5665.897461,4308.974121,4255.769043,0.000000,4.000000,75.000000,,,,0.000000,0.000000,0.000000,0.000000,0.000000,0.000000,0.000000,0.000000,0.000000,0.000000,0.000000,0.000000,0.000000,0.000000,0.000000,0.000000,,,,,,,,,,,,,,,,,,,,,,,,,,,,,,,,,,,,,,,,,,,,,,,,,,,,,,,,,,,,,,,,,,,,,,,,,,,,,,,,,,,,,,,,,,,,,,,,,,,,,,,,,,,,,,,,,,,,,,,,,,,,,,,,,
1738755381.464818,1738755381.465646,50.000000,0.000000,4321.794922,4349.487305,4256.666504,4302.948730,4350.384766,4360.000000,4362.436035,4552.820313,4538.974121,4560.512695,4496.410156,5664.230957,4313.205078,4260.256348,0.000000,4.000000,75.000000,,,,0.000000,0.000000,0.000000,0.000000,0.000000,0.000000,0.000000,0.000000,0.000000,0.000000,0.000000,0.000000,0.000000,0.000000,0.000000,0.000000,,,,,,,,,,,,,,,,,,,,,,,,,,,,,,,,,,,,,,,,,,,,,,,,,,,,,,,,,,,,,,,,,,,,,,,,,,,,,,,,,,,,,,,,,,,,,,,,,,,,,,,,,,,,,,,,,,,,,,,,,,,,,,,,,
1738755381.472626,1738755381.473454,51.000000,0.000000,4324.102539,4350.128418,4257.051270,4303.205078,4351.922852,4360.897461,4361.282227,4552.436035,4544.615234,4559.487305,4494.743652,5662.051270,4303.589844,4255.769043,0.000000,4.000000,75.000000,,,,0.000000,0.000000,0.000000,0.000000,0.000000,0.000000,0.000000,0.000000,0.000000,0.000000,0.000000,0.000000,0.000000,0.000000,0.000000,0.000000,,,,,,,,,,,,,,,,,,,,,,,,,,,,,,,,,,,,,,,,,,,,,,,,,,,,,,,,,,,,,,,,,,,,,,,,,,,,,,,,,,,,,,,,,,,,,,,,,,,,,,,,,,,,,,,,,,,,,,,,,,,,,,,,,
1738755381.480435,1738755381.481362,52.000000,0.000000,4324.871582,4353.846191,4256.794922,4302.051270,4354.615234,4357.692383,4365.897461,4547.563965,4544.615234,4561.410156,4496.410156,5659.615234,4308.205078,4255.897461,0.000000,4.000000,75.000000,,,,0.000000,0.000000,0.000000,0.000000,0.000000,0.000000,0.000000,0.000000,0.000000,0.000000,0.000000,0.000000,0.000000,0.000000,0.000000,0.000000,,,,,,,,,,,,,,,,,13.000000,0.000000,0.785287,-0.615417,-0.062317,0.026489,0.070321,-0.969845,0.238310,3.966283,-15.456669,22.666540,,,,,,,,,,,,,,,,,,,,,,,,,,,,,,,,,,,,,,,,,,,,,,,,,,,,,,,,,,,,,,,,,,,,,,,,,,,,,,,,,,,,,,,,,,,,,,,,,,,,,
1738755381.488243,1738755381.489170,53.000000,0.000000,4326.153809,4354.615234,4255.512695,4300.769043,4352.436035,4357.692383,4365.641113,4547.436035,4540.897461,4563.717773,4497.179688,5662.051270,4316.922852,4257.948730,0.000000,4.000000,75.000000,,,,0.000000,0.000000,0.000000,0.000000,0.000000,0.000000,0.000000,0.000000,0.000000,0.000000,0.000000,0.000000,0.000000,0.000000,0.000000,0.000000,,,,,,,,,,,,,,,,,,,,,,,,,,,,,,,,,,,,,,,,,,,,,,,,,,,,,,,,,,,,,,,,,,,,,,,,,,,,,,,,,,,,,,,,,,,,,,,,,,,,,,,,,,,,,,,,,,,,,,,,,,,,,,,,,
1738755381.496051,1738755381.497078,54.000000,0.000000,4325.384766,4349.487305,4251.538574,4303.333496,4350.000000,4361.153809,4364.358887,4553.589844,4538.205078,4560.256348,4494.871582,5669.102539,4307.179688,4254.487305,0.000000,4.000000,75.000000,,,,0.000000,0.000000,0.000000,0.000000,0.000000,0.000000,0.000000,0.000000,0.000000,0.000000,0.000000,0.000000,0.000000,0.000000,0.000000,0.000000,,,,,,,,,,,,,,,,,,,,,,,,,,,,,,,,,,,,,,,,,,,,,,,,,,,,,,,,,,,,,,,,,,,,,,,,,,,,,,,,,,,,,,,,,,,,,,,,,,,,,,,,,,,,,,,,,,,,,,,,,,,,,,,,,
1738755381.503859,1738755381.504887,55.000000,0.000000,4320.769043,4351.538574,4249.615234,4304.230957,4351.666504,4361.025879,4364.615234,4550.769043,4540.384766,4558.846191,4497.436035,5662.563965,4307.051270,4256.282227,0.000000,4.000000,75.000000,,,,0.000000,0.000000,0.000000,0.000000,0.000000,0.000000,0.000000,0.000000,0.000000,0.000000,0.000000,0.000000,0.000000,0.000000,0.000000,0.000000,,,,,,,,,,,,,,,,,,,,,,,,,,,,,,,,,,,,,,,,,,,,,,,,,,,,,,,,,,,,,,,,,,,,,,,,,,,,,,,,,,,,,,,,,,,,,,,,,,,,,,,,,,,,,,,,,,,,,,,,,,,,,,,,,
1738755381.511667,1738755381.512795,56.000000,0.000000,4322.563965,4354.487305,4254.743652,4306.538574,4354.102539,4362.051270,4365.128418,4550.000000,4541.922852,4560.128418,4499.358887,5661.538574,4307.179688,4256.538574,0.000000,4.000000,75.000000,,,,0.000000,0.000000,0.000000,0.000000,0.000000,0.000000,0.000000,0.000000,0.000000,0.000000,0.000000,0.000000,0.000000,0.000000,0.000000,0.000000,,,,,,,,,,,,,,,,,14.000000,0.000000,0.785287,-0.615417,-0.062317,0.026489,0.057136,-0.974728,0.239775,3.919655,-15.377669,22.749886,,,,,,,,,,,,,,,,,,,,,,,,,,,,,,,,,,,,,,,,,,,,,,,,,,,,,,,,,,,,,,,,,,,,,,,,,,,,,,,,,,,,,,,,,,,,,,,,,,,,,
1738755381.519475,1738755381.520703,57.000000,0.000000,4325.641113,4351.922852,4256.282227,4303.333496,4353.461426,4360.512695,4363.205078,4553.846191,4539.487305,4560.000000,4497.563965,5667.692383,4309.615234,4256.922852,0.000000,4.000000,75.000000,,,,0.000000,0.000000,0.000000,0.000000,0.000000,0.000000,0.000000,0.000000,0.000000,0.000000,0.000000,0.000000,0.000000,0.000000,0.000000,0.000000,,,,,,,,,,,,,,,,,,,,,,,,,,,,,,,,,,,,,,,,,,,,,,,,,,,,,,,,,,,,,,,,,,,,,,,,,,,,,,,,,,,,,,,,,,,,,,,,,,,,,,,,,,,,,,,,,,,,,,,,,,,,,,,,,
1738755381.527283,1738755381.528511,58.000000,0.000000,4324.358887,4348.589844,4253.205078,4299.615234,4351.410156,4356.666504,4365.000000,4549.743652,4538.846191,4560.641113,4495.769043,5663.846191,4313.717773,4258.717773,0.000000,4.000000,75.000000,,,,0.000000,0.000000,0.000000,0.000000,0.000000,0.000000,0.000000,0.000000,0.000000,0.000000,0.000000,0.000000,0.000000,0.000000,0.000000,0.000000,,,,,,,,,,,,,,,,,,,,,,,,,,,,,,,,,,,,,,,,,,,,,,,,,,,,,,,,,,,,,,,,,,,,,,,,,,,,,,,,,,,,,,,,,,,,,,,,,,,,,,,,,,,,,,,,,,,,,,,,,,,,,,,,,
1738755381.535091,1738755381.536319,59.000000,0.000000,4323.846191,4349.615234,4254.743652,4303.205078,4352.179688,4359.487305,4366.794922,4548.077148,4541.025879,4562.179688,4493.974121,5661.025879,4303.846191,4255.128418,0.000000,4.000000,75.000000,,,,0.000000,0.000000,0.000000,0.000000,0.000000,0.000000,0.000000,0.000000,0.000000,0.000000,0.000000,0.000000,0.000000,0.000000,0.000000,0.000000,,,,,,,,,,,,,,,,,,,,,,,,,,,,,,,,,,,,,,,,,,,,,,,,,,,,,,,,,,,,,,,,,,,,,,,,,,,,,,,,,,,,,,,,,,,,,,,,,,,,,,,,,,,,,,,,,,,,,,,,,,,,,,,,,
1738755381.542899,1738755381.544028,60.000000,0.000000,4322.436035,4350.769043,4256.153809,4302.179688,4353.205078,4363.077148,4362.563965,4551.025879,4542.179688,4563.205078,4494.615234,5661.153809,4305.512695,4255.384766,0.000000,4.000000,75.000000,,,,0.000000,0.000000,0.000000,0.000000,0.000000,0.000000,0.000000,0.000000,0.000000,0.000000,0.000000,0.000000,0.000000,0.000000,0.000000,0.000000,,,,,,,,,,,,,,,,,15.000000,0.000000,0.785287,-0.615417,-0.062378,0.026367,0.061531,-0.975217,0.229520,3.894356,-15.373236,22.641563,,,,,,,,,,,,,,,,,,,,,,,,,,,,,,,,,,,,,,,,,,,,,,,,,,,,,,,,,,,,,,,,,,,,,,,,,,,,,,,,,,,,,,,,,,,,,,,,,,,,,
1738755381.550707,1738755381.551836,61.000000,0.000000,4320.897461,4348.461426,4255.256348,4304.102539,4352.692383,4360.769043,4364.871582,4551.922852,4538.077148,4559.615234,4496.410156,5664.871582,4308.077148,4255.128418,0.000000,4.000000,75.000000,,,,0.000000,0.000000,0.000000,0.000000,0.000000,0.000000,0.000000,0.000000,0.000000,0.000000,0.000000,0.000000,0.000000,0.000000,0.000000,0.000000,,,,,,,,,,,,,,,,,,,,,,,,,,,,,,,,,,,,,,,,,,,,,,,,,,,,,,,,,,,,,,,,,,,,,,,,,,,,,,,,,,,,,,,,,,,,,,,,,,,,,,,,,,,,,,,,,,,,,,,,,,,,,,,,,
1738755381.558515,1738755381.559544,62.000000,0.000000,4321.025879,4349.615234,4254.230957,4306.153809,4352.563965,4358.077148,4366.538574,4548.974121,4535.512695,4557.563965,4499.102539,5665.000000,4306.282227,4255.256348,0.000000,4.000000,75.000000,,,,0.000000,0.000000,0.000000,0.000000,0.000000,0.000000,0.000000,0.000000,0.000000,0.000000,0.000000,0.000000,0.000000,0.000000,0.000000,0.000000,,,,,,,,,,,,,,,,,,,,,,,,,,,,,,,,,,,,,,,,,,,,,,,,,,,,,,,,,,,,0.018796,0.022983,0.027643,0.028343,0.032751,0.014383,0.028795,0.023049,0.027274,0.033913,0.016068,0.009616,0.005831,0.016478,0.019905,0.031378,0.020340,0.027884,0.012304,0.027023,0.014986,0.017073,0.036582,0.015149,0.014626,0.026787,0.038699,0.017870,0.017842,0.040714,0.079022,0.057724,0.043695,0.037817,0.025146,0.025879,0.015444,0.029670,0.018410,0.025830,0.028780,0.008636,0.007099,0.034043,0.034116,0.018849,0.014342,0.039417,0.015722,0.017168,0.064106,0.020104,0.016080,0.015251,0.022521,0.010996,0.042606,0.028861,0.037280,0.029632,0.047676,0.023967,0.025302,0.018114,0.031347,0.013287,0.013065,0.053251,0.028908,0.027253
1738755381.566324,1738755381.567352,63.000000,0.000000,4322.948730,4350.897461,4254.615234,4303.717773,4353.077148,4359.743652,4363.717773,4547.820313,4538.077148,4560.769043,4497.948730,5658.205078,4311.282227,4258.974121,0.000000,4.000000,75.000000,,,,0.000000,0.000000,0.000000,0.000000,0.000000,0.000000,0.000000,0.000000,0.000000,0.000000,0.000000,0.000000,0.000000,0.000000,0.000000,0.000000,,,,,,,,,,,,,,,,,,,,,,,,,,,,,,,,,,,,,,,,,,,,,,,,,,,,,,,,,,,,,,,,,,,,,,,,,,,,,,,,,,,,,,,,,,,,,,,,,,,,,,,,,,,,,,,,,,,,,,,,,,,,,,,,,
1738755381.574132,1738755381.575060,64.000000,0.000000,4325.384766,4348.717773,4256.153809,4304.358887,4353.846191,4359.871582,4368.589844,4552.051270,4538.589844,4560.769043,4493.717773,5660.384766,4308.461426,4257.563965,0.000000,4.000000,75.000000,,,,0.000000,0.000000,0.000000,0.000000,0.000000,0.000000,0.000000,0.000000,0.000000,0.000000,0.000000,0.000000,0.000000,0.000000,0.000000,0.000000,,,,,,,,,,,,,,,,,16.000000,0.000000,0.785284,-0.615417,-0.062439,0.026306,0.071786,-0.982542,0.232450,3.921587,-15.319245,22.660742,,,,,,,,,,,,,,,,,,,,,,,,,,,,,,,,,,,,,,,,,,,,,,,,,,,,,,,,,,,,,,,,,,,,,,,,,,,,,,,,,,,,,,,,,,,,,,,,,,,,,
1738755381.581940,1738755381.582868,65.000000,0.000000,4323.974121,4349.358887,4254.871582,4303.974121,4352.436035,4359.230957,4369.871582,4551.282227,4538.461426,4559.487305,4497.692383,5662.948730,4310.256348,4259.230957,0.000000,4.000000,75.000000,,,,0.000000,0.000000,0.000000,0.000000,0.000000,0.000000,0.000000,0.000000,0.000000,0.000000,0.000000,0.000000,0.000000,0.000000,0.000000,0.000000,,,,,,,,,,,,,,,,,,,,,,,,,,,,,,,,,,,,,,,,,,,,,,,,,,,,,,,,,,,,,,,,,,,,,,,,,,,,,,,,,,,,,,,,,,,,,,,,,,,,,,,,,,,,,,,,,,,,,,,,,,,,,,,,,
1738755381.589748,1738755381.590576,66.000000,0.000000,4321.922852,4351.666504,4256.025879,4304.871582,4352.179688,4362.051270,4367.436035,4550.000000,4536.666504,4559.487305,4498.846191,5661.794922,4311.025879,4258.461426,0.000000,4.000000,75.000000,,,,0.000000,0.000000,0.000000,0.000000,0.000000,0.000000,0.000000,0.000000,0.000000,0.000000,0.000000,0.000000,0.000000,0.000000,0.000000,0.000000,,,,,,,,,,,,,,,,,,,,,,,,,,,,,,,,,,,,,,,,,,,,,,,,,,,,,,,,,,,,,,,,,,,,,,,,,,,,,,,,,,,,,,,,,,,,,,,,,,,,,,,,,,,,,,,,,,,,,,,,,,,,,,,,,
1738755381.597556,1738755381.598384,67.000000,0.000000,4322.692383,4350.769043,4256.538574,4307.051270,4354.102539,4362.436035,4367.820313,4550.512695,4536.538574,4557.692383,4495.384766,5661.922852,4309.487305,4255.256348,0.000000,4.000000,75.000000,,,,0.000000,0.000000,0.000000,0.000000,0.000000,0.000000,0.000000,0.000000,0.000000,0.000000,0.000000,0.000000,0.000000,0.000000,0.000000,0.000000,,,,,,,,,,,,,,,,,,,,,,,,,,,,,,,,,,,,,,,,,,,,,,,,,,,,,,,,,,,,,,,,,,,,,,,,,,,,,,,,,,,,,,,,,,,,,,,,,,,,,,,,,,,,,,,,,,,,,,,,,,,,,,,,,
1738755381.605364,1738755381.606093,68.000000,0.000000,4322.436035,4349.358887,4252.563965,4303.077148,4355.384766,4359.871582,4367.051270,4547.948730,4540.256348,4556.410156,4498.333496,5660.512695,4315.256348,4258.333496,0.000000,4.000000,75.000000,,,,0.000000,0.000000,0.000000,0.000000,0.000000,0.000000,0.000000,0.000000,0.000000,0.000000,0.000000,0.000000,0.000000,0.000000,0.000000,0.000000,,,,,,,,,,,,,,,,,17.000000,0.000000,0.785238,-0.615479,-0.062439,0.026245,0.078623,-0.979612,0.229032,3.946095,-15.403987,22.728001,,,,,,,,,,,,,,,,,,,,,,,,,,,,,,,,,,,,,,,,,,,,,,,,,,,,,,,,,,,,,,,,,,,,,,,,,,,,,,,,,,,,,,,,,,,,,,,,,,,,,
1738755381.613172,1738755381.613900,69.000000,0.000000,4321.153809,4347.692383,4252.307617,4299.615234,4354.871582,4358.974121,4366.410156,4549.487305,4538.589844,4558.205078,4496.922852,5665.384766,4310.000000,4258.846191,0.000000,4.000000,75.000000,,,,0.000000,0.000000,0.000000,0.000000,0.000000,0.000000,0.000000,0.000000,0.000000,0.000000,0.000000,0.000000,0.000000,0.000000,0.000000,0.000000,,,,,,,,,,,,,,,,,,,,,,,,,,,,,,,,,,,,,,,,,,,,,,,,,,,,,,,,,,,,,,,,,,,,,,,,,,,,,,,,,,,,,,,,,,,,,,,,,,,,,,,,,,,,,,,,,,,,,,,,,,,,,,,,,
1738755381.620980,1738755381.621609,70.000000,0.000000,4320.128418,4346.922852,4252.692383,4301.025879,4353.717773,4360.000000,4362.179688,4550.769043,4537.307617,4560.384766,4493.333496,5665.000000,4309.230957,4260.512695,0.000000,4.000000,75.000000,,,,0.000000,0.000000,0.000000,0.000000,0.000000,0.000000,0.000000,0.000000,0.000000,0.000000,0.000000,0.000000,0.000000,0.000000,0.000000,0.000000,,,,,,,,,,,,,,,,,,,,,,,,,,,,,,,,,,,,,,,,,,,,,,,,,,,,,,,,,,,,,,,,,,,,,,,,,,,,,,,,,,,,,,,,,,,,,,,,,,,,,,,,,,,,,,,,,,,,,,,,,,,,,,,,,
1738755381.628788,1738755381.629417,71.000000,0.000000,4322.563965,4349.358887,4250.641113,4303.461426,4352.820313,4360.897461,4361.282227,4550.384766,4537.692383,4559.102539,4495.641113,5660.384766,4311.410156,4259.743652,0.000000,4.000000,75.000000,,,,0.000000,0.000000,0.000000,0.000000,0.000000,0.000000,0.000000,0.000000,0.000000,0.000000,0.000000,0.000000,0.000000,0.000000,0.000000,0.000000,,,,,,,,,,,,,,,,,,,,,,,,,,,,,,,,,,,,,,,,,,,,,,,,,,,,,,,,,,,,,,,,,,,,,,,,,,,,,,,,,,,,,,,,,,,,,,,,,,,,,,,,,,,,,,,,,,,,,,,,,,,,,,,,,
1738755381.636597,1738755381.637125,72.000000,0.000000,4324.743652,4351.153809,4251.666504,4303.846191,4351.538574,4360.128418,4366.282227,4552.179688,4536.922852,4557.051270,4497.179688,5662.692383,4310.128418,4256.666504,0.000000,4.000000,75.000000,,,,0.000000,0.000000,0.000000,0.000000,0.000000,0.000000,0.000000,0.000000,0.000000,0.000000,0.000000,0.000000,0.000000,0.000000,0.000000,0.000000,,,,,,,,,,,,,,,,,18.000000,0.000000,0.785190,-0.615540,-0.062439,0.026245,0.063484,-0.971310,0.229520,3.901486,-15.380256,22.838533,,,,,,,,,,,,,,,,,,,,,,,,,,,,,,,,,,,,,,,,,,,,,,,,,,,,,,,,,,,,,,,,,,,,,,,,,,,,,,,,,,,,,,,,,,,,,,,,,,,,,
1738755381.644405,1738755381.644933,73.000000,0.000000,4322.179688,4350.256348,4256.025879,4301.410156,4352.692383,4360.128418,4365.128418,4551.922852,4541.025879,4558.974121,4498.461426,5661.282227,4314.743652,4259.615234,0.000000,4.000000,75.000000,,,,0.000000,0.000000,0.000000,0.000000,0.000000,0.000000,0.000000,0.000000,0.000000,0.000000,0.000000,0.000000,0.000000,0.000000,0.000000,0.000000,,,,,,,,,,,,,,,,,,,,,,,,,,,,,,,,,,,,,,,,,,,,,,,,,,,,,,,,,,,,,,,,,,,,,,,,,,,,,,,,,,,,,,,,,,,,,,,,,,,,,,,,,,,,,,,,,,,,,,,,,,,,,,,,,
1738755381.652213,1738755381.652641,74.000000,0.000000,4322.307617,4348.333496,4256.025879,4299.871582,4353.461426,4361.538574,4365.256348,4553.333496,4541.922852,4562.307617,4497.307617,5661.922852,4310.128418,4258.717773,0.000000,4.000000,75.000000,,,,0.000000,0.000000,0.000000,0.000000,0.000000,0.000000,0.000000,0.000000,0.000000,0.000000,0.000000,0.000000,0.000000,0.000000,0.000000,0.000000,,,,,,,,,,,,,,,,,,,,,,,,,,,,,,,,,,,,,,,,,,,,,,,,,,,,,,,,,,,,,,,,,,,,,,,,,,,,,,,,,,,,,,,,,,,,,,,,,,,,,,,,,,,,,,,,,,,,,,,,,,,,,,,,,
1738755381.660021,1738755381.660549,75.000000,0.000000,4322.820313,4349.230957,4254.102539,4301.153809,4352.051270,4360.897461,4367.436035,4552.436035,4539.615234,4561.922852,4495.384766,5663.589844,4311.025879,4259.230957,0.000000,4.000000,75.000000,,,,0.000000,0.000000,0.000000,0.000000,0.000000,0.000000,0.000000,0.000000,0.000000,0.000000,0.000000,0.000000,0.000000,0.000000,0.000000,0.000000,,,,,,,,,,,,,,,,,,,,,,,,,,,,,,,,,,,,,,,,,,,,,,,,,,,,,,,,,,,,,,,,,,,,,,,,,,,,,,,,,,,,,,,,,,,,,,,,,,,,,,,,,,,,,,,,,,,,,,,,,,,,,,,,,
1738755381.667829,1738755381.668357,76.000000,0.000000,4320.897461,4350.512695,4256.025879,4304.743652,4351.794922,4357.436035,4366.282227,4550.512695,4539.871582,4558.846191,4497.692383,5661.922852,4314.871582,4260.384766,0.000000,4.000000,75.000000,,,,0.000000,0.000000,0.000000,0.000000,0.000000,0.000000,0.000000,0.000000,0.000000,0.000000,0.000000,0.000000,0.000000,0.000000,0.000000,0.000000,,,,,,,,,,,,,,,,,19.000000,0.000000,0.785183,-0.615540,-0.062500,0.026306,0.060066,-0.982542,0.238799,3.844670,-15.292230,22.888014,,,,,,,,,,,,,,,,,,,,,,,,,,,,,,,,,,,,,,,,,,,,,,,,,,,,,,,,,,,,,,,,,,,,,,,,,,,,,,,,,,,,,,,,,,,,,,,,,,,,,
1738755381.675637,1738755381.676265,77.000000,0.000000,4321.538574,4348.846191,4256.410156,4306.153809,4353.333496,4357.436035,4366.538574,4553.974121,4538.589844,4559.102539,4498.205078,5662.563965,4310.384766,4256.025879,0.000000,4.000000,75.000000,,,,0.000000,0.000000,0.000000,0.000000,0.000000,0.000000,0.000000,0.000000,0.000000,0.000000,0.000000,0.000000,0.000000,0.000000,0.000000,0.000000,,,,,,,,,,,,,,,,,,,,,,,,,,,,,,,,,,,,,,,,,,,,,,,,,,,,,,,,,,,,,,,,,,,,,,,,,,,,,,,,,,,,,,,,,,,,,,,,,,,,,,,,,,,,,,,,,,,,,,,,,,,,,,,,,
1738755381.683445,1738755381.684073,78.000000,0.000000,4319.743652,4350.897461,4253.077148,4299.743652,4353.205078,4360.128418,4367.563965,4552.307617,4539.102539,4562.179688,4496.282227,5661.282227,4315.897461,4255.641113,0.000000,4.000000,75.000000,,,,0.000000,0.000000,0.000000,0.000000,0.000000,0.000000,0.000000,0.000000,0.000000,0.000000,0.000000,0.000000,0.000000,0.000000,0.000000,0.000000,,,,,,,,,,,,,,,,,,,,,,,,,,,,,,,,,,,,,,,,,,,,,,,,,,,,,,,,,,,,0.018951,0.019573,0.024766,0.028150,0.027939,0.014835,0.026680,0.023124,0.026811,0.034220,0.013219,0.008543,0.005708,0.016331,0.019203,0.030990,0.020396,0.032278,0.013522,0.027644,0.010731,0.016699,0.037173,0.015963,0.016384,0.026601,0.041538,0.019829,0.017540,0.041118,0.073183,0.054070,0.048103,0.040382,0.027037,0.024388,0.014460,0.034065,0.022968,0.025990,0.024577,0.009353,0.005621,0.030499,0.032123,0.016992,0.015321,0.042996,0.014131,0.016622,0.060295,0.016754,0.013054,0.015764,0.021993,0.015906,0.044313,0.026280,0.036457,0.033692,0.044483,0.023388,0.026355,0.016203,0.034820,0.011307,0.010816,0.052813,0.028904,0.025335
1738755381.691253,1738755381.691981,79.000000,0.000000,4316.794922,4353.461426,4253.077148,4302.179688,4351.025879,4361.922852,4370.512695,4549.102539,4538.589844,4561.282227,4495.128418,5662.692383,4311.538574,4255.128418,0.000000,4.000000,75.000000,,,,0.000000,0.000000,0.000000,0.000000,0.000000,0.000000,0.000000,0.000000,0.000000,0.000000,0.000000,0.000000,0.000000,0.000000,0.000000,0.000000,,,,,,,,,,,,,,,,,,,,,,,,,,,,,,,,,,,,,,,,,,,,,,,,,,,,,,,,,,,,,,,,,,,,,,,,,,,,,,,,,,,,,,,,,,,,,,,,,,,,,,,,,,,,,,,,,,,,,,,,,,,,,,,,,
1738755381.699061,1738755381.699790,80.000000,0.000000,4317.948730,4351.153809,4255.000000,4306.666504,4351.025879,4361.794922,4366.922852,4550.897461,4536.922852,4559.102539,4496.922852,5664.615234,4308.333496,4255.512695,0.000000,4.000000,75.000000,,,,0.000000,0.000000,0.000000,0.000000,0.000000,0.000000,0.000000,0.000000,0.000000,0.000000,0.000000,0.000000,0.000000,0.000000,0.000000,0.000000,,,,,,,,,,,,,,,,,20.000000,0.000000,0.785231,-0.615479,-0.062500,0.026306,0.073251,-0.968868,0.226590,3.826870,-15.213007,22.765879,,,,,,,,,,,,,,,,,,,,,,,,,,,,,,,,,,,,,,,,,,,,,,,,,,,,,,,,,,,,,,,,,,,,,,,,,,,,,,,,,,,,,,,,,,,,,,,,,,,,,
1738755381.706869,1738755381.707698,81.000000,0.000000,4324.102539,4348.205078,4253.589844,4300.769043,4351.794922,4359.615234,4364.102539,4552.948730,4538.974121,4559.743652,4497.692383,5665.897461,4315.897461,4256.282227,0.000000,4.000000,75.000000,,,,0.000000,0.000000,0.000000,0.000000,0.000000,0.000000,0.000000,0.000000,0.000000,0.000000,0.000000,0.000000,0.000000,0.000000,0.000000,0.000000,,,,,,,,,,,,,,,,,,,,,,,,,,,,,,,,,,,,,,,,,,,,,,,,,,,,,,,,,,,,,,,,,,,,,,,,,,,,,,,,,,,,,,,,,,,,,,,,,,,,,,,,,,,,,,,,,,,,,,,,,,,,,,,,,
1738755381.714677,1738755381.715506,82.000000,0.000000,4327.820313,4347.692383,4253.333496,4301.153809,4353.205078,4358.077148,4368.846191,4552.563965,4540.256348,4559.358887,4495.384766,5665.641113,4311.282227,4252.436035,0.000000,4.000000,75.000000,,,,0.000000,0.000000,0.000000,0.000000,0.000000,0.000000,0.000000,0.000000,0.000000,0.000000,0.000000,0.000000,0.000000,0.000000,0.000000,0.000000,,,,,,,,,,,,,,,,,,,,,,,,,,,,,,,,,,,,,,,,,,,,,,,,,,,,,,,,,,,,,,,,,,,,,,,,,,,,,,,,,,,,,,,,,,,,,,,,,,,,,,,,,,,,,,,,,,,,,,,,,,,,,,,,,
1738755381.722486,1738755381.723214,83.000000,0.000000,4322.563965,4348.589844,4254.743652,4303.846191,4354.230957,4359.615234,4365.000000,4547.820313,4541.025879,4558.461426,4497.179688,5660.512695,4311.410156,4255.384766,0.000000,4.000000,75.000000,,,,0.000000,0.000000,0.000000,0.000000,0.000000,0.000000,0.000000,0.000000,0.000000,0.000000,0.000000,0.000000,0.000000,0.000000,0.000000,0.000000,,,,,,,,,,,,,,,,,,,,,,,,,,,,,,,,,,,,,,,,,,,,,,,,,,,,,,,,,,,,,,,,,,,,,,,,,,,,,,,,,,,,,,,,,,,,,,,,,,,,,,,,,,,,,,,,,,,,,,,,,,,,,,,,,
1738755381.730294,1738755381.731022,84.000000,0.000000,4320.769043,4349.230957,4254.102539,4303.974121,4352.820313,4361.666504,4363.846191,4549.358887,4540.897461,4559.487305,4496.538574,5665.000000,4310.384766,4255.897461,0.000000,4.000000,75.000000,,,,0.000000,0.000000,0.000000,0.000000,0.000000,0.000000,0.000000,0.000000,0.000000,0.000000,0.000000,0.000000,0.000000,0.000000,0.000000,0.000000,,,,,,,,,,,,,,,,,21.000000,0.000000,0.785231,-0.615479,-0.062500,0.026306,0.071298,-0.971310,0.250031,3.927516,-15.208373,22.839291,,,,,,,,,,,,,,,,,,,,,,,,,,,,,,,,,,,,,,,,,,,,,,,,,,,,,,,,,,,,,,,,,,,,,,,,,,,,,,,,,,,,,,,,,,,,,,,,,,,,,
1738755381.738102,1738755381.738731,85.000000,0.000000,4323.077148,4350.641113,4253.333496,4303.205078,4350.769043,4360.384766,4367.051270,4551.922852,4540.128418,4560.769043,4495.897461,5667.436035,4306.794922,4252.948730,0.000000,4.000000,75.000000,,,,0.000000,0.000000,0.000000,0.000000,0.000000,0.000000,0.000000,0.000000,0.000000,0.000000,0.000000,0.000000,0.000000,0.000000,0.000000,0.000000,,,,,,,,,,,,,,,,,,,,,,,,,,,,,,,,,,,,,,,,,,,,,,,,,,,,,,,,,,,,,,,,,,,,,,,,,,,,,,,,,,,,,,,,,,,,,,,,,,,,,,,,,,,,,,,,,,,,,,,,,,,,,,,,,
1738755381.745910,1738755381.746539,86.000000,0.000000,4323.077148,4349.743652,4254.487305,4300.512695,4352.051270,4358.717773,4365.000000,4548.205078,4538.974121,4560.769043,4499.358887,5660.641113,4310.000000,4256.922852,0.000000,4.000000,75.000000,,,,0.000000,0.000000,0.000000,0.000000,0.000000,0.000000,0.000000,0.000000,0.000000,0.000000,0.000000,0.000000,0.000000,0.000000,0.000000,0.000000,,,,,,,,,,,,,,,,,,,,,,,,,,,,,,,,,,,,,,,,,,,,,,,,,,,,,,,,,,,,,,,,,,,,,,,,,,,,,,,,,,,,,,,,,,,,,,,,,,,,,,,,,,,,,,,,,,,,,,,,,,,,,,,,,
1738755381.753718,1738755381.754247,87.000000,0.000000,4324.743652,4347.051270,4255.512695,4303.333496,4354.102539,4359.743652,4365.641113,4550.000000,4537.820313,4559.487305,4499.102539,5662.948730,4305.128418,4257.692383,0.000000,4.000000,75.000000,,,,0.000000,0.000000,0.000000,0.000000,0.000000,0.000000,0.000000,0.000000,0.000000,0.000000,0.000000,0.000000,0.000000,0.000000,0.000000,0.000000,,,,,,,,,,,,,,,,,,,,,,,,,,,,,,,,,,,,,,,,,,,,,,,,,,,,,,,,,,,,,,,,,,,,,,,,,,,,,,,,,,,,,,,,,,,,,,,,,,,,,,,,,,,,,,,,,,,,,,,,,,,,,,,,,
1738755381.761526,1738755381.762055,88.000000,0.000000,4324.230957,4349.871582,4254.102539,4304.487305,4352.307617,4360.000000,4365.769043,4552.820313,4538.717773,4561.538574,4496.410156,5661.922852,4307.307617,4258.077148,0.000000,4.000000,75.000000,,,,0.000000,0.000000,0.000000,0.000000,0.000000,0.000000,0.000000,0.000000,0.000000,0.000000,0.000000,0.000000,0.000000,0.000000,0.000000,0.000000,,,,,,,,,,,,,,,,,22.000000,0.000000,0.785231,-0.615479,-0.062500,0.026306,0.075204,-0.969845,0.232450,3.968098,-15.204202,22.688696,,,,,,,,,,,,,,,,,,,,,,,,,,,,,,,,,,,,,,,,,,,,,,,,,,,,,,,,,,,,,,,,,,,,,,,,,,,,,,,,,,,,,,,,,,,,,,,,,,,,,
1738755381.769334,1738755381.769763,89.000000,0.000000,4320.897461,4351.538574,4255.512695,4302.179688,4351.922852,4360.897461,4367.563965,4551.410156,4539.743652,4562.307617,4495.512695,5660.000000,4310.512695,4258.077148,0.000000,4.000000,75.000000,,,,0.000000,0.000000,0.000000,0.000000,0.000000,0.000000,0.000000,0.000000,0.000000,0.000000,0.000000,0.000000,0.000000,0.000000,0.000000,0.000000,,,,,,,,,,,,,,,,,,,,,,,,,,,,,,,,,,,,,,,,,,,,,,,,,,,,,,,,,,,,,,,,,,,,,,,,,,,,,,,,,,,,,,,,,,,,,,,,,,,,,,,,,,,,,,,,,,,,,,,,,,,,,,,,,
1738755381.777142,1738755381.777571,90.000000,0.000000,4320.897461,4348.717773,4258.077148,4302.820313,4352.051270,4362.051270,4368.974121,4548.589844,4539.871582,4558.461426,4497.692383,5665.128418,4307.436035,4255.897461,0.000000,4.000000,75.000000,,,,0.000000,0.000000,0.000000,0.000000,0.000000,0.000000,0.000000,0.000000,0.000000,0.000000,0.000000,0.000000,0.000000,0.000000,0.000000,0.000000,,,,,,,,,,,,,,,,,,,,,,,,,,,,,,,,,,,,,,,,,,,,,,,,,,,,,,,,,,,,,,,,,,,,,,,,,,,,,,,,,,,,,,,,,,,,,,,,,,,,,,,,,,,,,,,,,,,,,,,,,,,,,,,,,
1738755381.784950,1738755381.785279,91.000000,0.000000,4323.461426,4349.615234,4255.769043,4304.230957,4352.179688,4361.282227,4365.256348,4546.025879,4539.487305,4557.948730,4497.820313,5663.974121,4311.025879,4258.205078,0.000000,4.000000,75.000000,,,,0.000000,0.000000,0.000000,0.000000,0.000000,0.000000,0.000000,0.000000,0.000000,0.000000,0.000000,0.000000,0.000000,0.000000,0.000000,0.000000,,,,,,,,,,,,,,,,,,,,,,,,,,,,,,,,,,,,,,,,,,,,,,,,,,,,,,,,,,,,,,,,,,,,,,,,,,,,,,,,,,,,,,,,,,,,,,,,,,,,,,,,,,,,,,,,,,,,,,,,,,,,,,,,,
1738755381.792758,1738755381.793087,92.000000,0.000000,4323.461426,4353.205078,4255.000000,4304.358887,4353.717773,4361.282227,4366.153809,4547.692383,4539.487305,4560.128418,4495.256348,5662.820313,4311.153809,4256.153809,0.000000,4.000000,75.000000,,,,0.000000,0.000000,0.000000,0.000000,0.000000,0.000000,0.000000,0.000000,0.000000,0.000000,0.000000,0.000000,0.000000,0.000000,0.000000,0.000000,,,,,,,,,,,,,,,,,23.000000,0.000000,0.785226,-0.615479,-0.062561,0.026306,0.073251,-0.977170,0.244170,3.904622,-15.083782,22.753159,,,,,,,,,,,,,,,,,,,,,,,,,,,,,,,,,,,,,,,,,,,,,,,,,,,,,,,,,,,,,,,,,,,,,,,,,,,,,,,,,,,,,,,,,,,,,,,,,,,,,
1738755381.800567,1738755381.800795,93.000000,0.000000,4318.461426,4352.307617,4256.538574,4302.051270,4353.205078,4361.666504,4366.282227,4551.538574,4542.820313,4559.615234,4496.794922,5663.974121,4312.307617,4252.692383,0.000000,4.000000,75.000000,,,,0.000000,0.000000,0.000000,0.000000,0.000000,0.000000,0.000000,0.000000,0.000000,0.000000,0.000000,0.000000,0.000000,0.000000,0.000000,0.000000,,,,,,,,,,,,,,,,,,,,,,,,,,,,,,,,,,,,,,,,,,,,,,,,,,,,,,,,,,,,,,,,,,,,,,,,,,,,,,,,,,,,,,,,,,,,,,,,,,,,,,,,,,,,,,,,,,,,,,,,,,,,,,,,,
1738755381.808375,1738755381.808603,94.000000,0.000000,4318.205078,4349.871582,4256.153809,4302.692383,4351.410156,4359.743652,4363.974121,4551.666504,4539.230957,4557.179688,4499.102539,5665.128418,4308.974121,4252.948730,0.000000,4.000000,75.000000,,,,0.000000,0.000000,0.000000,0.000000,0.000000,0.000000,0.000000,0.000000,0.000000,0.000000,0.000000,0.000000,0.000000,0.000000,0.000000,0.000000,1.000000,0.000000,0.000000,0.000000,0.000000,0.000000,0.000000,0.000000,0.000000,0.000000,0.000000,0.000000,0.000000,0.000000,0.000000,0.000000,,,,,,,,,,,,,,,,,,,,,,,,,,,,,,,,,,,,,,,,,,,,0.019227,0.016692,0.020440,0.027946,0.023748,0.015075,0.023716,0.022134,0.025981,0.032469,0.011637,0.009782,0.006815,0.016332,0.019156,0.029145,0.020922,0.036927,0.015626,0.028034,0.007589,0.017279,0.034763,0.017018,0.018633,0.026186,0.043028,0.022763,0.017245,0.041675,0.063353,0.047367,0.049206,0.039740,0.030221,0.022314,0.013763,0.036735,0.029418,0.025554,0.021858,0.010916,0.007083,0.026595,0.030442,0.015418,0.017326,0.043174,0.013133,0.016507,0.053828,0.013480,0.011595,0.016503,0.021546,0.022430,0.045281,0.023637,0.035085,0.037433,0.041246,0.021930,0.027198,0.016075,0.038363,0.010301,0.009037,0.048243,0.027845,0.024537
1738755381.816183,1738755381.816311,95.000000,0.000000,4322.179688,4348.333496,4255.128418,4303.974121,4350.128418,4357.948730,4365.512695,4549.230957,4534.102539,4558.461426,4498.461426,5665.384766,4304.358887,4255.641113,0.000000,4.000000,75.000000,,,,0.000000,0.000000,0.000000,0.000000,0.000000,0.000000,0.000000,0.000000,0.000000,0.000000,0.000000,0.000000,0.000000,0.000000,0.000000,0.000000,,,,,,,,,,,,,,,,,,,,,,,,,,,,,,,,,,,,,,,,,,,,,,,,,,,,,,,,,,,,,,,,,,,,,,,,,,,,,,,,,,,,,,,,,,,,,,,,,,,,,,,,,,,,,,,,,,,,,,,,,,,,,,,,,
1738755381.823991,1738755381.824219,96.000000,0.000000,4320.128418,4349.230957,4253.717773,4301.282227,4351.153809,4357.820313,4366.922852,4547.948730,4542.820313,4562.307617,4496.922852,5660.897461,4311.282227,4259.358887,0.000000,4.000000,75.000000,,,,0.000000,0.000000,0.000000,0.000000,0.000000,0.000000,0.000000,0.000000,0.000000,0.000000,0.000000,0.000000,0.000000,0.000000,0.000000,0.000000,,,,,,,,,,,,,,,,,24.000000,0.000000,0.785226,-0.615479,-0.062561,0.026306,0.058113,-0.976682,0.230009,4.030826,-14.992070,22.744511,,,,,,,,,,,,,,,,,,,,,,,,,,,,,,,,,,,,,,,,,,,,,,,,,,,,,,,,,,,,,,,,,,,,,,,,,,,,,,,,,,,,,,,,,,,,,,,,,,,,,
1738755381.831799,1738755381.832027,97.000000,0.000000,4318.974121,4350.128418,4253.589844,4302.820313,4352.307617,4358.205078,4369.102539,4551.922852,4544.358887,4560.897461,4495.000000,5662.307617,4308.974121,4254.743652,0.000000,4.000000,75.000000,,,,0.000000,0.000000,0.000000,0.000000,0.000000,0.000000,0.000000,0.000000,0.000000,0.000000,0.000000,0.000000,0.000000,0.000000,0.000000,0.000000,,,,,,,,,,,,,,,,,,,,,,,,,,,,,,,,,,,,,,,,,,,,,,,,,,,,,,,,,,,,,,,,,,,,,,,,,,,,,,,,,,,,,,,,,,,,,,,,,,,,,,,,,,,,,,,,,,,,,,,,,,,,,,,,,
1738755381.839607,1738755381.839936,98.000000,0.000000,4322.179688,4350.641113,4254.230957,4302.436035,4351.794922,4359.871582,4365.641113,4551.794922,4537.563965,4560.897461,4494.743652,5662.948730,4309.743652,4253.717773,0.000000,4.000000,75.000000,,,,0.000000,0.000000,0.000000,0.000000,0.000000,0.000000,0.000000,0.000000,0.000000,0.000000,0.000000,0.000000,0.000000,0.000000,0.000000,0.000000,,,,,,,,,,,,,,,,,,,,,,,,,,,,,,,,,,,,,,,,,,,,,,,,,,,,,,,,,,,,,,,,,,,,,,,,,,,,,,,,,,,,,,,,,,,,,,,,,,,,,,,,,,,,,,,,,,,,,,,,,,,,,,,,,
1738755381.847415,1738755381.847744,99.000000,0.000000,4321.922852,4350.769043,4255.384766,4302.179688,4353.461426,4360.384766,4362.692383,4548.461426,4539.743652,4564.230957,4495.256348,5660.769043,4313.333496,4257.948730,0.000000,4.000000,75.000000,,,,0.000000,0.000000,0.000000,0.000000,0.000000,0.000000,0.000000,0.000000,0.000000,0.000000,0.000000,0.000000,0.000000,0.000000,0.000000,0.000000,,,,,,,,,,,,,,,,,,,,,,,,,,,,,,,,,,,,,,,,,,,,,,,,,,,,,,,,,,,,,,,,,,,,,,,,,,,,,,,,,,,,,,,,,,,,,,,,,,,,,,,,,,,,,,,,,,,,,,,,,,,,,,,,,
1738755381.855223,1738755381.855552,100.000000,0.000000,4319.871582,4350.256348,4256.282227,4304.102539,4353.846191,4357.820313,4366.410156,4551.282227,4540.641113,4562.820313,4495.897461,5664.102539,4307.563965,4255.897461,0.000000,4.000000,75.000000,,,,0.000000,0.000000,0.000000,0.000000,0.000000,0.000000,0.000000,0.000000,0.000000,0.000000,0.000000,0.000000,0.000000,0.000000,0.000000,0.000000,,,,,,,,,,,,,,,,,25.000000,0.000000,0.785224,-0.615479,-0.062561,0.026367,0.054206,-0.979612,0.234404,4.061077,-15.042864,22.736725,,,,,,,,,,,,,,,,,,,,,,,,,,,,,,,,,,,,,,,,,,,,,,,,,,,,,,,,,,,,,,,,,,,,,,,,,,,,,,,,,,,,,,,,,,,,,,,,,,,,,
1738755381.863031,1738755381.863260,101.000000,0.000000,4321.666504,4352.051270,4255.384766,4300.897461,4350.512695,4358.205078,4364.230957,4548.717773,4540.000000,4560.384766,4497.436035,5663.846191,4312.307617,4255.769043,0.000000,4.000000,75.000000,,,,0.000000,0.000000,0.000000,0.000000,0.000000,0.000000,0.000000,0.000000,0.000000,0.000000,0.000000,0.000000,0.000000,0.000000,0.000000,0.000000,,,,,,,,,,,,,,,,,,,,,,,,,,,,,,,,,,,,,,,,,,,,,,,,,,,,,,,,,,,,,,,,,,,,,,,,,,,,,,,,,,,,,,,,,,,,,,,,,,,,,,,,,,,,,,,,,,,,,,,,,,,,,,,,,
1738755381.870839,1738755381.871168,102.000000,0.000000,4325.128418,4349.871582,4256.153809,4303.717773,4351.282227,4362.948730,4364.743652,4547.692383,4539.615234,4558.717773,4495.769043,5666.025879,4312.307617,4255.128418,0.000000,4.000000,75.000000,,,,0.000000,0.000000,0.000000,0.000000,0.000000,0.000000,0.000000,0.000000,0.000000,0.000000,0.000000,0.000000,0.000000,0.000000,0.000000,0.000000,,,,,,,,,,,,,,,,,,,,,,,,,,,,,,,,,,,,,,,,,,,,,,,,,,,,,,,,,,,,,,,,,,,,,,,,,,,,,,,,,,,,,,,,,,,,,,,,,,,,,,,,,,,,,,,,,,,,,,,,,,,,,,,,,
1738755381.878648,1738755381.878976,103.000000,0.000000,4322.436035,4348.461426,4256.922852,4307.179688,4352.307617,4360.256348,4367.179688,4550.769043,4540.384766,4558.846191,4496.282227,5667.563965,4308.077148,4255.641113,0.000000,4.000000,75.000000,,,,0.000000,0.000000,0.000000,0.000000,0.000000,0.000000,0.000000,0.000000,0.000000,0.000000,0.000000,0.000000,0.000000,0.000000,0.000000,0.000000,,,,,,,,,,,,,,,,,,,,,,,,,,,,,,,,,,,,,,,,,,,,,,,,,,,,,,,,,,,,,,,,,,,,,,,,,,,,,,,,,,,,,,,,,,,,,,,,,,,,,,,,,,,,,,,,,,,,,,,,,,,,,,,,,
1738755381.886456,1738755381.886884,104.000000,0.000000,4318.974121,4351.538574,4256.410156,4304.743652,4350.000000,4356.153809,4363.974121,4549.358887,4541.410156,4559.871582,4497.436035,5665.897461,4310.000000,4257.051270,0.000000,4.000000,75.000000,,,,0.000000,0.000000,0.000000,0.000000,0.000000,0.000000,0.000000,0.000000,0.000000,0.000000,0.000000,0.000000,0.000000,0.000000,0.000000,0.000000,,,,,,,,,,,,,,,,,26.000000,0.000000,0.785229,-0.615479,-0.062500,0.026367,0.066414,-0.982542,0.224637,4.021636,-14.988577,22.713053,,,,,,,,,,,,,,,,,,,,,,,,,,,,,,,,,,,,,,,,,,,,,,,,,,,,,,,,,,,,,,,,,,,,,,,,,,,,,,,,,,,,,,,,,,,,,,,,,,,,,
1738755381.894264,1738755381.894693,105.000000,0.000000,4321.922852,4350.512695,4256.410156,4303.717773,4351.025879,4360.641113,4364.102539,4548.974121,4539.743652,4559.615234,4495.384766,5668.077148,4306.025879,4253.717773,0.000000,4.000000,75.000000,,,,0.000000,0.000000,0.000000,0.000000,0.000000,0.000000,0.000000,0.000000,0.000000,0.000000,0.000000,0.000000,0.000000,0.000000,0.000000,0.000000,,,,,,,,,,,,,,,,,,,,,,,,,,,,,,,,,,,,,,,,,,,,,,,,,,,,,,,,,,,,,,,,,,,,,,,,,,,,,,,,,,,,,,,,,,,,,,,,,,,,,,,,,,,,,,,,,,,,,,,,,,,,,,,,,
1738755381.902072,1738755381.902601,106.000000,0.000000,4322.563965,4350.897461,4255.897461,4302.179688,4351.538574,4360.512695,4366.922852,4547.692383,4538.974121,4560.769043,4498.205078,5663.077148,4311.282227,4256.666504,0.000000,4.000000,75.000000,,,,0.000000,0.000000,0.000000,0.000000,0.000000,0.000000,0.000000,0.000000,0.000000,0.000000,0.000000,0.000000,0.000000,0.000000,0.000000,0.000000,,,,,,,,,,,,,,,,,,,,,,,,,,,,,,,,,,,,,,,,,,,,,,,,,,,,,,,,,,,,,,,,,,,,,,,,,,,,,,,,,,,,,,,,,,,,,,,,,,,,,,,,,,,,,,,,,,,,,,,,,,,,,,,,,
1738755381.909880,1738755381.910409,107.000000,0.000000,4321.794922,4351.153809,4254.871582,4302.436035,4350.384766,4358.205078,4367.436035,4549.743652,4538.205078,4561.922852,4497.436035,5661.153809,4310.128418,4257.436035,0.000000,4.000000,75.000000,,,,0.000000,0.000000,0.000000,0.000000,0.000000,0.000000,0.000000,0.000000,0.000000,0.000000,0.000000,0.000000,0.000000,0.000000,0.000000,0.000000,,,,,,,,,,,,,,,,,,,,,,,,,,,,,,,,,,,,,,,,,,,,,,,,,,,,,,,,,,,,,,,,,,,,,,,,,,,,,,,,,,,,,,,,,,,,,,,,,,,,,,,,,,,,,,,,,,,,,,,,,,,,,,,,,
1738755381.917688,1738755381.918117,108.000000,0.000000,4322.436035,4349.871582,4254.102539,4304.615234,4354.102539,4362.307617,4363.717773,4551.666504,4536.922852,4559.615234,4494.871582,5665.769043,4303.333496,4254.615234,0.000000,4.000000,75.000000,,,,0.000000,0.000000,0.000000,0.000000,0.000000,0.000000,0.000000,0.000000,0.000000,0.000000,0.000000,0.000000,0.000000,0.000000,0.000000,0.000000,,,,,,,,,,,,,,,,,27.000000,0.000000,0.785274,-0.615417,-0.062561,0.026306,0.055671,-0.967403,0.232939,4.052805,-15.006386,22.708414,,,,,,,,,,,,,,,,,,,,,,,,,,,,,,,,,,,,,,,,,,,,,,,,,,,,,,,,,,,,,,,,,,,,,,,,,,,,,,,,,,,,,,,,,,,,,,,,,,,,,
1738755381.925496,1738755381.925926,109.000000,0.000000,4322.179688,4350.000000,4255.641113,4303.589844,4354.743652,4363.846191,4364.358887,4548.717773,4538.461426,4557.948730,4499.743652,5662.692383,4310.128418,4257.307617,0.000000,4.000000,75.000000,,,,0.000000,0.000000,0.000000,0.000000,0.000000,0.000000,0.000000,0.000000,0.000000,0.000000,0.000000,0.000000,0.000000,0.000000,0.000000,0.000000,,,,,,,,,,,,,,,,,,,,,,,,,,,,,,,,,,,,,,,,,,,,,,,,,,,,,,,,,,,,,,,,,,,,,,,,,,,,,,,,,,,,,,,,,,,,,,,,,,,,,,,,,,,,,,,,,,,,,,,,,,,,,,,,,
1738755381.933304,1738755381.933634,110.000000,0.000000,4322.948730,4350.128418,4255.256348,4304.743652,4350.897461,4360.128418,4369.358887,4550.000000,4539.358887,4560.512695,4497.948730,5660.641113,4308.846191,4255.641113,0.000000,4.000000,75.000000,,,,0.000000,0.000000,0.000000,0.000000,0.000000,0.000000,0.000000,0.000000,0.000000,0.000000,0.000000,0.000000,0.000000,0.000000,0.000000,0.000000,,,,,,,,,,,,,,,,,,,,,,,,,,,,,,,,,,,,,,,,,,,,,,,,,,,,,,,,,,,,0.019936,0.014683,0.016803,0.028087,0.021050,0.015404,0.021583,0.020299,0.024365,0.029107,0.011052,0.013143,0.009547,0.016637,0.019609,0.026387,0.021694,0.039795,0.018436,0.028072,0.005690,0.018420,0.029684,0.017914,0.021085,0.025620,0.042434,0.024716,0.016996,0.042276,0.053482,0.039730,0.046895,0.035960,0.034409,0.020844,0.013674,0.036769,0.035810,0.024540,0.021676,0.013019,0.011960,0.023104,0.029549,0.014536,0.020283,0.039767,0.013037,0.017148,0.046659,0.011113,0.012248,0.017421,0.021143,0.029172,0.045058,0.021187,0.033553,0.040589,0.038395,0.019942,0.027190,0.017357,0.041519,0.009858,0.008015,0.040632,0.026697,0.024752
1738755381.941112,1738755381.941542,111.000000,0.000000,4321.922852,4350.000000,4250.384766,4305.000000,4352.307617,4357.820313,4364.230957,4551.410156,4539.871582,4560.641113,4493.974121,5660.256348,4310.769043,4257.051270,0.000000,4.000000,75.000000,,,,0.000000,0.000000,0.000000,0.000000,0.000000,0.000000,0.000000,0.000000,0.000000,0.000000,0.000000,0.000000,0.000000,0.000000,0.000000,0.000000,,,,,,,,,,,,,,,,,,,,,,,,,,,,,,,,,,,,,,,,,,,,,,,,,,,,,,,,,,,,,,,,,,,,,,,,,,,,,,,,,,,,,,,,,,,,,,,,,,,,,,,,,,,,,,,,,,,,,,,,,,,,,,,,,
1738755381.948920,1738755381.949350,112.000000,0.000000,4322.820313,4350.512695,4252.436035,4303.461426,4354.230957,4358.461426,4361.538574,4550.000000,4538.717773,4557.563965,4496.282227,5660.128418,4312.563965,4259.230957,0.000000,4.000000,75.000000,,,,0.000000,0.000000,0.000000,0.000000,0.000000,0.000000,0.000000,0.000000,0.000000,0.000000,0.000000,0.000000,0.000000,0.000000,0.000000,0.000000,,,,,,,,,,,,,,,,,28.000000,0.000000,0.785272,-0.615417,-0.062561,0.026367,0.070809,-0.977170,0.240752,4.147525,-14.855747,22.687572,,,,,,,,,,,,,,,,,,,,,,,,,,,,,,,,,,,,,,,,,,,,,,,,,,,,,,,,,,,,,,,,,,,,,,,,,,,,,,,,,,,,,,,,,,,,,,,,,,,,,
1738755381.956729,1738755381.957258,113.000000,0.000000,4326.025879,4350.897461,4258.205078,4302.307617,4351.922852,4358.717773,4369.230957,4548.077148,4538.589844,4558.717773,4496.282227,5663.461426,4307.307617,4256.025879,0.000000,4.000000,75.000000,,,,0.000000,0.000000,0.000000,0.000000,0.000000,0.000000,0.000000,0.000000,0.000000,0.000000,0.000000,0.000000,0.000000,0.000000,0.000000,0.000000,,,,,,,,,,,,,,,,,,,,,,,,,,,,,,,,,,,,,,,,,,,,,,,,,,,,,,,,,,,,,,,,,,,,,,,,,,,,,,,,,,,,,,,,,,,,,,,,,,,,,,,,,,,,,,,,,,,,,,,,,,,,,,,,,
1738755381.964537,1738755381.965066,114.000000,0.000000,4323.589844,4350.000000,4258.077148,4301.410156,4350.641113,4358.205078,4366.794922,4548.205078,4541.794922,4561.666504,4496.666504,5662.820313,4311.538574,4257.307617,0.000000,4.000000,75.000000,,,,0.000000,0.000000,0.000000,0.000000,0.000000,0.000000,0.000000,0.000000,0.000000,0.000000,0.000000,0.000000,0.000000,0.000000,0.000000,0.000000,,,,,,,,,,,,,,,,,,,,,,,,,,,,,,,,,,,,,,,,,,,,,,,,,,,,,,,,,,,,,,,,,,,,,,,,,,,,,,,,,,,,,,,,,,,,,,,,,,,,,,,,,,,,,,,,,,,,,,,,,,,,,,,,,
1738755381.972345,1738755381.972874,115.000000,0.000000,4320.128418,4348.589844,4257.179688,4304.230957,4352.051270,4357.307617,4361.538574,4551.410156,4540.641113,4561.410156,4498.589844,5664.615234,4308.589844,4258.589844,0.000000,4.000000,75.000000,,,,0.000000,0.000000,0.000000,0.000000,0.000000,0.000000,0.000000,0.000000,0.000000,0.000000,0.000000,0.000000,0.000000,0.000000,0.000000,0.000000,,,,,,,,,,,,,,,,,,,,,,,,,,,,,,,,,,,,,,,,,,,,,,,,,,,,,,,,,,,,,,,,,,,,,,,,,,,,,,,,,,,,,,,,,,,,,,,,,,,,,,,,,,,,,,,,,,,,,,,,,,,,,,,,,
1738755381.980153,1738755381.980583,116.000000,0.000000,4320.897461,4350.641113,4255.897461,4305.256348,4353.717773,4357.820313,4365.641113,4549.743652,4538.974121,4560.512695,4499.102539,5664.230957,4308.717773,4260.769043,0.000000,4.000000,75.000000,,,,0.000000,0.000000,0.000000,0.000000,0.000000,0.000000,0.000000,0.000000,0.000000,0.000000,0.000000,0.000000,0.000000,0.000000,0.000000,0.000000,,,,,,,,,,,,,,,,,29.000000,0.000000,0.785267,-0.615417,-0.062622,0.026367,0.082530,-0.967403,0.246612,4.316106,-14.953506,22.752150,,,,,,,,,,,,,,,,,,,,,,,,,,,,,,,,,,,,,,,,,,,,,,,,,,,,,,,,,,,,,,,,,,,,,,,,,,,,,,,,,,,,,,,,,,,,,,,,,,,,,
1738755381.987961,1738755381.988390,117.000000,0.000000,4323.974121,4352.307617,4255.256348,4303.974121,4354.230957,4359.743652,4370.384766,4549.487305,4539.487305,4560.256348,4496.666504,5663.077148,4311.153809,4259.358887,0.000000,4.000000,75.000000,,,,0.000000,0.000000,0.000000,0.000000,0.000000,0.000000,0.000000,0.000000,0.000000,0.000000,0.000000,0.000000,0.000000,0.000000,0.000000,0.000000,,,,,,,,,,,,,,,,,,,,,,,,,,,,,,,,,,,,,,,,,,,,,,,,,,,,,,,,,,,,,,,,,,,,,,,,,,,,,,,,,,,,,,,,,,,,,,,,,,,,,,,,,,,,,,,,,,,,,,,,,,,,,,,,,
1738755381.995769,1738755381.996099,118.000000,0.000000,4323.589844,4347.692383,4256.282227,4303.205078,4353.333496,4359.615234,4367.692383,4554.615234,4537.820313,4559.102539,4494.743652,5666.153809,4308.461426,4255.512695,0.000000,4.000000,75.000000,,,,0.000000,0.000000,0.000000,0.000000,0.000000,0.000000,0.000000,0.000000,0.000000,0.000000,0.000000,0.000000,0.000000,0.000000,0.000000,0.000000,,,,,,,,,,,,,,,,,,,,,,,,,,,,,,,,,,,,,,,,,,,,,,,,,,,,,,,,,,,,,,,,,,,,,,,,,,,,,,,,,,,,,,,,,,,,,,,,,,,,,,,,,,,,,,,,,,,,,,,,,,,,,,,,,
1738755382.003577,1738755382.003907,119.000000,0.000000,4322.051270,4347.563965,4254.102539,4300.769043,4350.769043,4360.512695,4363.205078,4553.333496,4538.205078,4559.743652,4496.153809,5660.641113,4313.846191,4261.025879,0.000000,4.000000,75.000000,,,,0.000000,0.000000,0.000000,0.000000,0.000000,0.000000,0.000000,0.000000,0.000000,0.000000,0.000000,0.000000,0.000000,0.000000,0.000000,0.000000,,,,,,,,,,,,,,,,,,,,,,,,,,,,,,,,,,,,,,,,,,,,,,,,,,,,,,,,,,,,,,,,,,,,,,,,,,,,,,,,,,,,,,,,,,,,,,,,,,,,,,,,,,,,,,,,,,,,,,,,,,,,,,,,,
1738755382.011385,1738755382.011615,120.000000,0.000000,4325.512695,4353.205078,4253.205078,4303.205078,4350.641113,4362.307617,4366.794922,4548.846191,4541.410156,4559.743652,4496.666504,5658.974121,4309.871582,4261.410156,0.000000,4.000000,75.000000,,,,0.000000,0.000000,0.000000,0.000000,0.000000,0.000000,0.000000,0.000000,0.000000,0.000000,0.000000,0.000000,0.000000,0.000000,0.000000,0.000000,,,,,,,,,,,,,,,,,30.000000,0.000000,0.785214,-0.615479,-0.062683,0.026367,0.063484,-0.978147,0.230497,4.317829,-14.841489,22.743601,,,,,,,,,,,,,,,,,,,,,,,,,,,,,,,,,,,,,,,,,,,,,,,,,,,,,,,,,,,,,,,,,,,,,,,,,,,,,,,,,,,,,,,,,,,,,,,,,,,,,
1738755382.019193,1738755382.019423,121.000000,0.000000,4325.000000,4353.717773,4256.025879,4303.333496,4352.051270,4360.897461,4367.563965,4549.487305,4543.205078,4559.230957,4496.538574,5663.589844,4307.948730,4257.307617,0.000000,4.000000,75.000000,,,,0.000000,0.000000,0.000000,0.000000,0.000000,0.000000,0.000000,0.000000,0.000000,0.000000,0.000000,0.000000,0.000000,0.000000,0.000000,0.000000,,,,,,,,,,,,,,,,,,,,,,,,,,,,,,,,,,,,,,,,,,,,,,,,,,,,,,,,,,,,,,,,,,,,,,,,,,,,,,,,,,,,,,,,,,,,,,,,,,,,,,,,,,,,,,,,,,,,,,,,,,,,,,,,,
1738755382.027002,1738755382.027131,122.000000,0.000000,4322.692383,4352.179688,4256.153809,4300.641113,4351.025879,4360.641113,4365.641113,4551.922852,4539.358887,4559.102539,4496.153809,5665.897461,4312.692383,4256.025879,0.000000,4.000000,75.000000,,,,0.000000,0.000000,0.000000,0.000000,0.000000,0.000000,0.000000,0.000000,0.000000,0.000000,0.000000,0.000000,0.000000,0.000000,0.000000,0.000000,,,,,,,,,,,,,,,,,,,,,,,,,,,,,,,,,,,,,,,,,,,,,,,,,,,,,,,,,,,,,,,,,,,,,,,,,,,,,,,,,,,,,,,,,,,,,,,,,,,,,,,,,,,,,,,,,,,,,,,,,,,,,,,,,
1738755382.034810,1738755382.035039,123.000000,0.000000,4325.512695,4352.436035,4255.512695,4303.589844,4350.769043,4361.410156,4368.589844,4552.436035,4535.897461,4558.461426,4495.897461,5666.410156,4309.871582,4255.384766,0.000000,4.000000,75.000000,,,,0.000000,0.000000,0.000000,0.000000,0.000000,0.000000,0.000000,0.000000,0.000000,0.000000,0.000000,0.000000,0.000000,0.000000,0.000000,0.000000,,,,,,,,,,,,,,,,,,,,,,,,,,,,,,,,,,,,,,,,,,,,,,,,,,,,,,,,,,,,,,,,,,,,,,,,,,,,,,,,,,,,,,,,,,,,,,,,,,,,,,,,,,,,,,,,,,,,,,,,,,,,,,,,,
1738755382.042618,1738755382.042847,124.000000,0.000000,4325.256348,4350.641113,4256.410156,4305.256348,4352.436035,4361.410156,4368.589844,4548.077148,4539.358887,4559.487305,4497.948730,5663.205078,4312.563965,4258.205078,0.000000,4.000000,75.000000,,,,0.000000,0.000000,0.000000,0.000000,0.000000,0.000000,0.000000,0.000000,0.000000,0.000000,0.000000,0.000000,0.000000,0.000000,0.000000,0.000000,,,,,,,,,,,,,,,,,31.000000,0.000000,0.785214,-0.615479,-0.062683,0.026367,0.064949,-0.974728,0.240752,4.319379,-14.824006,22.685907,,,,,,,,,,,,,,,,,,,,,,,,,,,,,,,,,,,,,,,,,,,,,,,,,,,,,,,,,,,,,,,,,,,,,,,,,,,,,,,,,,,,,,,,,,,,,,,,,,,,,
1738755382.050426,1738755382.050755,125.000000,0.000000,4323.333496,4347.948730,4256.025879,4304.743652,4353.974121,4362.307617,4369.230957,4547.948730,4537.820313,4558.717773,4496.922852,5664.102539,4309.615234,4256.538574,0.000000,4.000000,75.000000,,,,0.000000,0.000000,0.000000,0.000000,0.000000,0.000000,0.000000,0.000000,0.000000,0.000000,0.000000,0.000000,0.000000,0.000000,0.000000,0.000000,,,,,,,,,,,,,,,,,,,,,,,,,,,,,,,,,,,,,,,,,,,,,,,,,,,,,,,,,,,,,,,,,,,,,,,,,,,,,,,,,,,,,,,,,,,,,,,,,,,,,,,,,,,,,,,,,,,,,,,,,,,,,,,,,
1738755382.058234,1738755382.058563,126.000000,0.000000,4323.846191,4350.000000,4255.384766,4300.384766,4353.717773,4360.897461,4366.153809,4551.153809,4535.256348,4558.846191,4495.641113,5663.461426,4309.358887,4255.897461,0.000000,4.000000,75.000000,,,,0.000000,0.000000,0.000000,0.000000,0.000000,0.000000,0.000000,0.000000,0.000000,0.000000,0.000000,0.000000,0.000000,0.000000,0.000000,0.000000,,,,,,,,,,,,,,,,,,,,,,,,,,,,,,,,,,,,,,,,,,,,,,,,,,,,,,,,,,,,0.021757,0.013855,0.015763,0.028927,0.020206,0.015904,0.021374,0.017974,0.022360,0.025125,0.010931,0.018270,0.013894,0.017314,0.020192,0.023412,0.022528,0.039057,0.021654,0.027812,0.005010,0.019539,0.023241,0.018192,0.023163,0.025046,0.039862,0.024312,0.016959,0.042394,0.046812,0.034387,0.042162,0.030194,0.038701,0.020956,0.014115,0.034074,0.040265,0.023306,0.023883,0.015218,0.019475,0.020555,0.029714,0.014668,0.023778,0.033885,0.013719,0.018684,0.039882,0.009776,0.014819,0.018343,0.020768,0.034537,0.043907,0.018825,0.031663,0.043030,0.036204,0.018530,0.026361,0.019201,0.043990,0.010960,0.008048,0.032073,0.026242,0.025434
1738755382.066042,1738755382.066471,127.000000,0.000000,4324.358887,4350.769043,4256.922852,4297.179688,4352.307617,4358.333496,4363.461426,4550.897461,4541.538574,4563.846191,4497.179688,5661.538574,4315.384766,4258.077148,75.000000,4.000000,75.000000,,,,0.000000,0.000000,0.000000,0.000000,0.000000,0.000000,0.000000,0.000000,0.000000,0.000000,0.000000,0.000000,0.000000,0.000000,0.000000,0.000000,,,,,,,,,,,,,,,,,,,,,,,,,,,,,,,,,,,,,,,,,,,,,,,,,,,,,,,,,,,,,,,,,,,,,,,,,,,,,,,,,,,,,,,,,,,,,,,,,,,,,,,,,,,,,,,,,,,,,,,,,,,,,,,,,
1738755382.073850,1738755382.074280,0.000000,0.000000,4324.615234,4349.230957,4257.692383,4304.230957,4351.666504,4358.589844,4370.512695,4550.128418,4541.666504,4562.820313,4497.563965,5665.769043,4308.205078,4255.897461,0.000000,4.000000,75.000000,,,,0.000000,0.000000,0.000000,0.000000,0.000000,0.000000,0.000000,0.000000,0.000000,0.000000,0.000000,0.000000,0.000000,0.000000,0.000000,0.000000,,,,,,,,,,,,,,,,,0.000000,0.000000,0.785267,-0.615417,-0.062622,0.026367,0.051764,-0.972287,0.232450,4.187441,-14.941606,22.600651,,,,,,,,,,,,,,,,,,,,,,,,,,,,,,,,,,,,,,,,,,,,,,,,,,,,,,,,,,,,,,,,,,,,,,,,,,,,,,,,,,,,,,,,,,,,,,,,,,,,,
1738755382.081658,1738755382.082188,1.000000,0.000000,4321.538574,4350.897461,4255.000000,4305.384766,4353.077148,4361.410156,4369.743652,4547.820313,4537.820313,4558.205078,4497.051270,5662.820313,4308.589844,4256.922852,0.000000,4.000000,75.000000,,,,0.000000,0.000000,0.000000,0.000000,0.000000,0.000000,0.000000,0.000000,0.000000,0.000000,0.000000,0.000000,0.000000,0.000000,0.000000,0.000000,,,,,,,,,,,,,,,,,,,,,,,,,,,,,,,,,,,,,,,,,,,,,,,,,,,,,,,,,,,,,,,,,,,,,,,,,,,,,,,,,,,,,,,,,,,,,,,,,,,,,,,,,,,,,,,,,,,,,,,,,,,,,,,,,
1738755382.089466,1738755382.089996,2.000000,0.000000,4320.384766,4351.922852,4254.102539,4301.922852,4354.743652,4364.358887,4367.051270,4551.794922,4539.102539,4557.948730,4496.282227,5660.897461,4311.410156,4257.051270,0.000000,4.000000,75.000000,,,,0.000000,0.000000,0.000000,0.000000,0.000000,0.000000,0.000000,0.000000,0.000000,0.000000,0.000000,0.000000,0.000000,0.000000,0.000000,0.000000,,,,,,,,,,,,,,,,,,,,,,,,,,,,,,,,,,,,,,,,,,,,,,,,,,,,,,,,,,,,,,,,,,,,,,,,,,,,,,,,,,,,,,,,,,,,,,,,,,,,,,,,,,,,,,,,,,,,,,,,,,,,,,,,,
1738755382.097274,1738755382.097904,3.000000,0.000000,4321.922852,4349.743652,4253.846191,4302.436035,4353.333496,4363.461426,4368.077148,4555.384766,4541.025879,4560.128418,4496.666504,5665.000000,4308.205078,4256.153809,0.000000,4.000000,75.000000,,,,0.000000,0.000000,0.000000,0.000000,0.000000,0.000000,0.000000,0.000000,0.000000,0.000000,0.000000,0.000000,0.000000,0.000000,0.000000,0.000000,,,,,,,,,,,,,,,,,,,,,,,,,,,,,,,,,,,,,,,,,,,,,,,,,,,,,,,,,,,,,,,,,,,,,,,,,,,,,,,,,,,,,,,,,,,,,,,,,,,,,,,,,,,,,,,,,,,,,,,,,,,,,,,,,
1738755382.105082,1738755382.105712,4.000000,0.000000,4320.256348,4348.461426,4252.692383,4303.205078,4352.051270,4359.871582,4364.743652,4549.487305,4541.538574,4561.538574,4497.820313,5662.307617,4311.794922,4258.333496,0.000000,4.000000,75.000000,,,,0.000000,0.000000,0.000000,0.000000,0.000000,0.000000,0.000000,0.000000,0.000000,0.000000,0.000000,0.000000,0.000000,0.000000,0.000000,0.000000,,,,,,,,,,,,,,,,,1.000000,0.000000,0.785270,-0.615417,-0.062561,0.026428,0.069344,-0.978635,0.240752,4.185364,-14.847445,22.757252,,,,,,,,,,,,,,,,,,,,,,,,,,,,,,,,,,,,,,,,,,,,,,,,,,,,,,,,,,,,,,,,,,,,,,,,,,,,,,,,,,,,,,,,,,,,,,,,,,,,,
1738755382.112891,1738755382.113421,5.000000,0.000000,4320.512695,4350.897461,4255.897461,4306.410156,4353.589844,4359.358887,4366.282227,4548.077148,4539.743652,4561.282227,4496.410156,5662.692383,4308.461426,4255.128418,0.000000,4.000000,75.000000,,,,0.000000,0.000000,0.000000,0.000000,0.000000,0.000000,0.000000,0.000000,0.000000,0.000000,0.000000,0.000000,0.000000,0.000000,0.000000,0.000000,,,,,,,,,,,,,,,,,,,,,,,,,,,,,,,,,,,,,,,,,,,,,,,,,,,,,,,,,,,,,,,,,,,,,,,,,,,,,,,,,,,,,,,,,,,,,,,,,,,,,,,,,,,,,,,,,,,,,,,,,,,,,,,,,
1738755382.120699,1738755382.121229,6.000000,0.000000,4321.794922,4351.666504,4257.179688,4305.128418,4352.820313,4359.743652,4366.538574,4549.358887,4540.641113,4560.256348,4496.922852,5663.974121,4308.846191,4254.358887,0.000000,4.000000,75.000000,,,,0.000000,0.000000,0.000000,0.000000,0.000000,0.000000,0.000000,0.000000,0.000000,0.000000,0.000000,0.000000,0.000000,0.000000,0.000000,0.000000,,,,,,,,,,,,,,,,,,,,,,,,,,,,,,,,,,,,,,,,,,,,,,,,,,,,,,,,,,,,,,,,,,,,,,,,,,,,,,,,,,,,,,,,,,,,,,,,,,,,,,,,,,,,,,,,,,,,,,,,,,,,,,,,,
1738755382.128507,1738755382.128937,7.000000,0.000000,4320.128418,4349.358887,4254.358887,4301.282227,4350.897461,4358.461426,4365.384766,4550.769043,4542.051270,4558.333496,4496.538574,5663.717773,4310.128418,4256.538574,0.000000,4.000000,75.000000,,,,0.000000,0.000000,0.000000,0.000000,0.000000,0.000000,0.000000,0.000000,0.000000,0.000000,0.000000,0.000000,0.000000,0.000000,0.000000,0.000000,,,,,,,,,,,,,,,,,,,,,,,,,,,,,,,,,,,,,,,,,,,,,,,,,,,,,,,,,,,,,,,,,,,,,,,,,,,,,,,,,,,,,,,,,,,,,,,,,,,,,,,,,,,,,,,,,,,,,,,,,,,,,,,,,
1738755382.136315,1738755382.136745,8.000000,0.000000,4321.153809,4349.230957,4255.641113,4300.641113,4353.333496,4359.358887,4367.307617,4551.666504,4539.871582,4557.436035,4496.025879,5665.128418,4308.589844,4256.410156,0.000000,4.000000,75.000000,,,,0.000000,0.000000,0.000000,0.000000,0.000000,0.000000,0.000000,0.000000,0.000000,0.000000,0.000000,0.000000,0.000000,0.000000,0.000000,0.000000,,,,,,,,,,,,,,,,,2.000000,0.000000,0.785280,-0.615417,-0.062439,0.026428,0.068856,-0.982542,0.230009,4.283494,-14.879368,22.781527,,,,,,,,,,,,,,,,,,,,,,,,,,,,,,,,,,,,,,,,,,,,,,,,,,,,,,,,,,,,,,,,,,,,,,,,,,,,,,,,,,,,,,,,,,,,,,,,,,,,,
1738755382.144123,1738755382.144453,9.000000,0.000000,4324.358887,4351.025879,4257.948730,4301.410156,4354.615234,4360.641113,4366.410156,4550.128418,4539.358887,4560.128418,4497.948730,5663.077148,4314.102539,4258.333496,0.000000,4.000000,75.000000,,,,0.000000,0.000000,0.000000,0.000000,0.000000,0.000000,0.000000,0.000000,0.000000,0.000000,0.000000,0.000000,0.000000,0.000000,0.000000,0.000000,,,,,,,,,,,,,,,,,,,,,,,,,,,,,,,,,,,,,,,,,,,,,,,,,,,,,,,,,,,,,,,,,,,,,,,,,,,,,,,,,,,,,,,,,,,,,,,,,,,,,,,,,,,,,,,,,,,,,,,,,,,,,,,,,
1738755382.151931,1738755382.152261,10.000000,0.000000,4324.743652,4350.512695,4254.615234,4304.230957,4350.897461,4361.794922,4367.692383,4551.410156,4540.641113,4560.897461,4495.897461,5665.512695,4306.922852,4256.153809,0.000000,4.000000,75.000000,,,,0.000000,0.000000,0.000000,0.000000,0.000000,0.000000,0.000000,0.000000,0.000000,0.000000,0.000000,0.000000,0.000000,0.000000,0.000000,0.000000,,,,,,,,,,,,,,,,,,,,,,,,,,,,,,,,,,,,,,,,,,,,,,,,,,,,,,,,,,,,,,,,,,,,,,,,,,,,,,,,,,,,,,,,,,,,,,,,,,,,,,,,,,,,,,,,,,,,,,,,,,,,,,,,,
1738755382.159739,1738755382.159969,11.000000,0.000000,4322.436035,4350.128418,4252.692383,4303.461426,4349.102539,4363.333496,4367.692383,4551.282227,4540.897461,4559.102539,4494.358887,5663.589844,4303.846191,4254.743652,0.000000,4.000000,75.000000,,,,0.000000,0.000000,0.000000,0.000000,0.000000,0.000000,0.000000,0.000000,0.000000,0.000000,0.000000,0.000000,0.000000,0.000000,0.000000,0.000000,,,,,,,,,,,,,,,,,,,,,,,,,,,,,,,,,,,,,,,,,,,,,,,,,,,,,,,,,,,,,,,,,,,,,,,,,,,,,,,,,,,,,,,,,,,,,,,,,,,,,,,,,,,,,,,,,,,,,,,,,,,,,,,,,
1738755382.167547,1738755382.167777,12.000000,0.000000,4322.563965,4348.846191,4256.025879,4303.333496,4351.153809,4362.051270,4366.794922,4549.487305,4537.436035,4560.641113,4495.897461,5659.358887,4311.282227,4254.615234,0.000000,4.000000,75.000000,,,,0.000000,0.000000,0.000000,0.000000,0.000000,0.000000,0.000000,0.000000,0.000000,0.000000,0.000000,0.000000,0.000000,0.000000,0.000000,0.000000,,,,,,,,,,,,,,,,,3.000000,0.000000,0.785290,-0.615417,-0.062256,0.026550,0.057136,-0.973752,0.230497,4.271811,-14.974764,22.786707,,,,,,,,,,,,,,,,,,,,,,,,,,,,,,,,,,,,,,,,,,,,,,,,,,,,,,,,,,,,,,,,,,,,,,,,,,,,,,,,,,,,,,,,,,,,,,,,,,,,,
1738755382.175355,1738755382.175485,13.000000,0.000000,4323.974121,4345.641113,4254.615234,4305.128418,4350.769043,4360.256348,4368.205078,4549.871582,4536.153809,4562.179688,4496.538574,5664.102539,4310.000000,4253.846191,0.000000,4.000000,75.000000,,,,0.000000,0.000000,0.000000,0.000000,0.000000,0.000000,0.000000,0.000000,0.000000,0.000000,0.000000,0.000000,0.000000,0.000000,0.000000,0.000000,,,,,,,,,,,,,,,,,,,,,,,,,,,,,,,,,,,,,,,,,,,,,,,,,,,,,,,,,,,,,,,,,,,,,,,,,,,,,,,,,,,,,,,,,,,,,,,,,,,,,,,,,,,,,,,,,,,,,,,,,,,,,,,,,
1738755382.183164,1738755382.183293,14.000000,0.000000,4323.846191,4348.333496,4251.282227,4301.666504,4350.128418,4362.179688,4365.000000,4550.128418,4538.974121,4560.000000,4496.025879,5663.846191,4309.743652,4258.717773,0.000000,4.000000,75.000000,,,,0.000000,0.000000,0.000000,0.000000,0.000000,0.000000,0.000000,0.000000,0.000000,0.000000,0.000000,0.000000,0.000000,0.000000,0.000000,0.000000,,,,,,,,,,,,,,,,,,,,,,,,,,,,,,,,,,,,,,,,,,,,,,,,,,,,,,,,,,,,0.025210,0.014108,0.017889,0.030374,0.021131,0.016557,0.023289,0.015555,0.020766,0.021621,0.010646,0.024922,0.019395,0.018096,0.020557,0.020805,0.023010,0.034192,0.024877,0.027394,0.005378,0.019951,0.017157,0.017556,0.024251,0.024692,0.036103,0.021686,0.017203,0.041453,0.044141,0.033444,0.036636,0.024062,0.042014,0.022718,0.014762,0.029423,0.041619,0.022465,0.027434,0.016884,0.027885,0.019177,0.030905,0.015816,0.027078,0.027511,0.014729,0.020908,0.033650,0.009141,0.018486,0.019069,0.020410,0.037315,0.042879,0.016706,0.029140,0.044649,0.035469,0.018791,0.025242,0.020524,0.045507,0.014482,0.009541,0.024637,0.026518,0.025892
1738755382.190971,1738755382.191001,15.000000,0.000000,4324.230957,4349.358887,4255.384766,4303.333496,4352.179688,4362.051270,4363.461426,4552.563965,4537.948730,4557.307617,4495.128418,5662.307617,4306.282227,4257.820313,0.000000,4.000000,75.000000,,,,0.000000,0.000000,0.000000,0.000000,0.000000,0.000000,0.000000,0.000000,0.000000,0.000000,0.000000,0.000000,0.000000,0.000000,0.000000,0.000000,,,,,,,,,,,,,,,,,,,,,,,,,,,,,,,,,,,,,,,,,,,,,,,,,,,,,,,,,,,,,,,,,,,,,,,,,,,,,,,,,,,,,,,,,,,,,,,,,,,,,,,,,,,,,,,,,,,,,,,,,,,,,,,,,
1738755382.198780,1738755382.198809,16.000000,0.000000,4323.205078,4345.897461,4258.077148,4306.410156,4351.025879,4358.974121,4364.615234,4552.179688,4539.102539,4558.077148,4495.512695,5661.153809,4308.589844,4256.538574,0.000000,4.000000,75.000000,,,,0.000000,0.000000,0.000000,0.000000,0.000000,0.000000,0.000000,0.000000,0.000000,0.000000,0.000000,0.000000,0.000000,0.000000,0.000000,0.000000,,,,,,,,,,,,,,,,,4.000000,0.000000,0.785240,-0.615479,-0.062317,0.026489,0.065926,-0.970822,0.233915,4.511297,-15.060621,22.624702,,,,,,,,,,,,,,,,,,,,,,,,,,,,,,,,,,,,,,,,,,,,,,,,,,,,,,,,,,,,,,,,,,,,,,,,,,,,,,,,,,,,,,,,,,,,,,,,,,,,,
1738755382.206588,1738755382.206517,17.000000,0.000000,4320.769043,4345.256348,4254.358887,4301.153809,4348.717773,4359.743652,4363.974121,4551.153809,4540.512695,4561.153809,4496.153809,5660.641113,4312.692383,4257.563965,0.000000,4.000000,75.000000,,,,0.000000,0.000000,0.000000,0.000000,0.000000,0.000000,0.000000,0.000000,0.000000,0.000000,0.000000,0.000000,0.000000,0.000000,0.000000,0.000000,,,,,,,,,,,,,,,,,,,,,,,,,,,,,,,,,,,,,,,,,,,,,,,,,,,,,,,,,,,,,,,,,,,,,,,,,,,,,,,,,,,,,,,,,,,,,,,,,,,,,,,,,,,,,,,,,,,,,,,,,,,,,,,,,
1738755382.214396,1738755382.214325,18.000000,0.000000,4320.897461,4346.666504,4253.974121,4299.102539,4351.153809,4361.410156,4363.333496,4553.461426,4537.948730,4561.410156,4496.922852,5666.666504,4307.179688,4253.205078,0.000000,4.000000,75.000000,,,,0.000000,0.000000,0.000000,0.000000,0.000000,0.000000,0.000000,0.000000,0.000000,0.000000,0.000000,0.000000,0.000000,0.000000,0.000000,0.000000,,,,,,,,,,,,,,,,,,,,,,,,,,,,,,,,,,,,,,,,,,,,,,,,,,,,,,,,,,,,,,,,,,,,,,,,,,,,,,,,,,,,,,,,,,,,,,,,,,,,,,,,,,,,,,,,,,,,,,,,,,,,,,,,,
1738755382.222204,1738755382.222033,19.000000,0.000000,4321.538574,4352.692383,4256.282227,4302.051270,4353.717773,4356.922852,4361.282227,4549.358887,4540.897461,4561.282227,4497.948730,5664.871582,4312.307617,4254.743652,0.000000,4.000000,75.000000,,,,0.000000,0.000000,0.000000,0.000000,0.000000,0.000000,0.000000,0.000000,0.000000,0.000000,0.000000,0.000000,0.000000,0.000000,0.000000,0.000000,,,,,,,,,,,,,,,,,,,,,,,,,,,,,,,,,,,,,,,,,,,,,,,,,,,,,,,,,,,,,,,,,,,,,,,,,,,,,,,,,,,,,,,,,,,,,,,,,,,,,,,,,,,,,,,,,,,,,,,,,,,,,,,,,
1738755382.230012,1738755382.229941,20.000000,0.000000,4322.307617,4352.436035,4256.153809,4306.153809,4353.205078,4357.436035,4364.615234,4549.615234,4540.641113,4559.358887,4497.820313,5661.025879,4313.461426,4257.179688,0.000000,4.000000,75.000000,,,,0.000000,0.000000,0.000000,0.000000,0.000000,0.000000,0.000000,0.000000,0.000000,0.000000,0.000000,0.000000,0.000000,0.000000,0.000000,0.000000,,,,,,,,,,,,,,,,,5.000000,0.000000,0.785244,-0.615479,-0.062256,0.026489,0.048346,-0.980100,0.232450,4.493500,-15.021226,22.745565,,,,,,,,,,,,,,,,,,,,,,,,,,,,,,,,,,,,,,,,,,,,,,,,,,,,,,,,,,,,,,,,,,,,,,,,,,,,,,,,,,,,,,,,,,,,,,,,,,,,,
1738755382.237820,1738755382.237749,21.000000,0.000000,4321.410156,4348.461426,4253.717773,4305.128418,4352.820313,4363.717773,4368.333496,4553.205078,4535.769043,4559.615234,4496.025879,5663.589844,4309.102539,4256.025879,0.000000,4.000000,75.000000,,,,0.000000,0.000000,0.000000,0.000000,0.000000,0.000000,0.000000,0.000000,0.000000,0.000000,0.000000,0.000000,0.000000,0.000000,0.000000,0.000000,,,,,,,,,,,,,,,,,,,,,,,,,,,,,,,,,,,,,,,,,,,,,,,,,,,,,,,,,,,,,,,,,,,,,,,,,,,,,,,,,,,,,,,,,,,,,,,,,,,,,,,,,,,,,,,,,,,,,,,,,,,,,,,,,
1738755382.245628,1738755382.245657,22.000000,0.000000,4320.256348,4351.922852,4253.461426,4302.436035,4353.077148,4363.333496,4366.025879,4547.563965,4538.333496,4564.230957,4494.358887,5662.820313,4311.538574,4255.769043,0.000000,4.000000,75.000000,,,,0.000000,0.000000,0.000000,0.000000,0.000000,0.000000,0.000000,0.000000,0.000000,0.000000,0.000000,0.000000,0.000000,0.000000,0.000000,0.000000,,,,,,,,,,,,,,,,,,,,,,,,,,,,,,,,,,,,,,,,,,,,,,,,,,,,,,,,,,,,,,,,,,,,,,,,,,,,,,,,,,,,,,,,,,,,,,,,,,,,,,,,,,,,,,,,,,,,,,,,,,,,,,,,,
1738755382.253436,1738755382.253466,23.000000,0.000000,4321.922852,4351.282227,4255.641113,4306.282227,4352.436035,4360.128418,4364.102539,4547.692383,4541.922852,4563.461426,4494.615234,5663.461426,4308.717773,4255.128418,0.000000,4.000000,75.000000,,,,0.000000,0.000000,0.000000,0.000000,0.000000,0.000000,0.000000,0.000000,0.000000,0.000000,0.000000,0.000000,0.000000,0.000000,0.000000,0.000000,,,,,,,,,,,,,,,,,,,,,,,,,,,,,,,,,,,,,,,,,,,,,,,,,,,,,,,,,,,,,,,,,,,,,,,,,,,,,,,,,,,,,,,,,,,,,,,,,,,,,,,,,,,,,,,,,,,,,,,,,,,,,,,,,
1738755382.261244,1738755382.261374,24.000000,0.000000,4321.922852,4349.102539,4256.025879,4304.743652,4352.051270,4361.666504,4361.794922,4552.307617,4540.512695,4559.487305,4501.282227,5663.461426,4313.461426,4260.000000,0.000000,4.000000,75.000000,,,,0.000000,0.000000,0.000000,0.000000,0.000000,0.000000,0.000000,0.000000,0.000000,0.000000,0.000000,0.000000,0.000000,0.000000,0.000000,0.000000,,,,,,,,,,,,,,,,,6.000000,0.000000,0.785244,-0.615479,-0.062256,0.026489,0.063484,-0.973263,0.237822,4.577484,-15.002437,22.637676,,,,,,,,,,,,,,,,,,,,,,,,,,,,,,,,,,,,,,,,,,,,,,,,,,,,,,,,,,,,,,,,,,,,,,,,,,,,,,,,,,,,,,,,,,,,,,,,,,,,,
1738755382.269053,1738755382.269182,25.000000,0.000000,4321.538574,4350.641113,4256.538574,4303.077148,4352.948730,4364.743652,4364.743652,4552.563965,4538.589844,4557.948730,4501.410156,5662.948730,4313.333496,4258.461426,0.000000,4.000000,75.000000,,,,0.000000,0.000000,0.000000,0.000000,0.000000,0.000000,0.000000,0.000000,0.000000,0.000000,0.000000,0.000000,0.000000,0.000000,0.000000,0.000000,,,,,,,,,,,,,,,,,,,,,,,,,,,,,,,,,,,,,,,,,,,,,,,,,,,,,,,,,,,,,,,,,,,,,,,,,,,,,,,,,,,,,,,,,,,,,,,,,,,,,,,,,,,,,,,,,,,,,,,,,,,,,,,,,
1738755382.276861,1738755382.277090,26.000000,0.000000,4321.410156,4351.282227,4255.512695,4305.128418,4351.666504,4362.179688,4367.436035,4551.282227,4538.077148,4560.641113,4495.897461,5662.051270,4305.512695,4251.153809,0.000000,4.000000,75.000000,,,,0.000000,0.000000,0.000000,0.000000,0.000000,0.000000,0.000000,0.000000,0.000000,0.000000,0.000000,0.000000,0.000000,0.000000,0.000000,0.000000,,,,,,,,,,,,,,,,,,,,,,,,,,,,,,,,,,,,,,,,,,,,,,,,,,,,,,,,,,,,,,,,,,,,,,,,,,,,,,,,,,,,,,,,,,,,,,,,,,,,,,,,,,,,,,,,,,,,,,,,,,,,,,,,,
1738755382.284669,1738755382.284898,27.000000,0.000000,4320.128418,4349.358887,4253.717773,4303.974121,4349.102539,4358.461426,4364.230957,4549.871582,4538.974121,4562.179688,4499.743652,5659.743652,4308.205078,4254.743652,0.000000,4.000000,75.000000,,,,0.000000,0.000000,0.000000,0.000000,0.000000,0.000000,0.000000,0.000000,0.000000,0.000000,0.000000,0.000000,0.000000,0.000000,0.000000,0.000000,,,,,,,,,,,,,,,,,,,,,,,,,,,,,,,,,,,,,,,,,,,,,,,,,,,,,,,,,,,,,,,,,,,,,,,,,,,,,,,,,,,,,,,,,,,,,,,,,,,,,,,,,,,,,,,,,,,,,,,,,,,,,,,,,
1738755382.292477,1738755382.292806,28.000000,0.000000,4321.282227,4347.948730,4255.128418,4304.871582,4351.666504,4360.897461,4366.666504,4550.128418,4539.871582,4560.512695,4498.333496,5664.358887,4304.871582,4256.538574,0.000000,4.000000,75.000000,,,,0.000000,0.000000,0.000000,0.000000,0.000000,0.000000,0.000000,0.000000,0.000000,0.000000,0.000000,0.000000,0.000000,0.000000,0.000000,0.000000,,,,,,,,,,,,,,,,,7.000000,0.000000,0.785237,-0.615479,-0.062317,0.026550,0.057624,-0.974728,0.224637,4.619735,-14.985526,22.540575,,,,,,,,,,,,,,,,,,,,,,,,,,,,,,,,,,,,,,,,,,,,,,,,,,,,,,,,,,,,,,,,,,,,,,,,,,,,,,,,,,,,,,,,,,,,,,,,,,,,,
1738755382.300285,1738755382.300715,29.000000,0.000000,4321.410156,4349.358887,4252.948730,4301.666504,4352.563965,4362.307617,4369.102539,4549.102539,4540.769043,4560.000000,4494.615234,5663.205078,4307.692383,4257.692383,0.000000,4.000000,75.000000,,,,0.000000,0.000000,0.000000,0.000000,0.000000,0.000000,0.000000,0.000000,0.000000,0.000000,0.000000,0.000000,0.000000,0.000000,0.000000,0.000000,,,,,,,,,,,,,,,,,,,,,,,,,,,,,,,,,,,,,,,,,,,,,,,,,,,,,,,,,,,,,,,,,,,,,,,,,,,,,,,,,,,,,,,,,,,,,,,,,,,,,,,,,,,,,,,,,,,,,,,,,,,,,,,,,
1738755382.308093,1738755382.308523,30.000000,0.000000,4319.358887,4350.512695,4251.922852,4301.025879,4350.641113,4358.461426,4366.538574,4549.487305,4539.487305,4559.743652,4496.025879,5660.128418,4312.179688,4258.846191,0.000000,4.000000,75.000000,,,,0.000000,0.000000,0.000000,0.000000,0.000000,0.000000,0.000000,0.000000,0.000000,0.000000,0.000000,0.000000,0.000000,0.000000,0.000000,0.000000,1.000000,0.000000,0.000000,0.000000,0.000000,0.000000,0.000000,0.000000,0.000000,0.000000,0.000000,0.000000,0.000000,0.000000,0.000000,0.000000,,,,,,,,,,,,,,,,,,,,,,,,,,,,,,,,,,,,,,,,,,,,0.030307,0.014953,0.022250,0.031896,0.023385,0.017103,0.026497,0.013299,0.020197,0.019352,0.010046,0.032747,0.025082,0.018540,0.020569,0.018777,0.022666,0.026399,0.027757,0.027005,0.006606,0.019248,0.012972,0.016076,0.024052,0.024603,0.032238,0.018539,0.017805,0.039196,0.043621,0.036473,0.031752,0.019144,0.043740,0.025381,0.015279,0.024127,0.039853,0.022653,0.030660,0.017464,0.034962,0.018906,0.032708,0.017506,0.029519,0.022643,0.015623,0.023246,0.027426,0.008610,0.022089,0.019422,0.020062,0.037592,0.043433,0.015416,0.026045,0.045302,0.036628,0.021050,0.024334,0.020543,0.045782,0.020279,0.012546,0.019498,0.026907,0.025650
1738755382.315901,1738755382.316331,31.000000,0.000000,4319.487305,4349.615234,4256.666504,4306.410156,4353.205078,4356.538574,4365.512695,4550.256348,4537.051270,4560.384766,4496.153809,5663.846191,4306.794922,4253.974121,0.000000,4.000000,75.000000,,,,0.000000,0.000000,0.000000,0.000000,0.000000,0.000000,0.000000,0.000000,0.000000,0.000000,0.000000,0.000000,0.000000,0.000000,0.000000,0.000000,,,,,,,,,,,,,,,,,,,,,,,,,,,,,,,,,,,,,,,,,,,,,,,,,,,,,,,,,,,,,,,,,,,,,,,,,,,,,,,,,,,,,,,,,,,,,,,,,,,,,,,,,,,,,,,,,,,,,,,,,,,,,,,,,
1738755382.323709,1738755382.324039,32.000000,0.000000,4320.897461,4348.333496,4255.769043,4304.230957,4354.871582,4362.179688,4366.666504,4548.846191,4539.102539,4561.025879,4496.794922,5661.538574,4309.743652,4253.717773,0.000000,4.000000,75.000000,,,,0.000000,0.000000,0.000000,0.000000,0.000000,0.000000,0.000000,0.000000,0.000000,0.000000,0.000000,0.000000,0.000000,0.000000,0.000000,0.000000,,,,,,,,,,,,,,,,,8.000000,0.000000,0.785192,-0.615540,-0.062256,0.026611,0.059089,-0.962031,0.229520,4.641095,-14.903640,22.636518,,,,,,,,,,,,,,,,,,,,,,,,,,,,,,,,,,,,,,,,,,,,,,,,,,,,,,,,,,,,,,,,,,,,,,,,,,,,,,,,,,,,,,,,,,,,,,,,,,,,,
1738755382.331517,1738755382.331847,33.000000,0.000000,4323.205078,4351.666504,4250.897461,4300.769043,4351.025879,4365.000000,4371.410156,4551.153809,4538.846191,4560.769043,4496.025879,5663.717773,4309.743652,4254.615234,0.000000,4.000000,75.000000,,,,0.000000,0.000000,0.000000,0.000000,0.000000,0.000000,0.000000,0.000000,0.000000,0.000000,0.000000,0.000000,0.000000,0.000000,0.000000,0.000000,,,,,,,,,,,,,,,,,,,,,,,,,,,,,,,,,,,,,,,,,,,,,,,,,,,,,,,,,,,,,,,,,,,,,,,,,,,,,,,,,,,,,,,,,,,,,,,,,,,,,,,,,,,,,,,,,,,,,,,,,,,,,,,,,
1738755382.339326,1738755382.339555,34.000000,0.000000,4323.589844,4355.512695,4254.358887,4301.538574,4350.641113,4359.615234,4367.820313,4551.153809,4536.666504,4560.897461,4496.410156,5666.153809,4313.077148,4256.410156,0.000000,4.000000,75.000000,,,,0.000000,0.000000,0.000000,0.000000,0.000000,0.000000,0.000000,0.000000,0.000000,0.000000,0.000000,0.000000,0.000000,0.000000,0.000000,0.000000,,,,,,,,,,,,,,,,,,,,,,,,,,,,,,,,,,,,,,,,,,,,,,,,,,,,,,,,,,,,,,,,,,,,,,,,,,,,,,,,,,,,,,,,,,,,,,,,,,,,,,,,,,,,,,,,,,,,,,,,,,,,,,,,,
1738755382.347134,1738755382.347363,35.000000,0.000000,4323.717773,4352.307617,4259.615234,4302.051270,4355.000000,4358.846191,4361.922852,4547.436035,4539.358887,4560.512695,4496.538574,5662.179688,4315.384766,4257.563965,0.000000,4.000000,75.000000,,,,0.000000,0.000000,0.000000,0.000000,0.000000,0.000000,0.000000,0.000000,0.000000,0.000000,0.000000,0.000000,0.000000,0.000000,0.000000,0.000000,,,,,,,,,,,,,,,,,,,,,,,,,,,,,,,,,,,,,,,,,,,,,,,,,,,,,,,,,,,,,,,,,,,,,,,,,,,,,,,,,,,,,,,,,,,,,,,,,,,,,,,,,,,,,,,,,,,,,,,,,,,,,,,,,
1738755382.354942,1738755382.355071,36.000000,0.000000,4323.333496,4349.358887,4255.641113,4302.179688,4354.230957,4362.820313,4367.820313,4547.820313,4539.615234,4559.358887,4496.025879,5663.077148,4305.384766,4254.743652,0.000000,4.000000,75.000000,,,,0.000000,0.000000,0.000000,0.000000,0.000000,0.000000,0.000000,0.000000,0.000000,0.000000,0.000000,0.000000,0.000000,0.000000,0.000000,0.000000,,,,,,,,,,,,,,,,,9.000000,0.000000,0.785192,-0.615540,-0.062256,0.026611,0.066414,-0.973263,0.224148,4.576986,-14.929943,22.672867,,,,,,,,,,,,,,,,,,,,,,,,,,,,,,,,,,,,,,,,,,,,,,,,,,,,,,,,,,,,,,,,,,,,,,,,,,,,,,,,,,,,,,,,,,,,,,,,,,,,,
1738755382.362750,1738755382.362879,37.000000,0.000000,4321.410156,4352.820313,4252.563965,4303.717773,4350.769043,4362.436035,4370.512695,4550.128418,4538.077148,4559.871582,4499.358887,5662.820313,4307.051270,4256.538574,0.000000,4.000000,75.000000,,,,0.000000,0.000000,0.000000,0.000000,0.000000,0.000000,0.000000,0.000000,0.000000,0.000000,0.000000,0.000000,0.000000,0.000000,0.000000,0.000000,,,,,,,,,,,,,,,,,,,,,,,,,,,,,,,,,,,,,,,,,,,,,,,,,,,,,,,,,,,,,,,,,,,,,,,,,,,,,,,,,,,,,,,,,,,,,,,,,,,,,,,,,,,,,,,,,,,,,,,,,,,,,,,,,
1738755382.370558,1738755382.370587,38.000000,0.000000,4324.615234,4352.948730,4255.000000,4304.743652,4352.692383,4361.025879,4368.589844,4551.410156,4537.436035,4558.333496,4498.589844,5663.974121,4309.102539,4257.692383,0.000000,4.000000,75.000000,,,,0.000000,0.000000,0.000000,0.000000,0.000000,0.000000,0.000000,0.000000,0.000000,0.000000,0.000000,0.000000,0.000000,0.000000,0.000000,0.000000,,,,,,,,,,,,,,,,,,,,,,,,,,,,,,,,,,,,,,,,,,,,,,,,,,,,,,,,,,,,,,,,,,,,,,,,,,,,,,,,,,,,,,,,,,,,,,,,,,,,,,,,,,,,,,,,,,,,,,,,,,,,,,,,,
1738755382.378366,1738755382.378395,39.000000,0.000000,4323.589844,4348.589844,4256.025879,4301.538574,4354.358887,4361.410156,4368.461426,4548.846191,4538.717773,4556.153809,4494.230957,5663.974121,4311.538574,4257.563965,0.000000,4.000000,75.000000,,,,0.000000,0.000000,0.000000,0.000000,0.000000,0.000000,0.000000,0.000000,0.000000,0.000000,0.000000,0.000000,0.000000,0.000000,0.000000,0.000000,,,,,,,,,,,,,,,,,,,,,,,,,,,,,,,,,,,,,,,,,,,,,,,,,,,,,,,,,,,,,,,,,,,,,,,,,,,,,,,,,,,,,,,,,,,,,,,,,,,,,,,,,,,,,,,,,,,,,,,,,,,,,,,,,
1738755382.386174,1738755382.386103,40.000000,0.000000,4318.077148,4347.692383,4256.794922,4298.461426,4352.820313,4360.256348,4367.051270,4547.051270,4539.102539,4558.205078,4495.384766,5658.974121,4314.102539,4258.333496,0.000000,4.000000,75.000000,,,,0.000000,0.000000,0.000000,0.000000,0.000000,0.000000,0.000000,0.000000,0.000000,0.000000,0.000000,0.000000,0.000000,0.000000,0.000000,0.000000,,,,,,,,,,,,,,,,,10.000000,0.000000,0.785145,-0.615601,-0.062256,0.026611,0.066903,-0.953730,0.238310,4.569287,-15.053616,22.655579,,,,,,,,,,,,,,,,,,,,,,,,,,,,,,,,,,,,,,,,,,,,,,,,,,,,,,,,,,,,,,,,,,,,,,,,,,,,,,,,,,,,,,,,,,,,,,,,,,,,,
1738755382.393982,1738755382.394011,41.000000,0.000000,4320.512695,4348.205078,4254.487305,4300.769043,4352.820313,4361.538574,4365.512695,4551.666504,4536.282227,4559.871582,4498.461426,5660.769043,4308.333496,4257.820313,0.000000,4.000000,75.000000,,,,0.000000,0.000000,0.000000,0.000000,0.000000,0.000000,0.000000,0.000000,0.000000,0.000000,0.000000,0.000000,0.000000,0.000000,0.000000,0.000000,,,,,,,,,,,,,,,,,,,,,,,,,,,,,,,,,,,,,,,,,,,,,,,,,,,,,,,,,,,,,,,,,,,,,,,,,,,,,,,,,,,,,,,,,,,,,,,,,,,,,,,,,,,,,,,,,,,,,,,,,,,,,,,,,
1738755382.401790,1738755382.401820,42.000000,0.000000,4323.974121,4350.897461,4250.128418,4301.922852,4354.102539,4363.205078,4363.589844,4550.512695,4538.461426,4558.846191,4497.563965,5662.820313,4313.717773,4258.974121,0.000000,4.000000,75.000000,,,,0.000000,0.000000,0.000000,0.000000,0.000000,0.000000,0.000000,0.000000,0.000000,0.000000,0.000000,0.000000,0.000000,0.000000,0.000000,0.000000,,,,,,,,,,,,,,,,,,,,,,,,,,,,,,,,,,,,,,,,,,,,,,,,,,,,,,,,,,,,,,,,,,,,,,,,,,,,,,,,,,,,,,,,,,,,,,,,,,,,,,,,,,,,,,,,,,,,,,,,,,,,,,,,,
1738755382.409598,1738755382.409728,43.000000,0.000000,4325.384766,4351.666504,4254.102539,4303.846191,4353.717773,4360.897461,4367.436035,4547.563965,4540.769043,4557.948730,4495.256348,5662.179688,4310.769043,4257.436035,0.000000,4.000000,75.000000,,,,0.000000,0.000000,0.000000,0.000000,0.000000,0.000000,0.000000,0.000000,0.000000,0.000000,0.000000,0.000000,0.000000,0.000000,0.000000,0.000000,,,,,,,,,,,,,,,,,,,,,,,,,,,,,,,,,,,,,,,,,,,,,,,,,,,,,,,,,,,,,,,,,,,,,,,,,,,,,,,,,,,,,,,,,,,,,,,,,,,,,,,,,,,,,,,,,,,,,,,,,,,,,,,,,
1738755382.417406,1738755382.417536,44.000000,0.000000,4324.358887,4348.205078,4256.538574,4305.256348,4353.717773,4360.897461,4370.000000,4550.512695,4539.871582,4557.948730,4496.025879,5661.538574,4307.692383,4260.384766,0.000000,4.000000,75.000000,,,,0.000000,0.000000,0.000000,0.000000,0.000000,0.000000,0.000000,0.000000,0.000000,0.000000,0.000000,0.000000,0.000000,0.000000,0.000000,0.000000,,,,,,,,,,,,,,,,,11.000000,0.000000,0.785194,-0.615540,-0.062256,0.026550,0.060554,-0.979612,0.228055,4.379025,-15.231587,22.606688,,,,,,,,,,,,,,,,,,,,,,,,,,,,,,,,,,,,,,,,,,,,,,,,,,,,,,,,,,,,,,,,,,,,,,,,,,,,,,,,,,,,,,,,,,,,,,,,,,,,,
1738755382.425215,1738755382.425444,45.000000,0.000000,4321.025879,4348.077148,4252.820313,4300.512695,4353.589844,4363.205078,4365.384766,4551.538574,4540.512695,4559.487305,4498.589844,5662.307617,4319.358887,4264.487305,0.000000,4.000000,75.000000,,,,0.000000,0.000000,0.000000,0.000000,0.000000,0.000000,0.000000,0.000000,0.000000,0.000000,0.000000,0.000000,0.000000,0.000000,0.000000,0.000000,,,,,,,,,,,,,,,,,,,,,,,,,,,,,,,,,,,,,,,,,,,,,,,,,,,,,,,,,,,,,,,,,,,,,,,,,,,,,,,,,,,,,,,,,,,,,,,,,,,,,,,,,,,,,,,,,,,,,,,,,,,,,,,,,
1738755382.433023,1738755382.433252,46.000000,0.000000,4321.153809,4350.897461,4253.717773,4302.179688,4352.436035,4363.333496,4365.256348,4551.538574,4538.589844,4561.282227,4496.666504,5666.025879,4315.000000,4257.307617,0.000000,4.000000,75.000000,,,,0.000000,0.000000,0.000000,0.000000,0.000000,0.000000,0.000000,0.000000,0.000000,0.000000,0.000000,0.000000,0.000000,0.000000,0.000000,0.000000,,,,,,,,,,,,,,,,,,,,,,,,,,,,,,,,,,,,,,,,,,,,,,,,,,,,,,,,,,,,0.036445,0.016095,0.026755,0.032717,0.026299,0.017255,0.029684,0.011595,0.020688,0.018541,0.009058,0.040656,0.029897,0.018342,0.020343,0.017112,0.021304,0.018273,0.029959,0.026978,0.008539,0.017405,0.011417,0.014205,0.022759,0.025136,0.029389,0.017153,0.018837,0.035903,0.042283,0.040980,0.028454,0.016437,0.043908,0.027614,0.015530,0.019483,0.035857,0.024208,0.032499,0.016985,0.038670,0.019505,0.034491,0.018926,0.030725,0.020620,0.016302,0.025066,0.020891,0.007715,0.024161,0.019181,0.019676,0.036328,0.046394,0.015499,0.022790,0.044773,0.039474,0.024450,0.023881,0.019104,0.044715,0.027176,0.016620,0.016528,0.026804,0.024681
1738755382.440831,1738755382.441160,47.000000,0.000000,4322.692383,4351.025879,4253.846191,4305.000000,4352.436035,4360.128418,4366.282227,4550.641113,4537.436035,4561.538574,4494.487305,5664.230957,4311.025879,4255.512695,0.000000,4.000000,75.000000,,,,0.000000,0.000000,0.000000,0.000000,0.000000,0.000000,0.000000,0.000000,0.000000,0.000000,0.000000,0.000000,0.000000,0.000000,0.000000,0.000000,,,,,,,,,,,,,,,,,,,,,,,,,,,,,,,,,,,,,,,,,,,,,,,,,,,,,,,,,,,,,,,,,,,,,,,,,,,,,,,,,,,,,,,,,,,,,,,,,,,,,,,,,,,,,,,,,,,,,,,,,,,,,,,,,
1738755382.448639,1738755382.448968,48.000000,0.000000,4323.589844,4349.871582,4253.077148,4303.205078,4352.948730,4357.179688,4366.282227,4552.948730,4540.641113,4559.230957,4495.897461,5665.512695,4313.589844,4257.179688,0.000000,4.000000,75.000000,,,,0.000000,0.000000,0.000000,0.000000,0.000000,0.000000,0.000000,0.000000,0.000000,0.000000,0.000000,0.000000,0.000000,0.000000,0.000000,0.000000,,,,,,,,,,,,,,,,,12.000000,0.000000,0.785192,-0.615540,-0.062317,0.026489,0.057136,-0.966915,0.235380,4.207789,-15.225095,22.612686,,,,,,,,,,,,,,,,,,,,,,,,,,,,,,,,,,,,,,,,,,,,,,,,,,,,,,,,,,,,,,,,,,,,,,,,,,,,,,,,,,,,,,,,,,,,,,,,,,,,,
1738755382.456447,1738755382.456877,49.000000,0.000000,4322.563965,4349.358887,4256.153809,4302.051270,4351.153809,4360.641113,4365.641113,4553.846191,4542.307617,4558.589844,4497.820313,5666.025879,4310.128418,4255.641113,0.000000,4.000000,75.000000,,,,0.000000,0.000000,0.000000,0.000000,0.000000,0.000000,0.000000,0.000000,0.000000,0.000000,0.000000,0.000000,0.000000,0.000000,0.000000,0.000000,,,,,,,,,,,,,,,,,,,,,,,,,,,,,,,,,,,,,,,,,,,,,,,,,,,,,,,,,,,,,,,,,,,,,,,,,,,,,,,,,,,,,,,,,,,,,,,,,,,,,,,,,,,,,,,,,,,,,,,,,,,,,,,,,
1738755382.464255,1738755382.464685,50.000000,0.000000,4320.641113,4348.974121,4255.128418,4301.282227,4350.256348,4364.230957,4365.769043,4547.563965,4541.153809,4560.384766,4496.410156,5660.384766,4312.692383,4258.461426,0.000000,4.000000,75.000000,,,,0.000000,0.000000,0.000000,0.000000,0.000000,0.000000,0.000000,0.000000,0.000000,0.000000,0.000000,0.000000,0.000000,0.000000,0.000000,0.000000,,,,,,,,,,,,,,,,,,,,,,,,,,,,,,,,,,,,,,,,,,,,,,,,,,,,,,,,,,,,,,,,,,,,,,,,,,,,,,,,,,,,,,,,,,,,,,,,,,,,,,,,,,,,,,,,,,,,,,,,,,,,,,,,,
1738755382.472063,1738755382.472593,51.000000,0.000000,4322.179688,4350.512695,4252.307617,4305.128418,4352.948730,4362.307617,4370.384766,4547.436035,4538.589844,4560.384766,4493.974121,5663.589844,4312.948730,4256.153809,0.000000,4.000000,75.000000,,,,0.000000,0.000000,0.000000,0.000000,0.000000,0.000000,0.000000,0.000000,0.000000,0.000000,0.000000,0.000000,0.000000,0.000000,0.000000,0.000000,,,,,,,,,,,,,,,,,,,,,,,,,,,,,,,,,,,,,,,,,,,,,,,,,,,,,,,,,,,,,,,,,,,,,,,,,,,,,,,,,,,,,,,,,,,,,,,,,,,,,,,,,,,,,,,,,,,,,,,,,,,,,,,,,
1738755382.479871,1738755382.480401,52.000000,0.000000,4322.179688,4352.179688,4253.974121,4303.589844,4355.769043,4360.384766,4367.948730,4548.333496,4540.769043,4559.487305,4495.897461,5664.230957,4312.436035,4255.641113,0.000000,4.000000,75.000000,,,,0.000000,0.000000,0.000000,0.000000,0.000000,0.000000,0.000000,0.000000,0.000000,0.000000,0.000000,0.000000,0.000000,0.000000,0.000000,0.000000,,,,,,,,,,,,,,,,,,,,,,,,,,,,,,,,,,,,,,,,,,,,,,,,,,,,,,,,,,,,,,,,,,,,,,,,,,,,,,,,,,,,,,,,,,,,,,,,,,,,,,,,,,,,,,,,,,,,,,,,,,,,,,,,,
