title:bread1, start timestamp:1737284040.090650, stop timestamp:1737284043.127998, headset type:EPOCX, headset serial:E50208A5, headset firmware:720, channels:168, sampling rate:eeg_128;mot_32;pm_0.1;pow_8, samples:390       , version:2.2, 
Timestamp,OriginalTimestamp,EEG.Counter,EEG.Interpolated,EEG.AF3,EEG.F7,EEG.F3,EEG.FC5,EEG.T7,EEG.P7,EEG.O1,EEG.O2,EEG.P8,EEG.T8,EEG.FC6,EEG.F4,EEG.F8,EEG.AF4,EEG.RawCq,EEG.Battery,EEG.BatteryPercent,MarkerIndex,MarkerType,MarkerValueInt,EEG.MarkerHardware,CQ.AF3,CQ.F7,CQ.F3,CQ.FC5,CQ.T7,CQ.P7,CQ.O1,CQ.O2,CQ.P8,CQ.T8,CQ.FC6,CQ.F4,CQ.F8,CQ.AF4,CQ.Overall,EQ.SampleRateQuality,EQ.OVERALL,EQ.AF3,EQ.F7,EQ.F3,EQ.FC5,EQ.T7,EQ.P7,EQ.O1,EQ.O2,EQ.P8,EQ.T8,EQ.FC6,EQ.F4,EQ.F8,EQ.AF4,MOT.CounterMems,MOT.InterpolatedMems,MOT.Q0,MOT.Q1,MOT.Q2,MOT.Q3,MOT.AccX,MOT.AccY,MOT.AccZ,MOT.MagX,MOT.MagY,MOT.MagZ,PM.Attention.IsActive,PM.Attention.Scaled,PM.Attention.Raw,PM.Attention.Min,PM.Attention.Max,PM.Engagement.IsActive,PM.Engagement.Scaled,PM.Engagement.Raw,PM.Engagement.Min,PM.Engagement.Max,PM.Excitement.IsActive,PM.Excitement.Scaled,PM.Excitement.Raw,PM.Excitement.Min,PM.Excitement.Max,PM.LongTermExcitement,PM.Stress.IsActive,PM.Stress.Scaled,PM.Stress.Raw,PM.Stress.Min,PM.Stress.Max,PM.Relaxation.IsActive,PM.Relaxation.Scaled,PM.Relaxation.Raw,PM.Relaxation.Min,PM.Relaxation.Max,PM.Interest.IsActive,PM.Interest.Scaled,PM.Interest.Raw,PM.Interest.Min,PM.Interest.Max,POW.AF3.Theta,POW.AF3.Alpha,POW.AF3.BetaL,POW.AF3.BetaH,POW.AF3.Gamma,POW.F7.Theta,POW.F7.Alpha,POW.F7.BetaL,POW.F7.BetaH,POW.F7.Gamma,POW.F3.Theta,POW.F3.Alpha,POW.F3.BetaL,POW.F3.BetaH,POW.F3.Gamma,POW.FC5.Theta,POW.FC5.Alpha,POW.FC5.BetaL,POW.FC5.BetaH,POW.FC5.Gamma,POW.T7.Theta,POW.T7.Alpha,POW.T7.BetaL,POW.T7.BetaH,POW.T7.Gamma,POW.P7.Theta,POW.P7.Alpha,POW.P7.BetaL,POW.P7.BetaH,POW.P7.Gamma,POW.O1.Theta,POW.O1.Alpha,POW.O1.BetaL,POW.O1.BetaH,POW.O1.Gamma,POW.O2.Theta,POW.O2.Alpha,POW.O2.BetaL,POW.O2.BetaH,POW.O2.Gamma,POW.P8.Theta,POW.P8.Alpha,POW.P8.BetaL,POW.P8.BetaH,POW.P8.Gamma,POW.T8.Theta,POW.T8.Alpha,POW.T8.BetaL,POW.T8.BetaH,POW.T8.Gamma,POW.FC6.Theta,POW.FC6.Alpha,POW.FC6.BetaL,POW.FC6.BetaH,POW.FC6.Gamma,POW.F4.Theta,POW.F4.Alpha,POW.F4.BetaL,POW.F4.BetaH,POW.F4.Gamma,POW.F8.Theta,POW.F8.Alpha,POW.F8.BetaL,POW.F8.BetaH,POW.F8.Gamma,POW.AF4.Theta,POW.AF4.Alpha,POW.AF4.BetaL,POW.AF4.BetaH,POW.AF4.Gamma
1737284040.090650,1737284040.090995,12.000000,0.000000,4335.769043,4356.025879,4271.153809,4328.333496,4354.615234,4367.307617,4368.205078,4551.282227,4550.897461,4563.205078,4498.333496,5645.641113,4303.333496,4268.717773,0.000000,1.000000,32.000000,,,,0.000000,0.000000,0.000000,0.000000,0.000000,0.000000,0.000000,0.000000,0.000000,0.000000,0.000000,0.000000,0.000000,0.000000,0.000000,0.000000,,,,,,,,,,,,,,,,,3.000000,0.000000,0.659900,-0.749268,0.019531,0.052429,-0.110365,-0.983030,-0.118667,15.480294,-30.598249,17.184116,,,,,,,,,,,,,,,,,,,,,,,,,,,,,,,,0.022708,0.034764,0.049831,0.023789,0.015936,0.115074,0.037457,0.021901,0.027135,0.032900,0.379101,0.066421,0.041511,0.020011,0.032877,0.391434,0.138670,0.040577,0.026080,0.029060,0.033024,0.020384,0.016922,0.015281,0.017333,0.544865,0.135801,0.071812,0.035800,0.035721,0.621324,0.089088,0.062100,0.034128,0.028217,0.195164,0.068488,0.044796,0.012958,0.028999,0.423670,0.048503,0.043144,0.056258,0.022864,0.042070,0.048235,0.029298,0.041175,0.031850,0.081395,0.068275,0.036928,0.021103,0.036676,0.022965,0.013136,0.032448,0.031637,0.022608,1.302198,0.213234,0.119849,0.044491,0.020841,0.035907,0.036723,0.037756,0.023105,0.043921
1737284040.098458,1737284040.098903,13.000000,0.000000,4329.615234,4352.307617,4268.974121,4323.461426,4353.717773,4370.769043,4377.820313,4554.358887,4546.794922,4561.666504,4488.205078,5638.461426,4287.307617,4254.487305,0.000000,1.000000,32.000000,,,,0.000000,0.000000,0.000000,0.000000,0.000000,0.000000,0.000000,0.000000,0.000000,0.000000,0.000000,0.000000,0.000000,0.000000,0.000000,0.000000,,,,,,,,,,,,,,,,,,,,,,,,,,,,,,,,,,,,,,,,,,,,,,,,,,,,,,,,,,,,,,,,,,,,,,,,,,,,,,,,,,,,,,,,,,,,,,,,,,,,,,,,,,,,,,,,,,,,,,,,,,,,,,,,,
1737284040.106266,1737284040.106711,14.000000,0.000000,4337.307617,4359.487305,4282.692383,4333.846191,4356.666504,4372.179688,4373.717773,4548.461426,4540.000000,4558.717773,4495.512695,5648.589844,4291.922852,4268.461426,0.000000,1.000000,32.000000,,,,0.000000,0.000000,0.000000,0.000000,0.000000,0.000000,0.000000,0.000000,0.000000,0.000000,0.000000,0.000000,0.000000,0.000000,0.000000,0.000000,,,,,,,,,,,,,,,,,,,,,,,,,,,,,,,,,,,,,,,,,,,,,,,,,,,,,,,,,,,,,,,,,,,,,,,,,,,,,,,,,,,,,,,,,,,,,,,,,,,,,,,,,,,,,,,,,,,,,,,,,,,,,,,,,
1737284040.114075,1737284040.114619,15.000000,0.000000,4332.563965,4356.666504,4275.256348,4335.384766,4356.922852,4375.384766,4381.025879,4546.538574,4540.512695,4558.589844,4493.589844,5643.461426,4285.897461,4256.153809,0.000000,1.000000,32.000000,,,,0.000000,0.000000,0.000000,0.000000,0.000000,0.000000,0.000000,0.000000,0.000000,0.000000,0.000000,0.000000,0.000000,0.000000,0.000000,0.000000,,,,,,,,,,,,,,,,,,,,,,,,,,,,,,,,,,,,,,,,,,,,,,,,,,,,,,,,,,,,,,,,,,,,,,,,,,,,,,,,,,,,,,,,,,,,,,,,,,,,,,,,,,,,,,,,,,,,,,,,,,,,,,,,,
1737284040.121883,1737284040.122428,16.000000,0.000000,4329.230957,4355.128418,4276.922852,4332.051270,4356.025879,4374.615234,4380.512695,4548.589844,4543.333496,4558.974121,4493.333496,5638.974121,4284.102539,4254.358887,0.000000,1.000000,32.000000,,,,0.000000,0.000000,0.000000,0.000000,0.000000,0.000000,0.000000,0.000000,0.000000,0.000000,0.000000,0.000000,0.000000,0.000000,0.000000,0.000000,,,,,,,,,,,,,,,,,4.000000,0.000000,0.659976,-0.749207,0.019470,0.052368,-0.100110,-0.979612,-0.121109,15.382265,-30.638426,17.315704,,,,,,,,,,,,,,,,,,,,,,,,,,,,,,,,,,,,,,,,,,,,,,,,,,,,,,,,,,,,,,,,,,,,,,,,,,,,,,,,,,,,,,,,,,,,,,,,,,,,,
1737284040.129691,1737284040.130236,17.000000,0.000000,4335.256348,4358.717773,4288.589844,4333.974121,4357.307617,4372.051270,4373.333496,4549.358887,4544.102539,4560.256348,4496.410156,5644.871582,4292.563965,4267.436035,0.000000,1.000000,32.000000,,,,0.000000,0.000000,0.000000,0.000000,0.000000,0.000000,0.000000,0.000000,0.000000,0.000000,0.000000,0.000000,0.000000,0.000000,0.000000,0.000000,,,,,,,,,,,,,,,,,,,,,,,,,,,,,,,,,,,,,,,,,,,,,,,,,,,,,,,,,,,,,,,,,,,,,,,,,,,,,,,,,,,,,,,,,,,,,,,,,,,,,,,,,,,,,,,,,,,,,,,,,,,,,,,,,
1737284040.137499,1737284040.137944,18.000000,0.000000,4332.307617,4352.692383,4275.128418,4328.461426,4357.179688,4372.436035,4381.538574,4552.948730,4546.025879,4562.307617,4486.794922,5635.897461,4285.897461,4251.282227,0.000000,1.000000,32.000000,,,,0.000000,0.000000,0.000000,0.000000,0.000000,0.000000,0.000000,0.000000,0.000000,0.000000,0.000000,0.000000,0.000000,0.000000,0.000000,0.000000,,,,,,,,,,,,,,,,,,,,,,,,,,,,,,,,,,,,,,,,,,,,,,,,,,,,,,,,,,,,,,,,,,,,,,,,,,,,,,,,,,,,,,,,,,,,,,,,,,,,,,,,,,,,,,,,,,,,,,,,,,,,,,,,,
1737284040.145307,1737284040.145752,19.000000,0.000000,4337.051270,4355.897461,4276.922852,4329.102539,4355.769043,4368.717773,4371.410156,4552.307617,4545.000000,4561.153809,4493.077148,5647.820313,4294.615234,4266.282227,0.000000,1.000000,32.000000,,,,0.000000,0.000000,0.000000,0.000000,0.000000,0.000000,0.000000,0.000000,0.000000,0.000000,0.000000,0.000000,0.000000,0.000000,0.000000,0.000000,,,,,,,,,,,,,,,,,,,,,,,,,,,,,,,,,,,,,,,,,,,,,,,,,,,,,,,,,,,,,,,,,,,,,,,,,,,,,,,,,,,,,,,,,,,,,,,,,,,,,,,,,,,,,,,,,,,,,,,,,,,,,,,,,
1737284040.153115,1737284040.153460,20.000000,0.000000,4332.179688,4354.743652,4276.153809,4327.692383,4354.102539,4365.641113,4367.948730,4553.974121,4546.410156,4556.666504,4496.666504,5642.307617,4296.666504,4266.410156,0.000000,1.000000,32.000000,,,,0.000000,0.000000,0.000000,0.000000,0.000000,0.000000,0.000000,0.000000,0.000000,0.000000,0.000000,0.000000,0.000000,0.000000,0.000000,0.000000,,,,,,,,,,,,,,,,,5.000000,0.000000,0.659976,-0.749207,0.019470,0.052368,-0.090831,-0.979123,-0.126480,15.494039,-30.707916,17.267467,,,,,,,,,,,,,,,,,,,,,,,,,,,,,,,,,,,,,,,,,,,,,,,,,,,,,,,,,,,,,,,,,,,,,,,,,,,,,,,,,,,,,,,,,,,,,,,,,,,,,
1737284040.160923,1737284040.161368,21.000000,0.000000,4330.000000,4350.128418,4273.077148,4326.538574,4355.384766,4366.538574,4373.205078,4555.128418,4548.077148,4558.077148,4493.846191,5632.820313,4294.871582,4257.948730,0.000000,1.000000,32.000000,,,,0.000000,0.000000,0.000000,0.000000,0.000000,0.000000,0.000000,0.000000,0.000000,0.000000,0.000000,0.000000,0.000000,0.000000,0.000000,0.000000,,,,,,,,,,,,,,,,,,,,,,,,,,,,,,,,,,,,,,,,,,,,,,,,,,,,,,,,,,,,,,,,,,,,,,,,,,,,,,,,,,,,,,,,,,,,,,,,,,,,,,,,,,,,,,,,,,,,,,,,,,,,,,,,,
1737284040.168731,1737284040.169176,22.000000,0.000000,4335.256348,4353.077148,4277.051270,4326.794922,4357.948730,4365.128418,4367.307617,4553.589844,4548.333496,4561.666504,4495.641113,5647.307617,4302.692383,4268.846191,0.000000,1.000000,32.000000,,,,0.000000,0.000000,0.000000,0.000000,0.000000,0.000000,0.000000,0.000000,0.000000,0.000000,0.000000,0.000000,0.000000,0.000000,0.000000,0.000000,,,,,,,,,,,,,,,,,,,,,,,,,,,,,,,,,,,,,,,,,,,,,,,,,,,,,,,,,,,,,,,,,,,,,,,,,,,,,,,,,,,,,,,,,,,,,,,,,,,,,,,,,,,,,,,,,,,,,,,,,,,,,,,,,
1737284040.176539,1737284040.177084,23.000000,0.000000,4326.794922,4350.128418,4266.282227,4319.871582,4355.641113,4362.948730,4367.179688,4556.666504,4551.666504,4561.025879,4487.820313,5637.948730,4297.948730,4252.307617,0.000000,1.000000,32.000000,,,,0.000000,0.000000,0.000000,0.000000,0.000000,0.000000,0.000000,0.000000,0.000000,0.000000,0.000000,0.000000,0.000000,0.000000,0.000000,0.000000,,,,,,,,,,,,,,,,,,,,,,,,,,,,,,,,,,,,,,,,,,,,,,,,,,,,,,,,,,,,,,,,,,,,,,,,,,,,,,,,,,,,,,,,,,,,,,,,,,,,,,,,,,,,,,,,,,,,,,,,,,,,,,,,,
1737284040.184348,1737284040.184892,24.000000,0.000000,4333.589844,4354.615234,4275.512695,4325.897461,4352.563965,4358.589844,4358.589844,4555.641113,4550.641113,4561.282227,4495.128418,5639.743652,4306.025879,4263.846191,0.000000,1.000000,32.000000,,,,0.000000,0.000000,0.000000,0.000000,0.000000,0.000000,0.000000,0.000000,0.000000,0.000000,0.000000,0.000000,0.000000,0.000000,0.000000,0.000000,,,,,,,,,,,,,,,,,6.000000,0.000000,0.659982,-0.749207,0.019409,0.052307,-0.095226,-0.977658,-0.125504,15.427968,-30.770458,17.090721,,,,,,,,,,,,,,,,,,,,,,,,,,,,,,,,,,,,,,,,,,,,,,,,,,,,,,,,,,,,,,,,,,,,,,,,,,,,,,,,,,,,,,,,,,,,,,,,,,,,,
1737284040.192155,1737284040.192801,25.000000,0.000000,4337.051270,4350.769043,4276.153809,4325.000000,4352.436035,4357.436035,4361.410156,4556.794922,4551.666504,4560.769043,4499.358887,5643.846191,4309.871582,4270.256348,0.000000,1.000000,32.000000,,,,0.000000,0.000000,0.000000,0.000000,0.000000,0.000000,0.000000,0.000000,0.000000,0.000000,0.000000,0.000000,0.000000,0.000000,0.000000,0.000000,,,,,,,,,,,,,,,,,,,,,,,,,,,,,,,,,,,,,,,,,,,,,,,,,,,,,,,,,,,,,,,,,,,,,,,,,,,,,,,,,,,,,,,,,,,,,,,,,,,,,,,,,,,,,,,,,,,,,,,,,,,,,,,,,
1737284040.199964,1737284040.200609,26.000000,0.000000,4330.512695,4345.512695,4263.205078,4315.897461,4354.230957,4360.641113,4367.948730,4558.974121,4555.512695,4563.333496,4492.051270,5637.820313,4303.846191,4257.179688,0.000000,1.000000,32.000000,,,,0.000000,0.000000,0.000000,0.000000,0.000000,0.000000,0.000000,0.000000,0.000000,0.000000,0.000000,0.000000,0.000000,0.000000,0.000000,0.000000,,,,,,,,,,,,,,,,,,,,,,,,,,,,,,,,,,,,,,,,,,,,,,,,,,,,,,,,,,,,,,,,,,,,,,,,,,,,,,,,,,,,,,,,,,,,,,,,,,,,,,,,,,,,,,,,,,,,,,,,,,,,,,,,,
1737284040.207772,1737284040.208517,27.000000,0.000000,4334.487305,4353.333496,4272.820313,4321.025879,4354.871582,4360.128418,4358.077148,4553.717773,4555.256348,4566.410156,4495.769043,5645.769043,4311.794922,4269.230957,0.000000,1.000000,32.000000,,,,0.000000,0.000000,0.000000,0.000000,0.000000,0.000000,0.000000,0.000000,0.000000,0.000000,0.000000,0.000000,0.000000,0.000000,0.000000,0.000000,,,,,,,,,,,,,,,,,,,,,,,,,,,,,,,,,,,,,,,,,,,,,,,,,,,,,,,,,,,,,,,,,,,,,,,,,,,,,,,,,,,,,,,,,,,,,,,,,,,,,,,,,,,,,,,,,,,,,,,,,,,,,,,,,
1737284040.215580,1737284040.216325,28.000000,0.000000,4329.102539,4347.179688,4270.384766,4319.102539,4352.179688,4356.666504,4361.794922,4555.384766,4555.641113,4563.717773,4493.333496,5636.282227,4309.487305,4258.717773,0.000000,1.000000,32.000000,,,,0.000000,0.000000,0.000000,0.000000,0.000000,0.000000,0.000000,0.000000,0.000000,0.000000,0.000000,0.000000,0.000000,0.000000,0.000000,0.000000,,,,,,,,,,,,,,,,,7.000000,0.000000,0.659984,-0.749207,0.019348,0.052307,-0.105970,-0.991820,-0.126969,15.451838,-30.610079,17.014982,,,,,,,,,,,,,,,,,,,,,,,,,,,,,,,,0.024670,0.045041,0.041532,0.028348,0.017052,0.144053,0.046428,0.023802,0.030906,0.033675,0.511138,0.085788,0.050424,0.027622,0.033841,0.525402,0.173424,0.053135,0.025528,0.029327,0.039907,0.024159,0.021611,0.017616,0.018391,0.738072,0.174180,0.094950,0.041414,0.036612,0.892484,0.117417,0.089933,0.042561,0.031797,0.236454,0.079089,0.053081,0.013040,0.026784,0.578730,0.072891,0.056635,0.062654,0.023600,0.048577,0.043303,0.030008,0.042305,0.033646,0.090865,0.082218,0.028424,0.024577,0.036372,0.021923,0.009957,0.032304,0.029749,0.022808,1.830384,0.290577,0.177864,0.068267,0.023394,0.037651,0.034281,0.047862,0.024466,0.040776
1737284040.223388,1737284040.224232,29.000000,0.000000,4334.102539,4348.333496,4269.615234,4317.051270,4353.077148,4353.205078,4357.948730,4558.717773,4556.153809,4563.205078,4498.974121,5641.282227,4313.717773,4263.589844,0.000000,1.000000,32.000000,,,,0.000000,0.000000,0.000000,0.000000,0.000000,0.000000,0.000000,0.000000,0.000000,0.000000,0.000000,0.000000,0.000000,0.000000,0.000000,0.000000,,,,,,,,,,,,,,,,,,,,,,,,,,,,,,,,,,,,,,,,,,,,,,,,,,,,,,,,,,,,,,,,,,,,,,,,,,,,,,,,,,,,,,,,,,,,,,,,,,,,,,,,,,,,,,,,,,,,,,,,,,,,,,,,,
1737284040.231196,1737284040.232040,30.000000,0.000000,4336.025879,4352.563965,4266.025879,4316.538574,4354.230957,4353.717773,4356.666504,4557.436035,4557.820313,4564.358887,4500.641113,5645.128418,4316.794922,4268.461426,0.000000,1.000000,32.000000,,,,0.000000,0.000000,0.000000,0.000000,0.000000,0.000000,0.000000,0.000000,0.000000,0.000000,0.000000,0.000000,0.000000,0.000000,0.000000,0.000000,,,,,,,,,,,,,,,,,,,,,,,,,,,,,,,,,,,,,,,,,,,,,,,,,,,,,,,,,,,,,,,,,,,,,,,,,,,,,,,,,,,,,,,,,,,,,,,,,,,,,,,,,,,,,,,,,,,,,,,,,,,,,,,,,
1737284040.239004,1737284040.239749,31.000000,0.000000,4326.282227,4346.666504,4258.205078,4314.615234,4351.282227,4353.846191,4362.307617,4557.436035,4560.897461,4562.563965,4492.051270,5632.307617,4309.102539,4254.102539,0.000000,1.000000,32.000000,,,,0.000000,0.000000,0.000000,0.000000,0.000000,0.000000,0.000000,0.000000,0.000000,0.000000,0.000000,0.000000,0.000000,0.000000,0.000000,0.000000,,,,,,,,,,,,,,,,,,,,,,,,,,,,,,,,,,,,,,,,,,,,,,,,,,,,,,,,,,,,,,,,,,,,,,,,,,,,,,,,,,,,,,,,,,,,,,,,,,,,,,,,,,,,,,,,,,,,,,,,,,,,,,,,,
1737284040.246812,1737284040.247556,32.000000,0.000000,4334.743652,4349.743652,4266.794922,4320.256348,4351.025879,4351.794922,4350.769043,4556.794922,4560.897461,4562.436035,4500.769043,5641.794922,4317.051270,4266.410156,0.000000,1.000000,32.000000,,,,0.000000,0.000000,0.000000,0.000000,0.000000,0.000000,0.000000,0.000000,0.000000,0.000000,0.000000,0.000000,0.000000,0.000000,0.000000,0.000000,,,,,,,,,,,,,,,,,8.000000,0.000000,0.659922,-0.749268,0.019287,0.052246,-0.102063,-0.975705,-0.125504,15.473321,-30.732405,17.080151,,,,,,,,,,,,,,,,,,,,,,,,,,,,,,,,,,,,,,,,,,,,,,,,,,,,,,,,,,,,,,,,,,,,,,,,,,,,,,,,,,,,,,,,,,,,,,,,,,,,,
1737284040.254620,1737284040.255265,33.000000,0.000000,4332.563965,4346.538574,4255.128418,4313.846191,4351.410156,4352.948730,4355.384766,4560.897461,4559.871582,4563.589844,4497.820313,5636.282227,4317.307617,4257.307617,0.000000,1.000000,32.000000,,,,0.000000,0.000000,0.000000,0.000000,0.000000,0.000000,0.000000,0.000000,0.000000,0.000000,0.000000,0.000000,0.000000,0.000000,0.000000,0.000000,,,,,,,,,,,,,,,,,,,,,,,,,,,,,,,,,,,,,,,,,,,,,,,,,,,,,,,,,,,,,,,,,,,,,,,,,,,,,,,,,,,,,,,,,,,,,,,,,,,,,,,,,,,,,,,,,,,,,,,,,,,,,,,,,
1737284040.262428,1737284040.263073,34.000000,0.000000,4330.512695,4347.179688,4255.512695,4312.563965,4351.153809,4351.153809,4355.512695,4560.512695,4561.794922,4563.589844,4493.717773,5636.794922,4321.410156,4261.025879,0.000000,1.000000,32.000000,,,,0.000000,0.000000,0.000000,0.000000,0.000000,0.000000,0.000000,0.000000,0.000000,0.000000,0.000000,0.000000,0.000000,0.000000,0.000000,0.000000,,,,,,,,,,,,,,,,,,,,,,,,,,,,,,,,,,,,,,,,,,,,,,,,,,,,,,,,,,,,,,,,,,,,,,,,,,,,,,,,,,,,,,,,,,,,,,,,,,,,,,,,,,,,,,,,,,,,,,,,,,,,,,,,,
1737284040.270236,1737284040.270781,35.000000,0.000000,4332.563965,4349.743652,4264.230957,4315.128418,4350.641113,4347.307617,4346.666504,4560.256348,4565.512695,4563.846191,4498.333496,5644.230957,4330.769043,4273.333496,0.000000,1.000000,32.000000,,,,0.000000,0.000000,0.000000,0.000000,0.000000,0.000000,0.000000,0.000000,0.000000,0.000000,0.000000,0.000000,0.000000,0.000000,0.000000,0.000000,,,,,,,,,,,,,,,,,,,,,,,,,,,,,,,,,,,,,,,,,,,,,,,,,,,,,,,,,,,,,,,,,,,,,,,,,,,,,,,,,,,,,,,,,,,,,,,,,,,,,,,,,,,,,,,,,,,,,,,,,,,,,,,,,
1737284040.278045,1737284040.278589,36.000000,0.000000,4325.769043,4344.615234,4248.077148,4305.384766,4350.000000,4342.051270,4350.512695,4566.666504,4570.000000,4565.384766,4496.410156,5631.282227,4331.794922,4259.871582,0.000000,1.000000,32.000000,,,,0.000000,0.000000,0.000000,0.000000,0.000000,0.000000,0.000000,0.000000,0.000000,0.000000,0.000000,0.000000,0.000000,0.000000,0.000000,0.000000,,,,,,,,,,,,,,,,,9.000000,0.000000,0.659922,-0.749268,0.019287,0.052246,-0.105970,-0.984984,-0.125015,15.609322,-30.775829,17.122135,,,,,,,,,,,,,,,,,,,,,,,,,,,,,,,,,,,,,,,,,,,,,,,,,,,,,,,,,,,,,,,,,,,,,,,,,,,,,,,,,,,,,,,,,,,,,,,,,,,,,
1737284040.285853,1737284040.286297,37.000000,0.000000,4331.666504,4349.102539,4254.487305,4310.000000,4349.871582,4341.282227,4347.051270,4562.948730,4568.205078,4567.563965,4501.025879,5639.358887,4335.641113,4271.922852,0.000000,1.000000,32.000000,,,,0.000000,0.000000,0.000000,0.000000,0.000000,0.000000,0.000000,0.000000,0.000000,0.000000,0.000000,0.000000,0.000000,0.000000,0.000000,0.000000,,,,,,,,,,,,,,,,,,,,,,,,,,,,,,,,,,,,,,,,,,,,,,,,,,,,,,,,,,,,,,,,,,,,,,,,,,,,,,,,,,,,,,,,,,,,,,,,,,,,,,,,,,,,,,,,,,,,,,,,,,,,,,,,,
1737284040.293661,1737284040.294105,38.000000,0.000000,4329.102539,4348.589844,4261.922852,4317.436035,4350.512695,4357.563965,4358.333496,4558.077148,4558.974121,4564.615234,4495.641113,5637.051270,4314.743652,4263.077148,0.000000,1.000000,32.000000,,,,0.000000,0.000000,0.000000,0.000000,0.000000,0.000000,0.000000,0.000000,0.000000,0.000000,0.000000,0.000000,0.000000,0.000000,0.000000,0.000000,,,,,,,,,,,,,,,,,,,,,,,,,,,,,,,,,,,,,,,,,,,,,,,,,,,,,,,,,,,,,,,,,,,,,,,,,,,,,,,,,,,,,,,,,,,,,,,,,,,,,,,,,,,,,,,,,,,,,,,,,,,,,,,,,
1737284040.301469,1737284040.301813,39.000000,0.000000,4327.820313,4350.128418,4262.948730,4320.256348,4355.769043,4367.307617,4368.717773,4557.436035,4550.897461,4557.692383,4491.922852,5635.384766,4303.717773,4257.307617,0.000000,1.000000,32.000000,,,,0.000000,0.000000,0.000000,0.000000,0.000000,0.000000,0.000000,0.000000,0.000000,0.000000,0.000000,0.000000,0.000000,0.000000,0.000000,0.000000,,,,,,,,,,,,,,,,,,,,,,,,,,,,,,,,,,,,,,,,,,,,,,,,,,,,,,,,,,,,,,,,,,,,,,,,,,,,,,,,,,,,,,,,,,,,,,,,,,,,,,,,,,,,,,,,,,,,,,,,,,,,,,,,,
1737284040.309277,1737284040.309621,40.000000,0.000000,4335.384766,4355.128418,4270.384766,4321.666504,4357.179688,4362.179688,4364.230957,4555.128418,4548.205078,4556.538574,4498.205078,5646.282227,4310.897461,4270.769043,0.000000,1.000000,32.000000,,,,0.000000,0.000000,0.000000,0.000000,0.000000,0.000000,0.000000,0.000000,0.000000,0.000000,0.000000,0.000000,0.000000,0.000000,0.000000,0.000000,,,,,,,,,,,,,,,,,10.000000,0.000000,0.659918,-0.749268,0.019226,0.052307,-0.091808,-0.988402,-0.131364,15.665056,-30.748247,17.093254,,,,,,,,,,,,,,,,,,,,,,,,,,,,,,,,,,,,,,,,,,,,,,,,,,,,,,,,,,,,,,,,,,,,,,,,,,,,,,,,,,,,,,,,,,,,,,,,,,,,,
1737284040.317085,1737284040.317329,41.000000,0.000000,4330.641113,4349.615234,4264.230957,4317.179688,4351.410156,4363.589844,4369.615234,4556.794922,4550.384766,4561.025879,4491.538574,5634.358887,4298.461426,4252.179688,0.000000,1.000000,32.000000,,,,0.000000,0.000000,0.000000,0.000000,0.000000,0.000000,0.000000,0.000000,0.000000,0.000000,0.000000,0.000000,0.000000,0.000000,0.000000,0.000000,,,,,,,,,,,,,,,,,,,,,,,,,,,,,,,,,,,,,,,,,,,,,,,,,,,,,,,,,,,,,,,,,,,,,,,,,,,,,,,,,,,,,,,,,,,,,,,,,,,,,,,,,,,,,,,,,,,,,,,,,,,,,,,,,
1737284040.324893,1737284040.325137,42.000000,0.000000,4334.871582,4353.717773,4269.871582,4322.692383,4353.077148,4364.871582,4364.102539,4554.230957,4551.025879,4565.000000,4494.230957,5640.000000,4302.563965,4260.641113,0.000000,1.000000,32.000000,,,,0.000000,0.000000,0.000000,0.000000,0.000000,0.000000,0.000000,0.000000,0.000000,0.000000,0.000000,0.000000,0.000000,0.000000,0.000000,0.000000,,,,,,,,,,,,,,,,,,,,,,,,,,,,,,,,,,,,,,,,,,,,,,,,,,,,,,,,,,,,,,,,,,,,,,,,,,,,,,,,,,,,,,,,,,,,,,,,,,,,,,,,,,,,,,,,,,,,,,,,,,,,,,,,,
1737284040.332701,1737284040.332845,43.000000,0.000000,4333.461426,4353.333496,4269.230957,4323.974121,4356.666504,4362.820313,4365.641113,4554.615234,4551.282227,4563.589844,4495.000000,5640.897461,4306.538574,4263.717773,0.000000,1.000000,32.000000,,,,0.000000,0.000000,0.000000,0.000000,0.000000,0.000000,0.000000,0.000000,0.000000,0.000000,0.000000,0.000000,0.000000,0.000000,0.000000,0.000000,,,,,,,,,,,,,,,,,,,,,,,,,,,,,,,,,,,,,,,,,,,,,,,,,,,,,,,,,,,,,,,,,,,,,,,,,,,,,,,,,,,,,,,,,,,,,,,,,,,,,,,,,,,,,,,,,,,,,,,,,,,,,,,,,
1737284040.340509,1737284040.340653,44.000000,0.000000,4329.230957,4348.846191,4265.384766,4320.897461,4352.692383,4362.563965,4370.384766,4559.102539,4551.922852,4560.897461,4490.000000,5634.487305,4301.025879,4253.974121,0.000000,1.000000,32.000000,,,,0.000000,0.000000,0.000000,0.000000,0.000000,0.000000,0.000000,0.000000,0.000000,0.000000,0.000000,0.000000,0.000000,0.000000,0.000000,0.000000,1.000000,0.000000,0.000000,0.000000,0.000000,0.000000,0.000000,0.000000,0.000000,0.000000,0.000000,0.000000,0.000000,0.000000,0.000000,0.000000,11.000000,0.000000,0.659920,-0.749268,0.019165,0.052307,-0.105482,-0.983518,-0.122085,15.665217,-30.673422,17.183929,,,,,,,,,,,,,,,,,,,,,,,,,,,,,,,,0.025001,0.059457,0.036470,0.031793,0.018075,0.171838,0.055466,0.025956,0.032721,0.033179,0.633406,0.109764,0.062985,0.037486,0.035623,0.640778,0.202955,0.068929,0.026974,0.030004,0.045015,0.026210,0.030134,0.019916,0.019885,0.907524,0.217408,0.121109,0.052220,0.039739,1.143270,0.152618,0.130824,0.053808,0.037688,0.264560,0.087042,0.066918,0.014657,0.024394,0.720374,0.101104,0.073105,0.068446,0.024600,0.057357,0.037077,0.028361,0.041334,0.035317,0.097901,0.093601,0.024138,0.028750,0.035243,0.023478,0.008680,0.032173,0.026668,0.023498,2.291535,0.373890,0.257735,0.100701,0.028361,0.040593,0.034584,0.057181,0.026922,0.038684
1737284040.348317,1737284040.348361,45.000000,0.000000,4335.128418,4353.717773,4272.692383,4324.487305,4351.794922,4361.410156,4361.538574,4555.641113,4550.769043,4560.897461,4495.384766,5644.615234,4307.179688,4268.077148,0.000000,1.000000,32.000000,,,,0.000000,0.000000,0.000000,0.000000,0.000000,0.000000,0.000000,0.000000,0.000000,0.000000,0.000000,0.000000,0.000000,0.000000,0.000000,0.000000,,,,,,,,,,,,,,,,,,,,,,,,,,,,,,,,,,,,,,,,,,,,,,,,,,,,,,,,,,,,,,,,,,,,,,,,,,,,,,,,,,,,,,,,,,,,,,,,,,,,,,,,,,,,,,,,,,,,,,,,,,,,,,,,,
1737284040.356125,1737284040.356269,46.000000,0.000000,4331.025879,4350.384766,4263.974121,4320.384766,4354.871582,4363.205078,4366.282227,4553.717773,4551.025879,4562.051270,4493.077148,5633.974121,4302.436035,4258.717773,0.000000,1.000000,32.000000,,,,0.000000,0.000000,0.000000,0.000000,0.000000,0.000000,0.000000,0.000000,0.000000,0.000000,0.000000,0.000000,0.000000,0.000000,0.000000,0.000000,,,,,,,,,,,,,,,,,,,,,,,,,,,,,,,,,,,,,,,,,,,,,,,,,,,,,,,,,,,,,,,,,,,,,,,,,,,,,,,,,,,,,,,,,,,,,,,,,,,,,,,,,,,,,,,,,,,,,,,,,,,,,,,,,
1737284040.363933,1737284040.364077,47.000000,0.000000,4332.820313,4352.051270,4269.102539,4322.179688,4355.384766,4363.205078,4363.461426,4554.615234,4551.282227,4563.461426,4494.743652,5638.461426,4305.512695,4263.205078,0.000000,1.000000,32.000000,,,,0.000000,0.000000,0.000000,0.000000,0.000000,0.000000,0.000000,0.000000,0.000000,0.000000,0.000000,0.000000,0.000000,0.000000,0.000000,0.000000,,,,,,,,,,,,,,,,,,,,,,,,,,,,,,,,,,,,,,,,,,,,,,,,,,,,,,,,,,,,,,,,,,,,,,,,,,,,,,,,,,,,,,,,,,,,,,,,,,,,,,,,,,,,,,,,,,,,,,,,,,,,,,,,,
1737284040.371742,1737284040.371885,48.000000,0.000000,4333.333496,4355.384766,4272.179688,4323.846191,4354.358887,4361.282227,4362.820313,4556.794922,4551.282227,4563.077148,4494.358887,5645.512695,4307.179688,4266.410156,0.000000,1.000000,32.000000,,,,0.000000,0.000000,0.000000,0.000000,0.000000,0.000000,0.000000,0.000000,0.000000,0.000000,0.000000,0.000000,0.000000,0.000000,0.000000,0.000000,,,,,,,,,,,,,,,,,12.000000,0.000000,0.659851,-0.749329,0.019165,0.052307,-0.104017,-0.976682,-0.129899,15.882029,-30.706079,17.098869,,,,,,,,,,,,,,,,,,,,,,,,,,,,,,,,,,,,,,,,,,,,,,,,,,,,,,,,,,,,,,,,,,,,,,,,,,,,,,,,,,,,,,,,,,,,,,,,,,,,,
1737284040.379550,1737284040.379593,49.000000,0.000000,4328.461426,4353.846191,4266.282227,4321.282227,4355.384766,4363.589844,4371.922852,4558.846191,4551.025879,4562.692383,4493.333496,5636.153809,4300.128418,4256.538574,0.000000,1.000000,32.000000,,,,0.000000,0.000000,0.000000,0.000000,0.000000,0.000000,0.000000,0.000000,0.000000,0.000000,0.000000,0.000000,0.000000,0.000000,0.000000,0.000000,,,,,,,,,,,,,,,,,,,,,,,,,,,,,,,,,,,,,,,,,,,,,,,,,,,,,,,,,,,,,,,,,,,,,,,,,,,,,,,,,,,,,,,,,,,,,,,,,,,,,,,,,,,,,,,,,,,,,,,,,,,,,,,,,
1737284040.387358,1737284040.387502,50.000000,0.000000,4334.102539,4356.282227,4275.384766,4326.922852,4355.769043,4364.743652,4366.794922,4556.282227,4549.743652,4563.974121,4501.794922,5643.461426,4307.692383,4269.743652,0.000000,1.000000,32.000000,,,,0.000000,0.000000,0.000000,0.000000,0.000000,0.000000,0.000000,0.000000,0.000000,0.000000,0.000000,0.000000,0.000000,0.000000,0.000000,0.000000,,,,,,,,,,,,,,,,,,,,,,,,,,,,,,,,,,,,,,,,,,,,,,,,,,,,,,,,,,,,,,,,,,,,,,,,,,,,,,,,,,,,,,,,,,,,,,,,,,,,,,,,,,,,,,,,,,,,,,,,,,,,,,,,,
1737284040.395166,1737284040.395310,51.000000,0.000000,4328.589844,4351.538574,4267.179688,4320.641113,4352.692383,4364.102539,4369.358887,4557.436035,4550.641113,4563.461426,4493.717773,5638.077148,4304.358887,4259.871582,0.000000,1.000000,32.000000,,,,0.000000,0.000000,0.000000,0.000000,0.000000,0.000000,0.000000,0.000000,0.000000,0.000000,0.000000,0.000000,0.000000,0.000000,0.000000,0.000000,,,,,,,,,,,,,,,,,,,,,,,,,,,,,,,,,,,,,,,,,,,,,,,,,,,,,,,,,,,,,,,,,,,,,,,,,,,,,,,,,,,,,,,,,,,,,,,,,,,,,,,,,,,,,,,,,,,,,,,,,,,,,,,,,
1737284040.402974,1737284040.403218,52.000000,0.000000,4328.333496,4352.820313,4267.051270,4320.000000,4352.692383,4363.205078,4367.436035,4554.487305,4550.256348,4563.717773,4492.692383,5639.615234,4305.641113,4263.974121,0.000000,1.000000,32.000000,,,,0.000000,0.000000,0.000000,0.000000,0.000000,0.000000,0.000000,0.000000,0.000000,0.000000,0.000000,0.000000,0.000000,0.000000,0.000000,0.000000,,,,,,,,,,,,,,,,,13.000000,0.000000,0.659853,-0.749329,0.019104,0.052307,-0.108900,-0.980588,-0.124527,15.927159,-30.702139,17.055649,,,,,,,,,,,,,,,,,,,,,,,,,,,,,,,,,,,,,,,,,,,,,,,,,,,,,,,,,,,,,,,,,,,,,,,,,,,,,,,,,,,,,,,,,,,,,,,,,,,,,
1737284040.410782,1737284040.411026,53.000000,0.000000,4332.692383,4353.717773,4272.436035,4325.000000,4355.256348,4363.846191,4365.512695,4552.436035,4550.512695,4563.974121,4494.871582,5642.436035,4307.820313,4268.589844,0.000000,1.000000,32.000000,,,,0.000000,0.000000,0.000000,0.000000,0.000000,0.000000,0.000000,0.000000,0.000000,0.000000,0.000000,0.000000,0.000000,0.000000,0.000000,0.000000,,,,,,,,,,,,,,,,,,,,,,,,,,,,,,,,,,,,,,,,,,,,,,,,,,,,,,,,,,,,,,,,,,,,,,,,,,,,,,,,,,,,,,,,,,,,,,,,,,,,,,,,,,,,,,,,,,,,,,,,,,,,,,,,,
1737284040.418590,1737284040.418934,54.000000,0.000000,4329.743652,4348.205078,4261.922852,4319.487305,4356.153809,4362.051270,4372.307617,4557.948730,4552.563965,4562.820313,4488.589844,5631.410156,4298.077148,4250.641113,0.000000,1.000000,32.000000,,,,0.000000,0.000000,0.000000,0.000000,0.000000,0.000000,0.000000,0.000000,0.000000,0.000000,0.000000,0.000000,0.000000,0.000000,0.000000,0.000000,,,,,,,,,,,,,,,,,,,,,,,,,,,,,,,,,,,,,,,,,,,,,,,,,,,,,,,,,,,,,,,,,,,,,,,,,,,,,,,,,,,,,,,,,,,,,,,,,,,,,,,,,,,,,,,,,,,,,,,,,,,,,,,,,
1737284040.426398,1737284040.426742,55.000000,0.000000,4337.051270,4353.077148,4269.358887,4323.333496,4355.256348,4358.846191,4364.230957,4555.256348,4551.410156,4563.333496,4497.948730,5643.077148,4303.974121,4267.307617,0.000000,1.000000,32.000000,,,,0.000000,0.000000,0.000000,0.000000,0.000000,0.000000,0.000000,0.000000,0.000000,0.000000,0.000000,0.000000,0.000000,0.000000,0.000000,0.000000,,,,,,,,,,,,,,,,,,,,,,,,,,,,,,,,,,,,,,,,,,,,,,,,,,,,,,,,,,,,,,,,,,,,,,,,,,,,,,,,,,,,,,,,,,,,,,,,,,,,,,,,,,,,,,,,,,,,,,,,,,,,,,,,,
1737284040.434206,1737284040.434550,56.000000,0.000000,4333.077148,4350.256348,4269.487305,4323.077148,4353.205078,4363.077148,4365.769043,4552.692383,4550.769043,4563.974121,4497.820313,5639.230957,4302.436035,4264.230957,0.000000,1.000000,32.000000,,,,0.000000,0.000000,0.000000,0.000000,0.000000,0.000000,0.000000,0.000000,0.000000,0.000000,0.000000,0.000000,0.000000,0.000000,0.000000,0.000000,,,,,,,,,,,,,,,,,14.000000,0.000000,0.659787,-0.749390,0.018982,0.052307,-0.091808,-0.981077,-0.131364,15.934443,-30.698591,17.100084,,,,,,,,,,,,,,,,,,,,,,,,,,,,,,,,,,,,,,,,,,,,,,,,,,,,,,,,,,,,,,,,,,,,,,,,,,,,,,,,,,,,,,,,,,,,,,,,,,,,,
1737284040.442014,1737284040.442358,57.000000,0.000000,4328.974121,4351.153809,4266.922852,4321.666504,4354.358887,4363.974121,4367.692383,4552.051270,4552.436035,4564.230957,4495.000000,5636.282227,4303.846191,4259.358887,0.000000,1.000000,32.000000,,,,0.000000,0.000000,0.000000,0.000000,0.000000,0.000000,0.000000,0.000000,0.000000,0.000000,0.000000,0.000000,0.000000,0.000000,0.000000,0.000000,,,,,,,,,,,,,,,,,,,,,,,,,,,,,,,,,,,,,,,,,,,,,,,,,,,,,,,,,,,,,,,,,,,,,,,,,,,,,,,,,,,,,,,,,,,,,,,,,,,,,,,,,,,,,,,,,,,,,,,,,,,,,,,,,
1737284040.449823,1737284040.450066,58.000000,0.000000,4333.717773,4355.384766,4270.897461,4324.102539,4355.769043,4359.102539,4365.000000,4549.615234,4553.077148,4563.077148,4497.436035,5646.153809,4311.153809,4268.333496,0.000000,1.000000,32.000000,,,,0.000000,0.000000,0.000000,0.000000,0.000000,0.000000,0.000000,0.000000,0.000000,0.000000,0.000000,0.000000,0.000000,0.000000,0.000000,0.000000,,,,,,,,,,,,,,,,,,,,,,,,,,,,,,,,,,,,,,,,,,,,,,,,,,,,,,,,,,,,,,,,,,,,,,,,,,,,,,,,,,,,,,,,,,,,,,,,,,,,,,,,,,,,,,,,,,,,,,,,,,,,,,,,,
1737284040.457631,1737284040.457874,59.000000,0.000000,4330.256348,4349.102539,4266.025879,4322.948730,4353.974121,4360.641113,4371.282227,4554.102539,4550.512695,4561.794922,4491.025879,5635.256348,4303.589844,4254.487305,0.000000,1.000000,32.000000,,,,0.000000,0.000000,0.000000,0.000000,0.000000,0.000000,0.000000,0.000000,0.000000,0.000000,0.000000,0.000000,0.000000,0.000000,0.000000,0.000000,,,,,,,,,,,,,,,,,,,,,,,,,,,,,,,,,,,,,,,,,,,,,,,,,,,,,,,,,,,,,,,,,,,,,,,,,,,,,,,,,,,,,,,,,,,,,,,,,,,,,,,,,,,,,,,,,,,,,,,,,,,,,,,,,
1737284040.465439,1737284040.465582,60.000000,0.000000,4335.128418,4353.589844,4276.794922,4328.974121,4355.641113,4362.948730,4364.102539,4556.282227,4548.077148,4563.333496,4498.589844,5641.153809,4307.692383,4266.410156,0.000000,1.000000,32.000000,,,,0.000000,0.000000,0.000000,0.000000,0.000000,0.000000,0.000000,0.000000,0.000000,0.000000,0.000000,0.000000,0.000000,0.000000,0.000000,0.000000,,,,,,,,,,,,,,,,,15.000000,0.000000,0.659789,-0.749390,0.018921,0.052307,-0.094250,-0.985960,-0.125504,16.040998,-30.762066,17.156742,,,,,,,,,,,,,,,,,,,,,,,,,,,,,,,,0.024020,0.074917,0.032904,0.032981,0.018827,0.193833,0.063301,0.028394,0.031753,0.031500,0.720318,0.135709,0.076997,0.047652,0.038041,0.723070,0.219863,0.082549,0.029553,0.030940,0.047705,0.025914,0.039379,0.020996,0.021308,1.023502,0.253773,0.142552,0.066818,0.044319,1.316012,0.190137,0.173757,0.065935,0.044069,0.278670,0.093531,0.082473,0.017957,0.022416,0.821339,0.128737,0.088613,0.073598,0.025875,0.066734,0.030761,0.025062,0.039002,0.036500,0.100179,0.099779,0.024979,0.032334,0.033647,0.027298,0.008984,0.032618,0.023233,0.024708,2.591376,0.447610,0.339875,0.135497,0.035010,0.043247,0.037478,0.065512,0.030016,0.037827
1737284040.473247,1737284040.473390,61.000000,0.000000,4330.897461,4353.461426,4274.358887,4325.897461,4355.384766,4362.948730,4368.205078,4555.512695,4550.256348,4562.051270,4498.717773,5640.512695,4302.563965,4262.563965,0.000000,1.000000,32.000000,,,,0.000000,0.000000,0.000000,0.000000,0.000000,0.000000,0.000000,0.000000,0.000000,0.000000,0.000000,0.000000,0.000000,0.000000,0.000000,0.000000,,,,,,,,,,,,,,,,,,,,,,,,,,,,,,,,,,,,,,,,,,,,,,,,,,,,,,,,,,,,,,,,,,,,,,,,,,,,,,,,,,,,,,,,,,,,,,,,,,,,,,,,,,,,,,,,,,,,,,,,,,,,,,,,,
1737284040.481055,1737284040.481098,62.000000,0.000000,4331.025879,4350.769043,4267.692383,4322.436035,4352.820313,4362.307617,4372.948730,4555.512695,4550.256348,4560.641113,4491.922852,5634.487305,4297.179688,4252.436035,0.000000,1.000000,32.000000,,,,0.000000,0.000000,0.000000,0.000000,0.000000,0.000000,0.000000,0.000000,0.000000,0.000000,0.000000,0.000000,0.000000,0.000000,0.000000,0.000000,,,,,,,,,,,,,,,,,,,,,,,,,,,,,,,,,,,,,,,,,,,,,,,,,,,,,,,,,,,,,,,,,,,,,,,,,,,,,,,,,,,,,,,,,,,,,,,,,,,,,,,,,,,,,,,,,,,,,,,,,,,,,,,,,
1737284040.488863,1737284040.488906,63.000000,0.000000,4340.769043,4354.230957,4276.794922,4327.307617,4353.717773,4363.205078,4364.487305,4552.563965,4547.563965,4563.333496,4496.410156,5642.820313,4306.794922,4266.153809,0.000000,1.000000,32.000000,,,,0.000000,0.000000,0.000000,0.000000,0.000000,0.000000,0.000000,0.000000,0.000000,0.000000,0.000000,0.000000,0.000000,0.000000,0.000000,0.000000,,,,,,,,,,,,,,,,,,,,,,,,,,,,,,,,,,,,,,,,,,,,,,,,,,,,,,,,,,,,,,,,,,,,,,,,,,,,,,,,,,,,,,,,,,,,,,,,,,,,,,,,,,,,,,,,,,,,,,,,,,,,,,,,,
1737284040.496671,1737284040.496614,64.000000,0.000000,4329.743652,4347.948730,4268.846191,4322.563965,4354.230957,4366.153809,4371.666504,4552.820313,4550.769043,4562.307617,4492.948730,5634.615234,4301.282227,4258.077148,0.000000,1.000000,32.000000,,,,0.000000,0.000000,0.000000,0.000000,0.000000,0.000000,0.000000,0.000000,0.000000,0.000000,0.000000,0.000000,0.000000,0.000000,0.000000,0.000000,,,,,,,,,,,,,,,,,16.000000,0.000000,0.659784,-0.749390,0.018921,0.052368,-0.110365,-0.982542,-0.122574,16.036900,-30.669193,17.057735,,,,,,,,,,,,,,,,,,,,,,,,,,,,,,,,,,,,,,,,,,,,,,,,,,,,,,,,,,,,,,,,,,,,,,,,,,,,,,,,,,,,,,,,,,,,,,,,,,,,,
1737284040.504479,1737284040.504422,65.000000,0.000000,4328.589844,4352.051270,4270.128418,4325.897461,4353.846191,4363.974121,4369.487305,4551.666504,4553.589844,4559.871582,4495.897461,5640.897461,4303.333496,4266.410156,0.000000,1.000000,32.000000,,,,0.000000,0.000000,0.000000,0.000000,0.000000,0.000000,0.000000,0.000000,0.000000,0.000000,0.000000,0.000000,0.000000,0.000000,0.000000,0.000000,,,,,,,,,,,,,,,,,,,,,,,,,,,,,,,,,,,,,,,,,,,,,,,,,,,,,,,,,,,,,,,,,,,,,,,,,,,,,,,,,,,,,,,,,,,,,,,,,,,,,,,,,,,,,,,,,,,,,,,,,,,,,,,,,
1737284040.512287,1737284040.512130,66.000000,0.000000,4332.307617,4354.358887,4271.410156,4327.563965,4353.974121,4361.794922,4367.436035,4551.282227,4550.641113,4560.769043,4495.769043,5642.820313,4303.205078,4263.333496,0.000000,1.000000,32.000000,,,,0.000000,0.000000,0.000000,0.000000,0.000000,0.000000,0.000000,0.000000,0.000000,0.000000,0.000000,0.000000,0.000000,0.000000,0.000000,0.000000,,,,,,,,,,,,,,,,,,,,,,,,,,,,,,,,,,,,,,,,,,,,,,,,,,,,,,,,,,,,,,,,,,,,,,,,,,,,,,,,,,,,,,,,,,,,,,,,,,,,,,,,,,,,,,,,,,,,,,,,,,,,,,,,,
1737284040.520095,1737284040.519938,67.000000,0.000000,4329.871582,4350.512695,4269.102539,4320.512695,4355.641113,4360.256348,4370.897461,4554.743652,4550.641113,4564.102539,4492.307617,5636.538574,4300.897461,4251.025879,0.000000,1.000000,32.000000,,,,0.000000,0.000000,0.000000,0.000000,0.000000,0.000000,0.000000,0.000000,0.000000,0.000000,0.000000,0.000000,0.000000,0.000000,0.000000,0.000000,,,,,,,,,,,,,,,,,,,,,,,,,,,,,,,,,,,,,,,,,,,,,,,,,,,,,,,,,,,,,,,,,,,,,,,,,,,,,,,,,,,,,,,,,,,,,,,,,,,,,,,,,,,,,,,,,,,,,,,,,,,,,,,,,
1737284040.527903,1737284040.527646,68.000000,0.000000,4333.974121,4355.000000,4276.922852,4322.563965,4356.025879,4356.666504,4363.717773,4554.743652,4552.436035,4565.512695,4501.922852,5647.051270,4311.794922,4267.948730,0.000000,1.000000,32.000000,,,,0.000000,0.000000,0.000000,0.000000,0.000000,0.000000,0.000000,0.000000,0.000000,0.000000,0.000000,0.000000,0.000000,0.000000,0.000000,0.000000,,,,,,,,,,,,,,,,,17.000000,0.000000,0.659713,-0.749451,0.018982,0.052368,-0.104993,-0.980100,-0.132340,15.999876,-30.785606,17.035295,,,,,,,,,,,,,,,,,,,,,,,,,,,,,,,,,,,,,,,,,,,,,,,,,,,,,,,,,,,,,,,,,,,,,,,,,,,,,,,,,,,,,,,,,,,,,,,,,,,,,
1737284040.535712,1737284040.535554,69.000000,0.000000,4329.487305,4350.000000,4266.025879,4322.948730,4352.307617,4359.615234,4367.563965,4555.256348,4552.948730,4560.384766,4496.410156,5637.948730,4306.794922,4258.974121,0.000000,1.000000,32.000000,,,,0.000000,0.000000,0.000000,0.000000,0.000000,0.000000,0.000000,0.000000,0.000000,0.000000,0.000000,0.000000,0.000000,0.000000,0.000000,0.000000,,,,,,,,,,,,,,,,,,,,,,,,,,,,,,,,,,,,,,,,,,,,,,,,,,,,,,,,,,,,,,,,,,,,,,,,,,,,,,,,,,,,,,,,,,,,,,,,,,,,,,,,,,,,,,,,,,,,,,,,,,,,,,,,,
1737284040.543520,1737284040.543362,70.000000,0.000000,4334.102539,4349.487305,4267.692383,4326.025879,4353.333496,4360.897461,4362.948730,4552.307617,4552.307617,4559.743652,4491.922852,5640.000000,4307.436035,4258.974121,0.000000,1.000000,32.000000,,,,0.000000,0.000000,0.000000,0.000000,0.000000,0.000000,0.000000,0.000000,0.000000,0.000000,0.000000,0.000000,0.000000,0.000000,0.000000,0.000000,,,,,,,,,,,,,,,,,,,,,,,,,,,,,,,,,,,,,,,,,,,,,,,,,,,,,,,,,,,,,,,,,,,,,,,,,,,,,,,,,,,,,,,,,,,,,,,,,,,,,,,,,,,,,,,,,,,,,,,,,,,,,,,,,
1737284040.551328,1737284040.551271,71.000000,0.000000,4336.922852,4352.692383,4271.025879,4322.692383,4354.487305,4357.692383,4360.128418,4551.410156,4551.410156,4563.846191,4493.846191,5644.358887,4310.512695,4263.461426,0.000000,1.000000,32.000000,,,,0.000000,0.000000,0.000000,0.000000,0.000000,0.000000,0.000000,0.000000,0.000000,0.000000,0.000000,0.000000,0.000000,0.000000,0.000000,0.000000,,,,,,,,,,,,,,,,,,,,,,,,,,,,,,,,,,,,,,,,,,,,,,,,,,,,,,,,,,,,,,,,,,,,,,,,,,,,,,,,,,,,,,,,,,,,,,,,,,,,,,,,,,,,,,,,,,,,,,,,,,,,,,,,,
1737284040.559136,1737284040.559079,72.000000,0.000000,4330.641113,4348.205078,4260.000000,4314.230957,4352.948730,4356.922852,4365.256348,4556.153809,4552.051270,4561.666504,4493.077148,5633.461426,4306.153809,4254.102539,0.000000,1.000000,32.000000,,,,0.000000,0.000000,0.000000,0.000000,0.000000,0.000000,0.000000,0.000000,0.000000,0.000000,0.000000,0.000000,0.000000,0.000000,0.000000,0.000000,,,,,,,,,,,,,,,,,18.000000,0.000000,0.659780,-0.749390,0.019043,0.052368,-0.107923,-0.982053,-0.125015,16.016556,-30.807047,17.131765,,,,,,,,,,,,,,,,,,,,,,,,,,,,,,,,,,,,,,,,,,,,,,,,,,,,,,,,,,,,,,,,,,,,,,,,,,,,,,,,,,,,,,,,,,,,,,,,,,,,,
1737284040.566944,1737284040.566987,73.000000,0.000000,4335.128418,4349.743652,4266.794922,4318.461426,4353.974121,4357.692383,4355.256348,4558.589844,4555.384766,4560.512695,4499.871582,5643.974121,4314.743652,4269.615234,0.000000,1.000000,32.000000,,,,0.000000,0.000000,0.000000,0.000000,0.000000,0.000000,0.000000,0.000000,0.000000,0.000000,0.000000,0.000000,0.000000,0.000000,0.000000,0.000000,,,,,,,,,,,,,,,,,,,,,,,,,,,,,,,,,,,,,,,,,,,,,,,,,,,,,,,,,,,,,,,,,,,,,,,,,,,,,,,,,,,,,,,,,,,,,,,,,,,,,,,,,,,,,,,,,,,,,,,,,,,,,,,,,
1737284040.574752,1737284040.574795,74.000000,0.000000,4331.410156,4348.974121,4265.128418,4317.051270,4353.461426,4357.692383,4358.205078,4560.769043,4559.615234,4561.538574,4493.077148,5638.974121,4312.179688,4260.128418,0.000000,1.000000,32.000000,,,,0.000000,0.000000,0.000000,0.000000,0.000000,0.000000,0.000000,0.000000,0.000000,0.000000,0.000000,0.000000,0.000000,0.000000,0.000000,0.000000,,,,,,,,,,,,,,,,,,,,,,,,,,,,,,,,,,,,,,,,,,,,,,,,,,,,,,,,,,,,,,,,,,,,,,,,,,,,,,,,,,,,,,,,,,,,,,,,,,,,,,,,,,,,,,,,,,,,,,,,,,,,,,,,,
1737284040.582560,1737284040.582703,75.000000,0.000000,4332.436035,4351.794922,4266.666504,4315.897461,4352.307617,4354.743652,4360.897461,4556.282227,4556.153809,4560.512695,4491.410156,5635.256348,4311.794922,4260.512695,0.000000,1.000000,32.000000,,,,0.000000,0.000000,0.000000,0.000000,0.000000,0.000000,0.000000,0.000000,0.000000,0.000000,0.000000,0.000000,0.000000,0.000000,0.000000,0.000000,,,,,,,,,,,,,,,,,,,,,,,,,,,,,,,,,,,,,,,,,,,,,,,,,,,,,,,,,,,,,,,,,,,,,,,,,,,,,,,,,,,,,,,,,,,,,,,,,,,,,,,,,,,,,,,,,,,,,,,,,,,,,,,,,
1737284040.590368,1737284040.590511,76.000000,0.000000,4335.128418,4352.948730,4272.179688,4320.256348,4352.436035,4357.820313,4359.230957,4553.077148,4551.153809,4561.153809,4497.436035,5642.307617,4311.922852,4272.948730,0.000000,1.000000,32.000000,,,,0.000000,0.000000,0.000000,0.000000,0.000000,0.000000,0.000000,0.000000,0.000000,0.000000,0.000000,0.000000,0.000000,0.000000,0.000000,0.000000,,,,,,,,,,,,,,,,,19.000000,0.000000,0.659711,-0.749451,0.019043,0.052368,-0.097668,-0.985472,-0.125504,15.931566,-30.793009,17.168589,,,,,,,,,,,,,,,,,,,,,,,,,,,,,,,,0.022570,0.087607,0.029761,0.031755,0.019340,0.207439,0.068783,0.031389,0.028214,0.029084,0.765848,0.162405,0.090227,0.056028,0.041197,0.775883,0.222006,0.090612,0.032437,0.031898,0.048616,0.023656,0.046172,0.020400,0.022325,1.087836,0.276276,0.154741,0.083889,0.048793,1.388116,0.225979,0.207472,0.076691,0.049218,0.283233,0.101073,0.094404,0.022653,0.021504,0.873398,0.153521,0.100992,0.078399,0.027283,0.075134,0.025156,0.021401,0.036719,0.036988,0.097032,0.099718,0.030049,0.034197,0.032561,0.032350,0.010530,0.033608,0.020455,0.026349,2.710290,0.505878,0.403746,0.165872,0.041762,0.044956,0.043544,0.073259,0.033216,0.037759
1737284040.598176,1737284040.598419,77.000000,0.000000,4327.692383,4349.358887,4264.487305,4319.615234,4353.077148,4365.128418,4368.461426,4555.769043,4552.948730,4560.897461,4491.410156,5633.461426,4301.153809,4254.871582,0.000000,1.000000,32.000000,,,,0.000000,0.000000,0.000000,0.000000,0.000000,0.000000,0.000000,0.000000,0.000000,0.000000,0.000000,0.000000,0.000000,0.000000,0.000000,0.000000,,,,,,,,,,,,,,,,,,,,,,,,,,,,,,,,,,,,,,,,,,,,,,,,,,,,,,,,,,,,,,,,,,,,,,,,,,,,,,,,,,,,,,,,,,,,,,,,,,,,,,,,,,,,,,,,,,,,,,,,,,,,,,,,,
1737284040.605984,1737284040.606227,78.000000,0.000000,4334.743652,4356.025879,4272.051270,4323.589844,4354.102539,4364.358887,4364.871582,4551.282227,4550.897461,4559.615234,4495.897461,5641.538574,4305.769043,4263.333496,0.000000,1.000000,32.000000,,,,0.000000,0.000000,0.000000,0.000000,0.000000,0.000000,0.000000,0.000000,0.000000,0.000000,0.000000,0.000000,0.000000,0.000000,0.000000,0.000000,,,,,,,,,,,,,,,,,,,,,,,,,,,,,,,,,,,,,,,,,,,,,,,,,,,,,,,,,,,,,,,,,,,,,,,,,,,,,,,,,,,,,,,,,,,,,,,,,,,,,,,,,,,,,,,,,,,,,,,,,,,,,,,,,
1737284040.613793,1737284040.614135,79.000000,0.000000,4334.615234,4352.820313,4269.871582,4320.384766,4353.205078,4366.410156,4370.384766,4550.256348,4545.128418,4559.487305,4495.000000,5640.128418,4297.948730,4261.922852,0.000000,1.000000,32.000000,,,,0.000000,0.000000,0.000000,0.000000,0.000000,0.000000,0.000000,0.000000,0.000000,0.000000,0.000000,0.000000,0.000000,0.000000,0.000000,0.000000,,,,,,,,,,,,,,,,,,,,,,,,,,,,,,,,,,,,,,,,,,,,,,,,,,,,,,,,,,,,,,,,,,,,,,,,,,,,,,,,,,,,,,,,,,,,,,,,,,,,,,,,,,,,,,,,,,,,,,,,,,,,,,,,,
1737284040.621601,1737284040.621943,80.000000,0.000000,4332.051270,4352.179688,4270.000000,4322.692383,4353.974121,4371.794922,4378.077148,4551.922852,4542.307617,4560.512695,4490.512695,5637.179688,4289.230957,4257.436035,0.000000,1.000000,32.000000,,,,0.000000,0.000000,0.000000,0.000000,0.000000,0.000000,0.000000,0.000000,0.000000,0.000000,0.000000,0.000000,0.000000,0.000000,0.000000,0.000000,,,,,,,,,,,,,,,,,20.000000,0.000000,0.659783,-0.749390,0.019104,0.052307,-0.113783,-0.986449,-0.133805,15.855076,-30.747040,17.151730,,,,,,,,,,,,,,,,,,,,,,,,,,,,,,,,,,,,,,,,,,,,,,,,,,,,,,,,,,,,,,,,,,,,,,,,,,,,,,,,,,,,,,,,,,,,,,,,,,,,,
1737284040.629409,1737284040.629850,81.000000,0.000000,4338.333496,4360.512695,4281.794922,4334.358887,4356.538574,4370.897461,4374.487305,4549.358887,4542.948730,4560.000000,4494.743652,5645.128418,4294.743652,4266.794922,0.000000,1.000000,32.000000,,,,0.000000,0.000000,0.000000,0.000000,0.000000,0.000000,0.000000,0.000000,0.000000,0.000000,0.000000,0.000000,0.000000,0.000000,0.000000,0.000000,,,,,,,,,,,,,,,,,,,,,,,,,,,,,,,,,,,,,,,,,,,,,,,,,,,,,,,,,,,,,,,,,,,,,,,,,,,,,,,,,,,,,,,,,,,,,,,,,,,,,,,,,,,,,,,,,,,,,,,,,,,,,,,,,
1737284040.637217,1737284040.637658,82.000000,0.000000,4334.230957,4354.358887,4273.333496,4329.871582,4357.051270,4371.025879,4380.256348,4549.743652,4543.333496,4556.282227,4490.128418,5635.897461,4288.333496,4251.282227,0.000000,1.000000,32.000000,,,,0.000000,0.000000,0.000000,0.000000,0.000000,0.000000,0.000000,0.000000,0.000000,0.000000,0.000000,0.000000,0.000000,0.000000,0.000000,0.000000,,,,,,,,,,,,,,,,,,,,,,,,,,,,,,,,,,,,,,,,,,,,,,,,,,,,,,,,,,,,,,,,,,,,,,,,,,,,,,,,,,,,,,,,,,,,,,,,,,,,,,,,,,,,,,,,,,,,,,,,,,,,,,,,,
1737284040.645025,1737284040.645366,83.000000,0.000000,4336.410156,4354.230957,4277.563965,4328.846191,4357.051270,4371.922852,4375.128418,4548.205078,4542.307617,4555.641113,4492.307617,5644.615234,4291.282227,4261.153809,0.000000,1.000000,32.000000,,,,0.000000,0.000000,0.000000,0.000000,0.000000,0.000000,0.000000,0.000000,0.000000,0.000000,0.000000,0.000000,0.000000,0.000000,0.000000,0.000000,,,,,,,,,,,,,,,,,,,,,,,,,,,,,,,,,,,,,,,,,,,,,,,,,,,,,,,,,,,,,,,,,,,,,,,,,,,,,,,,,,,,,,,,,,,,,,,,,,,,,,,,,,,,,,,,,,,,,,,,,,,,,,,,,
1737284040.652833,1737284040.653174,84.000000,0.000000,4334.743652,4356.794922,4281.410156,4328.589844,4358.717773,4372.563965,4374.615234,4548.846191,4545.641113,4558.077148,4493.846191,5645.897461,4290.769043,4264.743652,0.000000,1.000000,32.000000,,,,0.000000,0.000000,0.000000,0.000000,0.000000,0.000000,0.000000,0.000000,0.000000,0.000000,0.000000,0.000000,0.000000,0.000000,0.000000,0.000000,,,,,,,,,,,,,,,,,21.000000,0.000000,0.659792,-0.749390,0.018982,0.052246,-0.094738,-0.988402,-0.121597,15.786235,-30.705669,17.136557,,,,,,,,,,,,,,,,,,,,,,,,,,,,,,,,,,,,,,,,,,,,,,,,,,,,,,,,,,,,,,,,,,,,,,,,,,,,,,,,,,,,,,,,,,,,,,,,,,,,,
1737284040.660641,1737284040.660883,85.000000,0.000000,4332.051270,4355.128418,4278.333496,4327.436035,4360.512695,4372.051270,4377.051270,4550.128418,4547.692383,4560.512695,4492.948730,5638.589844,4286.922852,4256.025879,0.000000,1.000000,32.000000,,,,0.000000,0.000000,0.000000,0.000000,0.000000,0.000000,0.000000,0.000000,0.000000,0.000000,0.000000,0.000000,0.000000,0.000000,0.000000,0.000000,,,,,,,,,,,,,,,,,,,,,,,,,,,,,,,,,,,,,,,,,,,,,,,,,,,,,,,,,,,,,,,,,,,,,,,,,,,,,,,,,,,,,,,,,,,,,,,,,,,,,,,,,,,,,,,,,,,,,,,,,,,,,,,,,
1737284040.668449,1737284040.668791,86.000000,0.000000,4336.538574,4357.179688,4284.358887,4332.692383,4358.589844,4367.948730,4370.000000,4547.948730,4544.102539,4559.487305,4495.769043,5645.384766,4296.025879,4267.179688,0.000000,1.000000,32.000000,,,,0.000000,0.000000,0.000000,0.000000,0.000000,0.000000,0.000000,0.000000,0.000000,0.000000,0.000000,0.000000,0.000000,0.000000,0.000000,0.000000,,,,,,,,,,,,,,,,,,,,,,,,,,,,,,,,,,,,,,,,,,,,,,,,,,,,,,,,,,,,,,,,,,,,,,,,,,,,,,,,,,,,,,,,,,,,,,,,,,,,,,,,,,,,,,,,,,,,,,,,,,,,,,,,,
1737284040.676257,1737284040.676599,87.000000,0.000000,4329.102539,4352.563965,4273.589844,4326.153809,4352.820313,4366.538574,4374.743652,4552.051270,4545.769043,4558.333496,4490.256348,5633.333496,4292.563965,4257.179688,0.000000,1.000000,32.000000,,,,0.000000,0.000000,0.000000,0.000000,0.000000,0.000000,0.000000,0.000000,0.000000,0.000000,0.000000,0.000000,0.000000,0.000000,0.000000,0.000000,,,,,,,,,,,,,,,,,,,,,,,,,,,,,,,,,,,,,,,,,,,,,,,,,,,,,,,,,,,,,,,,,,,,,,,,,,,,,,,,,,,,,,,,,,,,,,,,,,,,,,,,,,,,,,,,,,,,,,,,,,,,,,,,,
1737284040.684065,1737284040.684507,88.000000,0.000000,4334.102539,4353.077148,4273.077148,4325.769043,4353.461426,4366.410156,4368.717773,4554.615234,4548.974121,4562.307617,4493.205078,5637.563965,4296.025879,4263.461426,0.000000,1.000000,32.000000,,,,0.000000,0.000000,0.000000,0.000000,0.000000,0.000000,0.000000,0.000000,0.000000,0.000000,0.000000,0.000000,0.000000,0.000000,0.000000,0.000000,,,,,,,,,,,,,,,,,22.000000,0.000000,0.659794,-0.749390,0.018921,0.052246,-0.106458,-0.977170,-0.128434,15.807611,-30.618437,17.256235,,,,,,,,,,,,,,,,,,,,,,,,,,,,,,,,,,,,,,,,,,,,,,,,,,,,,,,,,,,,,,,,,,,,,,,,,,,,,,,,,,,,,,,,,,,,,,,,,,,,,
1737284040.691873,1737284040.692315,89.000000,0.000000,4337.179688,4353.077148,4274.487305,4327.563965,4357.436035,4365.256348,4364.743652,4554.487305,4547.820313,4562.179688,4493.077148,5644.230957,4300.769043,4268.974121,0.000000,1.000000,32.000000,,,,0.000000,0.000000,0.000000,0.000000,0.000000,0.000000,0.000000,0.000000,0.000000,0.000000,0.000000,0.000000,0.000000,0.000000,0.000000,0.000000,,,,,,,,,,,,,,,,,,,,,,,,,,,,,,,,,,,,,,,,,,,,,,,,,,,,,,,,,,,,,,,,,,,,,,,,,,,,,,,,,,,,,,,,,,,,,,,,,,,,,,,,,,,,,,,,,,,,,,,,,,,,,,,,,
1737284040.699681,1737284040.700123,90.000000,0.000000,4328.974121,4349.230957,4267.820313,4322.179688,4355.641113,4363.974121,4368.717773,4556.538574,4549.230957,4561.410156,4489.615234,5636.153809,4298.205078,4256.538574,0.000000,1.000000,32.000000,,,,0.000000,0.000000,0.000000,0.000000,0.000000,0.000000,0.000000,0.000000,0.000000,0.000000,0.000000,0.000000,0.000000,0.000000,0.000000,0.000000,,,,,,,,,,,,,,,,,,,,,,,,,,,,,,,,,,,,,,,,,,,,,,,,,,,,,,,,,,,,,,,,,,,,,,,,,,,,,,,,,,,,,,,,,,,,,,,,,,,,,,,,,,,,,,,,,,,,,,,,,,,,,,,,,
1737284040.707490,1737284040.707831,91.000000,0.000000,4333.205078,4353.846191,4275.128418,4322.948730,4352.051270,4359.487305,4360.512695,4555.512695,4552.179688,4563.717773,4500.384766,5645.641113,4306.666504,4266.538574,0.000000,1.000000,32.000000,,,,0.000000,0.000000,0.000000,0.000000,0.000000,0.000000,0.000000,0.000000,0.000000,0.000000,0.000000,0.000000,0.000000,0.000000,0.000000,0.000000,,,,,,,,,,,,,,,,,,,,,,,,,,,,,,,,,,,,,,,,,,,,,,,,,,,,,,,,,,,,,,,,,,,,,,,,,,,,,,,,,,,,,,,,,,,,,,,,,,,,,,,,,,,,,,,,,,,,,,,,,,,,,,,,,
1737284040.715298,1737284040.715639,92.000000,0.000000,4330.769043,4350.384766,4269.487305,4319.358887,4351.538574,4357.563965,4365.897461,4556.025879,4553.333496,4562.307617,4497.179688,5640.256348,4304.102539,4260.384766,0.000000,1.000000,32.000000,,,,0.000000,0.000000,0.000000,0.000000,0.000000,0.000000,0.000000,0.000000,0.000000,0.000000,0.000000,0.000000,0.000000,0.000000,0.000000,0.000000,,,,,,,,,,,,,,,,,23.000000,0.000000,0.659597,-0.749573,0.018860,0.052124,-0.098645,-0.987914,-0.125504,15.776851,-30.623259,17.147278,,,,,,,,,,,,,,,,,,,,,,,,,,,,,,,,0.021334,0.094265,0.026715,0.029058,0.019809,0.212715,0.070724,0.034873,0.023117,0.026457,0.782956,0.188052,0.100756,0.060953,0.045031,0.811052,0.212273,0.092127,0.035149,0.032638,0.049232,0.020523,0.048158,0.018612,0.022894,1.123775,0.284766,0.156749,0.101833,0.051633,1.372880,0.256742,0.223462,0.083785,0.052028,0.284749,0.111368,0.097996,0.028158,0.022056,0.886808,0.174324,0.110552,0.083171,0.028436,0.081765,0.020728,0.018856,0.035847,0.036677,0.090707,0.093633,0.036870,0.033934,0.032967,0.037157,0.013021,0.034742,0.018853,0.028096,2.700286,0.553289,0.435424,0.187232,0.046781,0.046197,0.052524,0.081037,0.035984,0.037949
1737284040.723106,1737284040.723347,93.000000,0.000000,4333.333496,4350.769043,4269.743652,4321.794922,4354.487305,4358.333496,4365.512695,4555.128418,4552.179688,4561.666504,4493.974121,5637.692383,4306.025879,4262.563965,0.000000,1.000000,32.000000,,,,0.000000,0.000000,0.000000,0.000000,0.000000,0.000000,0.000000,0.000000,0.000000,0.000000,0.000000,0.000000,0.000000,0.000000,0.000000,0.000000,,,,,,,,,,,,,,,,,,,,,,,,,,,,,,,,,,,,,,,,,,,,,,,,,,,,,,,,,,,,,,,,,,,,,,,,,,,,,,,,,,,,,,,,,,,,,,,,,,,,,,,,,,,,,,,,,,,,,,,,,,,,,,,,,
1737284040.730914,1737284040.731256,94.000000,0.000000,4335.512695,4355.000000,4272.820313,4325.384766,4355.769043,4358.846191,4360.000000,4556.153809,4554.230957,4564.230957,4497.563965,5641.794922,4309.743652,4269.230957,0.000000,1.000000,32.000000,,,,0.000000,0.000000,0.000000,0.000000,0.000000,0.000000,0.000000,0.000000,0.000000,0.000000,0.000000,0.000000,0.000000,0.000000,0.000000,0.000000,,,,,,,,,,,,,,,,,,,,,,,,,,,,,,,,,,,,,,,,,,,,,,,,,,,,,,,,,,,,,,,,,,,,,,,,,,,,,,,,,,,,,,,,,,,,,,,,,,,,,,,,,,,,,,,,,,,,,,,,,,,,,,,,,
1737284040.738722,1737284040.739064,95.000000,0.000000,4328.589844,4348.846191,4262.948730,4318.846191,4353.077148,4357.948730,4367.948730,4559.230957,4557.692383,4563.461426,4493.589844,5635.769043,4303.077148,4256.282227,0.000000,1.000000,32.000000,,,,0.000000,0.000000,0.000000,0.000000,0.000000,0.000000,0.000000,0.000000,0.000000,0.000000,0.000000,0.000000,0.000000,0.000000,0.000000,0.000000,,,,,,,,,,,,,,,,,,,,,,,,,,,,,,,,,,,,,,,,,,,,,,,,,,,,,,,,,,,,,,,,,,,,,,,,,,,,,,,,,,,,,,,,,,,,,,,,,,,,,,,,,,,,,,,,,,,,,,,,,,,,,,,,,
1737284040.746530,1737284040.746872,96.000000,0.000000,4334.358887,4348.974121,4269.615234,4321.794922,4353.205078,4356.922852,4365.384766,4556.153809,4553.974121,4562.436035,4497.179688,5645.897461,4310.512695,4265.512695,0.000000,1.000000,32.000000,,,,0.000000,0.000000,0.000000,0.000000,0.000000,0.000000,0.000000,0.000000,0.000000,0.000000,0.000000,0.000000,0.000000,0.000000,0.000000,0.000000,,,,,,,,,,,,,,,,,24.000000,0.000000,0.659599,-0.749573,0.018799,0.052124,-0.091320,-0.989867,-0.121109,15.632499,-30.677601,16.965883,,,,,,,,,,,,,,,,,,,,,,,,,,,,,,,,,,,,,,,,,,,,,,,,,,,,,,,,,,,,,,,,,,,,,,,,,,,,,,,,,,,,,,,,,,,,,,,,,,,,,
1737284040.754338,1737284040.754580,97.000000,0.000000,4331.922852,4349.102539,4270.256348,4323.846191,4354.615234,4359.871582,4367.307617,4556.153809,4553.205078,4561.410156,4493.333496,5638.974121,4308.333496,4259.615234,0.000000,1.000000,32.000000,,,,0.000000,0.000000,0.000000,0.000000,0.000000,0.000000,0.000000,0.000000,0.000000,0.000000,0.000000,0.000000,0.000000,0.000000,0.000000,0.000000,,,,,,,,,,,,,,,,,,,,,,,,,,,,,,,,,,,,,,,,,,,,,,,,,,,,,,,,,,,,,,,,,,,,,,,,,,,,,,,,,,,,,,,,,,,,,,,,,,,,,,,,,,,,,,,,,,,,,,,,,,,,,,,,,
1737284040.762146,1737284040.762488,98.000000,0.000000,4331.025879,4351.922852,4268.974121,4321.410156,4354.102539,4360.897461,4367.820313,4556.794922,4555.512695,4559.487305,4493.974121,5636.282227,4304.871582,4258.846191,0.000000,1.000000,32.000000,,,,0.000000,0.000000,0.000000,0.000000,0.000000,0.000000,0.000000,0.000000,0.000000,0.000000,0.000000,0.000000,0.000000,0.000000,0.000000,0.000000,,,,,,,,,,,,,,,,,,,,,,,,,,,,,,,,,,,,,,,,,,,,,,,,,,,,,,,,,,,,,,,,,,,,,,,,,,,,,,,,,,,,,,,,,,,,,,,,,,,,,,,,,,,,,,,,,,,,,,,,,,,,,,,,,
1737284040.769954,1737284040.770296,99.000000,0.000000,4337.051270,4353.077148,4270.128418,4320.128418,4352.436035,4358.205078,4362.307617,4552.692383,4552.436035,4560.512695,4500.512695,5647.051270,4308.974121,4269.102539,0.000000,1.000000,32.000000,,,,0.000000,0.000000,0.000000,0.000000,0.000000,0.000000,0.000000,0.000000,0.000000,0.000000,0.000000,0.000000,0.000000,0.000000,0.000000,0.000000,,,,,,,,,,,,,,,,,,,,,,,,,,,,,,,,,,,,,,,,,,,,,,,,,,,,,,,,,,,,,,,,,,,,,,,,,,,,,,,,,,,,,,,,,,,,,,,,,,,,,,,,,,,,,,,,,,,,,,,,,,,,,,,,,
1737284040.777762,1737284040.778204,100.000000,0.000000,4331.538574,4345.256348,4260.256348,4318.205078,4352.307617,4358.461426,4367.436035,4552.436035,4551.666504,4563.205078,4493.205078,5636.794922,4305.000000,4254.358887,0.000000,1.000000,32.000000,,,,0.000000,0.000000,0.000000,0.000000,0.000000,0.000000,0.000000,0.000000,0.000000,0.000000,0.000000,0.000000,0.000000,0.000000,0.000000,0.000000,,,,,,,,,,,,,,,,,25.000000,0.000000,0.659597,-0.749573,0.018860,0.052124,-0.105482,-0.980588,-0.122574,15.702582,-30.593174,17.019295,,,,,,,,,,,,,,,,,,,,,,,,,,,,,,,,,,,,,,,,,,,,,,,,,,,,,,,,,,,,,,,,,,,,,,,,,,,,,,,,,,,,,,,,,,,,,,,,,,,,,
1737284040.785571,1737284040.786012,101.000000,0.000000,4332.820313,4351.410156,4270.000000,4324.743652,4354.102539,4359.102539,4361.538574,4553.077148,4554.102539,4564.230957,4496.666504,5643.205078,4312.820313,4264.871582,0.000000,1.000000,32.000000,,,,0.000000,0.000000,0.000000,0.000000,0.000000,0.000000,0.000000,0.000000,0.000000,0.000000,0.000000,0.000000,0.000000,0.000000,0.000000,0.000000,,,,,,,,,,,,,,,,,,,,,,,,,,,,,,,,,,,,,,,,,,,,,,,,,,,,,,,,,,,,,,,,,,,,,,,,,,,,,,,,,,,,,,,,,,,,,,,,,,,,,,,,,,,,,,,,,,,,,,,,,,,,,,,,,
1737284040.793378,1737284040.793920,102.000000,0.000000,4330.769043,4354.230957,4270.256348,4321.410156,4354.358887,4361.025879,4361.666504,4557.948730,4552.692383,4562.051270,4495.769043,5644.743652,4310.000000,4263.461426,0.000000,1.000000,32.000000,,,,0.000000,0.000000,0.000000,0.000000,0.000000,0.000000,0.000000,0.000000,0.000000,0.000000,0.000000,0.000000,0.000000,0.000000,0.000000,0.000000,,,,,,,,,,,,,,,,,,,,,,,,,,,,,,,,,,,,,,,,,,,,,,,,,,,,,,,,,,,,,,,,,,,,,,,,,,,,,,,,,,,,,,,,,,,,,,,,,,,,,,,,,,,,,,,,,,,,,,,,,,,,,,,,,
1737284040.801187,1737284040.801828,103.000000,0.000000,4329.487305,4350.128418,4264.615234,4318.333496,4354.230957,4361.025879,4365.897461,4558.846191,4551.666504,4562.563965,4492.563965,5638.846191,4301.410156,4254.871582,0.000000,1.000000,32.000000,,,,0.000000,0.000000,0.000000,0.000000,0.000000,0.000000,0.000000,0.000000,0.000000,0.000000,0.000000,0.000000,0.000000,0.000000,0.000000,0.000000,,,,,,,,,,,,,,,,,,,,,,,,,,,,,,,,,,,,,,,,,,,,,,,,,,,,,,,,,,,,,,,,,,,,,,,,,,,,,,,,,,,,,,,,,,,,,,,,,,,,,,,,,,,,,,,,,,,,,,,,,,,,,,,,,
1737284040.808995,1737284040.809636,104.000000,0.000000,4336.025879,4352.179688,4275.000000,4325.128418,4354.487305,4359.743652,4361.282227,4553.205078,4553.333496,4565.256348,4499.615234,5645.000000,4307.307617,4266.922852,0.000000,1.000000,32.000000,,,,0.000000,0.000000,0.000000,0.000000,0.000000,0.000000,0.000000,0.000000,0.000000,0.000000,0.000000,0.000000,0.000000,0.000000,0.000000,0.000000,,,,,,,,,,,,,,,,,26.000000,0.000000,0.659528,-0.749634,0.018860,0.052124,-0.099133,-0.976193,-0.125504,15.732324,-30.600523,17.067366,,,,,,,,,,,,,,,,,,,,,,,,,,,,,,,,,,,,,,,,,,,,,,,,,,,,,,,,,,,,,,,,,,,,,,,,,,,,,,,,,,,,,,,,,,,,,,,,,,,,,
1737284040.816803,1737284040.817445,105.000000,0.000000,4329.230957,4350.000000,4269.743652,4320.641113,4353.974121,4361.922852,4367.692383,4557.179688,4553.077148,4563.846191,4493.974121,5636.666504,4303.461426,4254.487305,0.000000,1.000000,32.000000,,,,0.000000,0.000000,0.000000,0.000000,0.000000,0.000000,0.000000,0.000000,0.000000,0.000000,0.000000,0.000000,0.000000,0.000000,0.000000,0.000000,,,,,,,,,,,,,,,,,,,,,,,,,,,,,,,,,,,,,,,,,,,,,,,,,,,,,,,,,,,,,,,,,,,,,,,,,,,,,,,,,,,,,,,,,,,,,,,,,,,,,,,,,,,,,,,,,,,,,,,,,,,,,,,,,
1737284040.824611,1737284040.825153,106.000000,0.000000,4331.153809,4352.307617,4270.641113,4323.077148,4356.666504,4359.615234,4364.102539,4558.205078,4551.410156,4563.717773,4494.358887,5641.794922,4305.000000,4262.179688,0.000000,1.000000,32.000000,,,,0.000000,0.000000,0.000000,0.000000,0.000000,0.000000,0.000000,0.000000,0.000000,0.000000,0.000000,0.000000,0.000000,0.000000,0.000000,0.000000,,,,,,,,,,,,,,,,,,,,,,,,,,,,,,,,,,,,,,,,,,,,,,,,,,,,,,,,,,,,,,,,,,,,,,,,,,,,,,,,,,,,,,,,,,,,,,,,,,,,,,,,,,,,,,,,,,,,,,,,,,,,,,,,,
1737284040.832419,1737284040.832961,107.000000,0.000000,4335.000000,4351.538574,4270.128418,4325.769043,4356.794922,4357.051270,4361.922852,4553.333496,4553.205078,4563.589844,4496.922852,5643.077148,4305.128418,4266.153809,0.000000,1.000000,32.000000,,,,0.000000,0.000000,0.000000,0.000000,0.000000,0.000000,0.000000,0.000000,0.000000,0.000000,0.000000,0.000000,0.000000,0.000000,0.000000,0.000000,,,,,,,,,,,,,,,,,,,,,,,,,,,,,,,,,,,,,,,,,,,,,,,,,,,,,,,,,,,,,,,,,,,,,,,,,,,,,,,,,,,,,,,,,,,,,,,,,,,,,,,,,,,,,,,,,,,,,,,,,,,,,,,,,
1737284040.840227,1737284040.840669,108.000000,0.000000,4332.307617,4350.256348,4262.179688,4319.230957,4353.077148,4359.487305,4366.794922,4553.077148,4555.128418,4560.000000,4494.615234,5636.410156,4301.922852,4255.897461,0.000000,1.000000,32.000000,,,,0.000000,0.000000,0.000000,0.000000,0.000000,0.000000,0.000000,0.000000,0.000000,0.000000,0.000000,0.000000,0.000000,0.000000,0.000000,0.000000,1.000000,0.000000,0.000000,0.000000,0.000000,0.000000,0.000000,0.000000,0.000000,0.000000,0.000000,0.000000,0.000000,0.000000,0.000000,0.000000,27.000000,0.000000,0.659458,-0.749695,0.018860,0.052124,-0.111830,-0.970822,-0.124039,15.709091,-30.523804,17.027296,,,,,,,,,,,,,,,,,,,,,,,,,,,,,,,,0.020626,0.092972,0.023932,0.026284,0.020528,0.211717,0.068471,0.038452,0.017782,0.024027,0.793715,0.207573,0.106767,0.061751,0.049072,0.840518,0.194059,0.088238,0.037681,0.033087,0.051015,0.017891,0.044758,0.016534,0.023133,1.158212,0.282571,0.151485,0.118151,0.052085,1.311457,0.279769,0.220327,0.085638,0.052000,0.288435,0.122715,0.090914,0.033930,0.023828,0.882276,0.188569,0.118995,0.087713,0.028976,0.086201,0.017541,0.018381,0.036770,0.035539,0.083835,0.082815,0.042617,0.032204,0.035122,0.040533,0.016360,0.035418,0.018369,0.029499,2.641911,0.592650,0.432433,0.198052,0.048769,0.047773,0.062859,0.088557,0.037809,0.038253
1737284040.848035,1737284040.848477,109.000000,0.000000,4335.897461,4356.025879,4268.205078,4319.358887,4353.846191,4360.769043,4360.641113,4553.974121,4555.384766,4560.384766,4498.974121,5646.153809,4308.846191,4268.589844,0.000000,1.000000,32.000000,,,,0.000000,0.000000,0.000000,0.000000,0.000000,0.000000,0.000000,0.000000,0.000000,0.000000,0.000000,0.000000,0.000000,0.000000,0.000000,0.000000,,,,,,,,,,,,,,,,,,,,,,,,,,,,,,,,,,,,,,,,,,,,,,,,,,,,,,,,,,,,,,,,,,,,,,,,,,,,,,,,,,,,,,,,,,,,,,,,,,,,,,,,,,,,,,,,,,,,,,,,,,,,,,,,,
1737284040.855843,1737284040.856185,110.000000,0.000000,4328.974121,4350.384766,4261.794922,4316.666504,4354.102539,4360.769043,4363.077148,4556.922852,4557.820313,4561.666504,4493.717773,5637.436035,4304.102539,4256.666504,0.000000,1.000000,32.000000,,,,0.000000,0.000000,0.000000,0.000000,0.000000,0.000000,0.000000,0.000000,0.000000,0.000000,0.000000,0.000000,0.000000,0.000000,0.000000,0.000000,,,,,,,,,,,,,,,,,,,,,,,,,,,,,,,,,,,,,,,,,,,,,,,,,,,,,,,,,,,,,,,,,,,,,,,,,,,,,,,,,,,,,,,,,,,,,,,,,,,,,,,,,,,,,,,,,,,,,,,,,,,,,,,,,
1737284040.863651,1737284040.863993,111.000000,0.000000,4331.025879,4350.256348,4265.128418,4320.384766,4351.538574,4360.897461,4361.025879,4555.512695,4556.666504,4560.384766,4495.512695,5636.666504,4308.077148,4258.461426,0.000000,1.000000,32.000000,,,,0.000000,0.000000,0.000000,0.000000,0.000000,0.000000,0.000000,0.000000,0.000000,0.000000,0.000000,0.000000,0.000000,0.000000,0.000000,0.000000,,,,,,,,,,,,,,,,,,,,,,,,,,,,,,,,,,,,,,,,,,,,,,,,,,,,,,,,,,,,,,,,,,,,,,,,,,,,,,,,,,,,,,,,,,,,,,,,,,,,,,,,,,,,,,,,,,,,,,,,,,,,,,,,,
1737284040.871460,1737284040.871701,112.000000,0.000000,4335.512695,4352.051270,4272.692383,4323.205078,4351.282227,4360.512695,4362.692383,4554.102539,4554.487305,4562.179688,4499.102539,5642.692383,4312.948730,4267.436035,0.000000,1.000000,32.000000,,,,0.000000,0.000000,0.000000,0.000000,0.000000,0.000000,0.000000,0.000000,0.000000,0.000000,0.000000,0.000000,0.000000,0.000000,0.000000,0.000000,,,,,,,,,,,,,,,,,28.000000,0.000000,0.659447,-0.749695,0.018921,0.052246,-0.097668,-0.993285,-0.119155,15.821516,-30.588091,16.991232,,,,,,,,,,,,,,,,,,,,,,,,,,,,,,,,,,,,,,,,,,,,,,,,,,,,,,,,,,,,,,,,,,,,,,,,,,,,,,,,,,,,,,,,,,,,,,,,,,,,,
1737284040.879268,1737284040.879509,113.000000,0.000000,4330.000000,4349.102539,4263.461426,4317.820313,4353.846191,4358.077148,4367.948730,4557.051270,4555.512695,4563.461426,4492.820313,5635.641113,4307.692383,4256.538574,0.000000,1.000000,32.000000,,,,0.000000,0.000000,0.000000,0.000000,0.000000,0.000000,0.000000,0.000000,0.000000,0.000000,0.000000,0.000000,0.000000,0.000000,0.000000,0.000000,,,,,,,,,,,,,,,,,,,,,,,,,,,,,,,,,,,,,,,,,,,,,,,,,,,,,,,,,,,,,,,,,,,,,,,,,,,,,,,,,,,,,,,,,,,,,,,,,,,,,,,,,,,,,,,,,,,,,,,,,,,,,,,,,
1737284040.887076,1737284040.887217,114.000000,0.000000,4333.077148,4354.615234,4264.743652,4320.769043,4355.000000,4355.769043,4354.743652,4556.025879,4554.487305,4561.922852,4496.025879,5642.948730,4312.692383,4266.410156,0.000000,1.000000,32.000000,,,,0.000000,0.000000,0.000000,0.000000,0.000000,0.000000,0.000000,0.000000,0.000000,0.000000,0.000000,0.000000,0.000000,0.000000,0.000000,0.000000,,,,,,,,,,,,,,,,,,,,,,,,,,,,,,,,,,,,,,,,,,,,,,,,,,,,,,,,,,,,,,,,,,,,,,,,,,,,,,,,,,,,,,,,,,,,,,,,,,,,,,,,,,,,,,,,,,,,,,,,,,,,,,,,,
1737284040.894884,1737284040.895025,115.000000,0.000000,4331.282227,4347.820313,4261.410156,4319.487305,4352.563965,4357.179688,4356.410156,4557.307617,4555.384766,4563.205078,4494.487305,5637.051270,4307.692383,4259.743652,0.000000,1.000000,32.000000,,,,0.000000,0.000000,0.000000,0.000000,0.000000,0.000000,0.000000,0.000000,0.000000,0.000000,0.000000,0.000000,0.000000,0.000000,0.000000,0.000000,,,,,,,,,,,,,,,,,,,,,,,,,,,,,,,,,,,,,,,,,,,,,,,,,,,,,,,,,,,,,,,,,,,,,,,,,,,,,,,,,,,,,,,,,,,,,,,,,,,,,,,,,,,,,,,,,,,,,,,,,,,,,,,,,
1737284040.902692,1737284040.902733,116.000000,0.000000,4333.077148,4344.615234,4262.563965,4317.436035,4352.179688,4353.974121,4359.487305,4558.846191,4558.333496,4565.256348,4495.897461,5637.051270,4311.666504,4261.410156,0.000000,1.000000,32.000000,,,,0.000000,0.000000,0.000000,0.000000,0.000000,0.000000,0.000000,0.000000,0.000000,0.000000,0.000000,0.000000,0.000000,0.000000,0.000000,0.000000,,,,,,,,,,,,,,,,,29.000000,0.000000,0.659516,-0.749634,0.018921,0.052246,-0.093273,-0.979123,-0.128434,15.856030,-30.579281,17.142109,,,,,,,,,,,,,,,,,,,,,,,,,,,,,,,,,,,,,,,,,,,,,,,,,,,,,,,,,,,,,,,,,,,,,,,,,,,,,,,,,,,,,,,,,,,,,,,,,,,,,
1737284040.910500,1737284040.910541,117.000000,0.000000,4334.615234,4348.846191,4264.871582,4316.410156,4352.563965,4349.358887,4353.717773,4558.205078,4561.153809,4563.333496,4499.230957,5646.282227,4324.230957,4270.256348,0.000000,1.000000,32.000000,,,,0.000000,0.000000,0.000000,0.000000,0.000000,0.000000,0.000000,0.000000,0.000000,0.000000,0.000000,0.000000,0.000000,0.000000,0.000000,0.000000,,,,,,,,,,,,,,,,,,,,,,,,,,,,,,,,,,,,,,,,,,,,,,,,,,,,,,,,,,,,,,,,,,,,,,,,,,,,,,,,,,,,,,,,,,,,,,,,,,,,,,,,,,,,,,,,,,,,,,,,,,,,,,,,,
1737284040.918308,1737284040.918249,118.000000,0.000000,4327.948730,4343.589844,4254.743652,4311.410156,4351.410156,4350.384766,4355.641113,4560.897461,4564.743652,4563.589844,4492.051270,5635.128418,4318.461426,4255.512695,0.000000,1.000000,32.000000,,,,0.000000,0.000000,0.000000,0.000000,0.000000,0.000000,0.000000,0.000000,0.000000,0.000000,0.000000,0.000000,0.000000,0.000000,0.000000,0.000000,,,,,,,,,,,,,,,,,,,,,,,,,,,,,,,,,,,,,,,,,,,,,,,,,,,,,,,,,,,,,,,,,,,,,,,,,,,,,,,,,,,,,,,,,,,,,,,,,,,,,,,,,,,,,,,,,,,,,,,,,,,,,,,,,
1737284040.926116,1737284040.926157,119.000000,0.000000,4334.871582,4347.307617,4259.615234,4313.717773,4351.922852,4347.436035,4346.666504,4562.051270,4567.051270,4567.051270,4498.077148,5639.487305,4324.743652,4263.846191,0.000000,1.000000,32.000000,,,,0.000000,0.000000,0.000000,0.000000,0.000000,0.000000,0.000000,0.000000,0.000000,0.000000,0.000000,0.000000,0.000000,0.000000,0.000000,0.000000,,,,,,,,,,,,,,,,,,,,,,,,,,,,,,,,,,,,,,,,,,,,,,,,,,,,,,,,,,,,,,,,,,,,,,,,,,,,,,,,,,,,,,,,,,,,,,,,,,,,,,,,,,,,,,,,,,,,,,,,,,,,,,,,,
1737284040.933924,1737284040.933965,120.000000,0.000000,4333.205078,4346.538574,4253.333496,4306.410156,4349.487305,4343.205078,4345.256348,4563.461426,4568.589844,4565.128418,4498.589844,5639.358887,4328.717773,4261.410156,0.000000,1.000000,32.000000,,,,0.000000,0.000000,0.000000,0.000000,0.000000,0.000000,0.000000,0.000000,0.000000,0.000000,0.000000,0.000000,0.000000,0.000000,0.000000,0.000000,,,,,,,,,,,,,,,,,30.000000,0.000000,0.659516,-0.749634,0.018921,0.052246,-0.104993,-0.980100,-0.129899,15.887094,-30.621353,17.061232,,,,,,,,,,,,,,,,,,,,,,,,,,,,,,,,,,,,,,,,,,,,,,,,,,,,,,,,,,,,,,,,,,,,,,,,,,,,,,,,,,,,,,,,,,,,,,,,,,,,,
1737284040.941732,1737284040.941873,121.000000,0.000000,4328.846191,4344.871582,4250.641113,4303.205078,4346.666504,4345.769043,4349.102539,4562.948730,4565.256348,4563.589844,4495.128418,5638.461426,4321.538574,4260.384766,0.000000,1.000000,32.000000,,,,0.000000,0.000000,0.000000,0.000000,0.000000,0.000000,0.000000,0.000000,0.000000,0.000000,0.000000,0.000000,0.000000,0.000000,0.000000,0.000000,,,,,,,,,,,,,,,,,,,,,,,,,,,,,,,,,,,,,,,,,,,,,,,,,,,,,,,,,,,,,,,,,,,,,,,,,,,,,,,,,,,,,,,,,,,,,,,,,,,,,,,,,,,,,,,,,,,,,,,,,,,,,,,,,
1737284040.949541,1737284040.949682,122.000000,0.000000,4335.256348,4351.794922,4266.282227,4317.179688,4350.128418,4354.871582,4353.461426,4558.077148,4558.717773,4563.846191,4497.563965,5644.871582,4315.256348,4271.282227,0.000000,1.000000,32.000000,,,,0.000000,0.000000,0.000000,0.000000,0.000000,0.000000,0.000000,0.000000,0.000000,0.000000,0.000000,0.000000,0.000000,0.000000,0.000000,0.000000,,,,,,,,,,,,,,,,,,,,,,,,,,,,,,,,,,,,,,,,,,,,,,,,,,,,,,,,,,,,,,,,,,,,,,,,,,,,,,,,,,,,,,,,,,,,,,,,,,,,,,,,,,,,,,,,,,,,,,,,,,,,,,,,,
1737284040.957348,1737284040.957589,123.000000,0.000000,4331.025879,4350.000000,4261.025879,4321.538574,4355.128418,4363.333496,4368.461426,4557.436035,4556.282227,4562.307617,4488.846191,5633.846191,4301.410156,4254.487305,0.000000,1.000000,32.000000,,,,0.000000,0.000000,0.000000,0.000000,0.000000,0.000000,0.000000,0.000000,0.000000,0.000000,0.000000,0.000000,0.000000,0.000000,0.000000,0.000000,,,,,,,,,,,,,,,,,,,,,,,,,,,,,,,,,,,,,,,,,,,,,,,,,,,,,,,,,,,,,,,,,,,,,,,,,,,,,,,,,,,,,,,,,,,,,,,,,,,,,,,,,,,,,,,,,,,,,,,,,,,,,,,,,
1737284040.965157,1737284040.965397,124.000000,0.000000,4332.948730,4352.051270,4264.615234,4321.922852,4356.282227,4361.666504,4365.769043,4555.641113,4553.205078,4562.436035,4490.384766,5644.230957,4302.051270,4262.692383,0.000000,1.000000,32.000000,,,,0.000000,0.000000,0.000000,0.000000,0.000000,0.000000,0.000000,0.000000,0.000000,0.000000,0.000000,0.000000,0.000000,0.000000,0.000000,0.000000,,,,,,,,,,,,,,,,,31.000000,0.000000,0.659516,-0.749634,0.018921,0.052246,-0.097180,-0.984007,-0.121109,15.948385,-30.559217,16.955109,,,,,,,,,,,,,,,,,,,,,,,,,,,,,,,,0.020599,0.084250,0.022121,0.024467,0.021648,0.207439,0.062098,0.041494,0.013295,0.022029,0.816336,0.216254,0.107858,0.058967,0.052411,0.866040,0.171309,0.081422,0.040356,0.033442,0.054645,0.016744,0.037365,0.014901,0.023220,1.205002,0.273301,0.143748,0.129608,0.050436,1.247384,0.295278,0.202913,0.081942,0.049168,0.294543,0.131535,0.074877,0.039515,0.025925,0.876619,0.193668,0.128422,0.091071,0.028837,0.088549,0.015451,0.019815,0.038654,0.033694,0.078710,0.069402,0.045474,0.030307,0.038326,0.042388,0.020580,0.035383,0.018605,0.030055,2.597967,0.620868,0.403547,0.199053,0.047478,0.050106,0.072165,0.094296,0.038264,0.038856
1737284040.972965,1737284040.973305,125.000000,0.000000,4333.589844,4355.897461,4272.563965,4322.307617,4355.897461,4363.846191,4367.820313,4553.589844,4548.717773,4562.179688,4493.717773,5644.871582,4298.333496,4265.384766,0.000000,1.000000,32.000000,,,,0.000000,0.000000,0.000000,0.000000,0.000000,0.000000,0.000000,0.000000,0.000000,0.000000,0.000000,0.000000,0.000000,0.000000,0.000000,0.000000,,,,,,,,,,,,,,,,,,,,,,,,,,,,,,,,,,,,,,,,,,,,,,,,,,,,,,,,,,,,,,,,,,,,,,,,,,,,,,,,,,,,,,,,,,,,,,,,,,,,,,,,,,,,,,,,,,,,,,,,,,,,,,,,,
1737284040.980773,1737284040.981113,126.000000,0.000000,4331.666504,4358.974121,4273.846191,4325.641113,4359.358887,4372.948730,4378.974121,4552.179688,4546.153809,4559.743652,4491.538574,5631.153809,4289.230957,4254.743652,0.000000,1.000000,32.000000,,,,0.000000,0.000000,0.000000,0.000000,0.000000,0.000000,0.000000,0.000000,0.000000,0.000000,0.000000,0.000000,0.000000,0.000000,0.000000,0.000000,,,,,,,,,,,,,,,,,,,,,,,,,,,,,,,,,,,,,,,,,,,,,,,,,,,,,,,,,,,,,,,,,,,,,,,,,,,,,,,,,,,,,,,,,,,,,,,,,,,,,,,,,,,,,,,,,,,,,,,,,,,,,,,,,
1737284040.988581,1737284040.989021,127.000000,0.000000,4337.051270,4361.538574,4280.769043,4332.692383,4361.666504,4374.230957,4378.077148,4546.666504,4544.743652,4558.589844,4494.358887,5641.666504,4293.974121,4266.922852,32.000000,1.000000,32.000000,,,,0.000000,0.000000,0.000000,0.000000,0.000000,0.000000,0.000000,0.000000,0.000000,0.000000,0.000000,0.000000,0.000000,0.000000,0.000000,0.000000,,,,,,,,,,,,,,,,,,,,,,,,,,,,,,,,,,,,,,,,,,,,,,,,,,,,,,,,,,,,,,,,,,,,,,,,,,,,,,,,,,,,,,,,,,,,,,,,,,,,,,,,,,,,,,,,,,,,,,,,,,,,,,,,,
1737284040.996389,1737284040.996829,0.000000,0.000000,4331.538574,4354.230957,4273.333496,4329.743652,4358.589844,4372.307617,4385.641113,4547.563965,4543.974121,4556.410156,4490.512695,5639.743652,4287.307617,4256.794922,0.000000,1.000000,32.000000,,,,0.000000,0.000000,0.000000,0.000000,0.000000,0.000000,0.000000,0.000000,0.000000,0.000000,0.000000,0.000000,0.000000,0.000000,0.000000,0.000000,,,,,,,,,,,,,,,,,0.000000,0.000000,0.659516,-0.749634,0.018921,0.052246,-0.101575,-0.984984,-0.129410,15.970213,-30.636629,17.109598,,,,,,,,,,,,,,,,,,,,,,,,,,,,,,,,,,,,,,,,,,,,,,,,,,,,,,,,,,,,,,,,,,,,,,,,,,,,,,,,,,,,,,,,,,,,,,,,,,,,,
1737284041.004197,1737284041.004537,1.000000,0.000000,4333.846191,4357.051270,4276.666504,4332.051270,4357.051270,4370.128418,4379.358887,4549.102539,4543.974121,4557.051270,4493.077148,5643.333496,4289.230957,4260.128418,0.000000,1.000000,32.000000,,,,0.000000,0.000000,0.000000,0.000000,0.000000,0.000000,0.000000,0.000000,0.000000,0.000000,0.000000,0.000000,0.000000,0.000000,0.000000,0.000000,,,,,,,,,,,,,,,,,,,,,,,,,,,,,,,,,,,,,,,,,,,,,,,,,,,,,,,,,,,,,,,,,,,,,,,,,,,,,,,,,,,,,,,,,,,,,,,,,,,,,,,,,,,,,,,,,,,,,,,,,,,,,,,,,
1737284041.012005,1737284041.012345,2.000000,0.000000,4335.384766,4358.974121,4279.487305,4334.358887,4357.692383,4368.717773,4369.102539,4548.589844,4544.743652,4558.717773,4493.589844,5644.358887,4292.948730,4264.487305,0.000000,1.000000,32.000000,,,,0.000000,0.000000,0.000000,0.000000,0.000000,0.000000,0.000000,0.000000,0.000000,0.000000,0.000000,0.000000,0.000000,0.000000,0.000000,0.000000,,,,,,,,,,,,,,,,,,,,,,,,,,,,,,,,,,,,,,,,,,,,,,,,,,,,,,,,,,,,,,,,,,,,,,,,,,,,,,,,,,,,,,,,,,,,,,,,,,,,,,,,,,,,,,,,,,,,,,,,,,,,,,,,,
1737284041.019813,1737284041.020053,3.000000,0.000000,4329.102539,4351.922852,4272.563965,4329.871582,4356.794922,4369.102539,4374.230957,4551.666504,4545.641113,4558.461426,4489.871582,5633.717773,4289.615234,4252.179688,0.000000,1.000000,32.000000,,,,0.000000,0.000000,0.000000,0.000000,0.000000,0.000000,0.000000,0.000000,0.000000,0.000000,0.000000,0.000000,0.000000,0.000000,0.000000,0.000000,,,,,,,,,,,,,,,,,,,,,,,,,,,,,,,,,,,,,,,,,,,,,,,,,,,,,,,,,,,,,,,,,,,,,,,,,,,,,,,,,,,,,,,,,,,,,,,,,,,,,,,,,,,,,,,,,,,,,,,,,,,,,,,,,
1737284041.027621,1737284041.027861,4.000000,0.000000,4333.846191,4353.077148,4278.461426,4327.692383,4355.897461,4367.436035,4371.410156,4550.512695,4546.538574,4562.179688,4498.205078,5644.358887,4299.230957,4264.102539,0.000000,1.000000,32.000000,,,,0.000000,0.000000,0.000000,0.000000,0.000000,0.000000,0.000000,0.000000,0.000000,0.000000,0.000000,0.000000,0.000000,0.000000,0.000000,0.000000,,,,,,,,,,,,,,,,,1.000000,0.000000,0.659449,-0.749695,0.018860,0.052246,-0.100598,-0.980588,-0.120620,15.989859,-30.706299,17.198639,,,,,,,,,,,,,,,,,,,,,,,,,,,,,,,,,,,,,,,,,,,,,,,,,,,,,,,,,,,,,,,,,,,,,,,,,,,,,,,,,,,,,,,,,,,,,,,,,,,,,
1737284041.035429,1737284041.035569,5.000000,0.000000,4331.282227,4351.410156,4270.256348,4320.897461,4353.846191,4365.256348,4371.538574,4553.717773,4549.743652,4563.974121,4496.410156,5640.000000,4300.000000,4256.538574,0.000000,1.000000,32.000000,,,,0.000000,0.000000,0.000000,0.000000,0.000000,0.000000,0.000000,0.000000,0.000000,0.000000,0.000000,0.000000,0.000000,0.000000,0.000000,0.000000,,,,,,,,,,,,,,,,,,,,,,,,,,,,,,,,,,,,,,,,,,,,,,,,,,,,,,,,,,,,,,,,,,,,,,,,,,,,,,,,,,,,,,,,,,,,,,,,,,,,,,,,,,,,,,,,,,,,,,,,,,,,,,,,,
1737284041.043238,1737284041.043377,6.000000,0.000000,4333.974121,4352.692383,4270.256348,4325.512695,4352.436035,4361.153809,4367.179688,4555.512695,4549.615234,4562.307617,4494.743652,5638.205078,4305.128418,4257.179688,0.000000,1.000000,32.000000,,,,0.000000,0.000000,0.000000,0.000000,0.000000,0.000000,0.000000,0.000000,0.000000,0.000000,0.000000,0.000000,0.000000,0.000000,0.000000,0.000000,,,,,,,,,,,,,,,,,,,,,,,,,,,,,,,,,,,,,,,,,,,,,,,,,,,,,,,,,,,,,,,,,,,,,,,,,,,,,,,,,,,,,,,,,,,,,,,,,,,,,,,,,,,,,,,,,,,,,,,,,,,,,,,,,
1737284041.051046,1737284041.051085,7.000000,0.000000,4336.410156,4355.128418,4275.384766,4331.282227,4353.205078,4359.358887,4366.025879,4552.179688,4547.563965,4561.794922,4497.563965,5643.461426,4307.436035,4266.922852,0.000000,1.000000,32.000000,,,,0.000000,0.000000,0.000000,0.000000,0.000000,0.000000,0.000000,0.000000,0.000000,0.000000,0.000000,0.000000,0.000000,0.000000,0.000000,0.000000,,,,,,,,,,,,,,,,,,,,,,,,,,,,,,,,,,,,,,,,,,,,,,,,,,,,,,,,,,,,,,,,,,,,,,,,,,,,,,,,,,,,,,,,,,,,,,,,,,,,,,,,,,,,,,,,,,,,,,,,,,,,,,,,,
1737284041.058854,1737284041.058893,8.000000,0.000000,4329.358887,4351.922852,4266.922852,4321.153809,4354.102539,4360.641113,4371.153809,4554.487305,4550.769043,4561.410156,4492.692383,5634.358887,4298.846191,4254.358887,0.000000,1.000000,32.000000,,,,0.000000,0.000000,0.000000,0.000000,0.000000,0.000000,0.000000,0.000000,0.000000,0.000000,0.000000,0.000000,0.000000,0.000000,0.000000,0.000000,,,,,,,,,,,,,,,,,2.000000,0.000000,0.659511,-0.749634,0.018921,0.052307,-0.097668,-0.990355,-0.122574,15.924206,-30.685669,17.245441,,,,,,,,,,,,,,,,,,,,,,,,,,,,,,,,,,,,,,,,,,,,,,,,,,,,,,,,,,,,,,,,,,,,,,,,,,,,,,,,,,,,,,,,,,,,,,,,,,,,,
1737284041.066662,1737284041.066601,9.000000,0.000000,4336.153809,4354.615234,4274.743652,4322.436035,4355.897461,4359.358887,4360.641113,4555.128418,4552.436035,4562.820313,4497.307617,5641.538574,4308.205078,4267.307617,0.000000,1.000000,32.000000,,,,0.000000,0.000000,0.000000,0.000000,0.000000,0.000000,0.000000,0.000000,0.000000,0.000000,0.000000,0.000000,0.000000,0.000000,0.000000,0.000000,,,,,,,,,,,,,,,,,,,,,,,,,,,,,,,,,,,,,,,,,,,,,,,,,,,,,,,,,,,,,,,,,,,,,,,,,,,,,,,,,,,,,,,,,,,,,,,,,,,,,,,,,,,,,,,,,,,,,,,,,,,,,,,,,
1737284041.074470,1737284041.074409,10.000000,0.000000,4335.000000,4351.666504,4272.563965,4322.820313,4354.358887,4358.846191,4362.692383,4553.846191,4551.794922,4562.948730,4494.615234,5637.948730,4307.948730,4267.179688,0.000000,1.000000,32.000000,,,,0.000000,0.000000,0.000000,0.000000,0.000000,0.000000,0.000000,0.000000,0.000000,0.000000,0.000000,0.000000,0.000000,0.000000,0.000000,0.000000,,,,,,,,,,,,,,,,,,,,,,,,,,,,,,,,,,,,,,,,,,,,,,,,,,,,,,,,,,,,,,,,,,,,,,,,,,,,,,,,,,,,,,,,,,,,,,,,,,,,,,,,,,,,,,,,,,,,,,,,,,,,,,,,,
1737284041.082278,1737284041.082117,11.000000,0.000000,4331.538574,4353.205078,4267.948730,4317.692383,4353.077148,4358.333496,4365.384766,4553.717773,4554.230957,4560.000000,4493.461426,5635.256348,4305.000000,4261.538574,0.000000,1.000000,32.000000,,,,0.000000,0.000000,0.000000,0.000000,0.000000,0.000000,0.000000,0.000000,0.000000,0.000000,0.000000,0.000000,0.000000,0.000000,0.000000,0.000000,,,,,,,,,,,,,,,,,,,,,,,,,,,,,,,,,,,,,,,,,,,,,,,,,,,,,,,,,,,,,,,,,,,,,,,,,,,,,,,,,,,,,,,,,,,,,,,,,,,,,,,,,,,,,,,,,,,,,,,,,,,,,,,,,
1737284041.090086,1737284041.089925,12.000000,0.000000,4336.282227,4355.641113,4272.563965,4319.871582,4354.487305,4356.025879,4360.769043,4556.922852,4556.410156,4559.615234,4500.897461,5643.333496,4311.410156,4269.230957,0.000000,1.000000,32.000000,,,,0.000000,0.000000,0.000000,0.000000,0.000000,0.000000,0.000000,0.000000,0.000000,0.000000,0.000000,0.000000,0.000000,0.000000,0.000000,0.000000,,,,,,,,,,,,,,,,,3.000000,0.000000,0.659518,-0.749634,0.018860,0.052246,-0.101087,-0.975217,-0.127945,15.815119,-30.667103,17.454229,,,,,,,,,,,,,,,,,,,,,,,,,,,,,,,,0.021110,0.071100,0.021999,0.023713,0.023039,0.202737,0.053694,0.043344,0.010194,0.020596,0.850719,0.214023,0.105772,0.054354,0.054066,0.879348,0.150278,0.074710,0.043318,0.033978,0.060192,0.017816,0.028835,0.013943,0.023295,1.258248,0.262377,0.137886,0.133174,0.047570,1.206184,0.310573,0.180997,0.073786,0.044131,0.300573,0.135901,0.055125,0.044471,0.027345,0.876901,0.191113,0.140149,0.091402,0.028178,0.089031,0.014948,0.022120,0.039991,0.031373,0.075948,0.055639,0.045184,0.029317,0.041210,0.042478,0.025268,0.034862,0.019153,0.029410,2.590229,0.636295,0.364987,0.191355,0.043748,0.053077,0.077713,0.095819,0.037176,0.039770
1737284041.097894,1737284041.097633,13.000000,0.000000,4331.538574,4345.000000,4262.692383,4317.692383,4353.717773,4356.538574,4366.666504,4560.769043,4555.000000,4565.769043,4494.871582,5633.589844,4305.769043,4258.589844,0.000000,1.000000,32.000000,,,,0.000000,0.000000,0.000000,0.000000,0.000000,0.000000,0.000000,0.000000,0.000000,0.000000,0.000000,0.000000,0.000000,0.000000,0.000000,0.000000,,,,,,,,,,,,,,,,,,,,,,,,,,,,,,,,,,,,,,,,,,,,,,,,,,,,,,,,,,,,,,,,,,,,,,,,,,,,,,,,,,,,,,,,,,,,,,,,,,,,,,,,,,,,,,,,,,,,,,,,,,,,,,,,,
1737284041.105702,1737284041.105441,14.000000,0.000000,4334.358887,4348.205078,4264.230957,4320.256348,4354.358887,4356.922852,4359.102539,4556.666504,4554.487305,4567.692383,4496.153809,5638.461426,4310.384766,4265.384766,0.000000,1.000000,32.000000,,,,0.000000,0.000000,0.000000,0.000000,0.000000,0.000000,0.000000,0.000000,0.000000,0.000000,0.000000,0.000000,0.000000,0.000000,0.000000,0.000000,,,,,,,,,,,,,,,,,,,,,,,,,,,,,,,,,,,,,,,,,,,,,,,,,,,,,,,,,,,,,,,,,,,,,,,,,,,,,,,,,,,,,,,,,,,,,,,,,,,,,,,,,,,,,,,,,,,,,,,,,,,,,,,,,
1737284041.113510,1737284041.113149,15.000000,0.000000,4333.461426,4350.897461,4263.333496,4318.333496,4354.230957,4355.769043,4357.436035,4557.436035,4558.846191,4561.410156,4496.025879,5638.717773,4313.333496,4260.769043,0.000000,1.000000,32.000000,,,,0.000000,0.000000,0.000000,0.000000,0.000000,0.000000,0.000000,0.000000,0.000000,0.000000,0.000000,0.000000,0.000000,0.000000,0.000000,0.000000,,,,,,,,,,,,,,,,,,,,,,,,,,,,,,,,,,,,,,,,,,,,,,,,,,,,,,,,,,,,,,,,,,,,,,,,,,,,,,,,,,,,,,,,,,,,,,,,,,,,,,,,,,,,,,,,,,,,,,,,,,,,,,,,,
1737284041.121318,1737284041.121058,16.000000,0.000000,4331.153809,4346.922852,4258.333496,4313.333496,4352.692383,4354.487305,4361.538574,4560.641113,4560.641113,4562.436035,4492.436035,5634.743652,4310.512695,4255.641113,0.000000,1.000000,32.000000,,,,0.000000,0.000000,0.000000,0.000000,0.000000,0.000000,0.000000,0.000000,0.000000,0.000000,0.000000,0.000000,0.000000,0.000000,0.000000,0.000000,,,,,,,,,,,,,,,,,4.000000,0.000000,0.659524,-0.749634,0.018799,0.052185,-0.098645,-0.976682,-0.130875,15.716940,-30.700392,17.392141,,,,,,,,,,,,,,,,,,,,,,,,,,,,,,,,,,,,,,,,,,,,,,,,,,,,,,,,,,,,,,,,,,,,,,,,,,,,,,,,,,,,,,,,,,,,,,,,,,,,,
1737284041.129126,1737284041.128866,17.000000,0.000000,4336.410156,4352.692383,4265.384766,4316.922852,4352.948730,4354.743652,4357.436035,4558.589844,4557.948730,4567.436035,4496.153809,5643.205078,4313.077148,4269.358887,0.000000,1.000000,32.000000,,,,0.000000,0.000000,0.000000,0.000000,0.000000,0.000000,0.000000,0.000000,0.000000,0.000000,0.000000,0.000000,0.000000,0.000000,0.000000,0.000000,,,,,,,,,,,,,,,,,,,,,,,,,,,,,,,,,,,,,,,,,,,,,,,,,,,,,,,,,,,,,,,,,,,,,,,,,,,,,,,,,,,,,,,,,,,,,,,,,,,,,,,,,,,,,,,,,,,,,,,,,,,,,,,,,
1737284041.136935,1737284041.136774,18.000000,0.000000,4329.230957,4351.282227,4260.000000,4314.487305,4352.179688,4355.897461,4363.077148,4558.974121,4555.897461,4565.512695,4491.282227,5633.589844,4307.563965,4254.615234,0.000000,1.000000,32.000000,,,,0.000000,0.000000,0.000000,0.000000,0.000000,0.000000,0.000000,0.000000,0.000000,0.000000,0.000000,0.000000,0.000000,0.000000,0.000000,0.000000,,,,,,,,,,,,,,,,,,,,,,,,,,,,,,,,,,,,,,,,,,,,,,,,,,,,,,,,,,,,,,,,,,,,,,,,,,,,,,,,,,,,,,,,,,,,,,,,,,,,,,,,,,,,,,,,,,,,,,,,,,,,,,,,,
1737284041.144743,1737284041.144582,19.000000,0.000000,4330.769043,4349.358887,4262.051270,4317.307617,4351.538574,4355.000000,4356.922852,4558.333496,4555.641113,4563.589844,4495.641113,5636.282227,4315.641113,4260.897461,0.000000,1.000000,32.000000,,,,0.000000,0.000000,0.000000,0.000000,0.000000,0.000000,0.000000,0.000000,0.000000,0.000000,0.000000,0.000000,0.000000,0.000000,0.000000,0.000000,,,,,,,,,,,,,,,,,,,,,,,,,,,,,,,,,,,,,,,,,,,,,,,,,,,,,,,,,,,,,,,,,,,,,,,,,,,,,,,,,,,,,,,,,,,,,,,,,,,,,,,,,,,,,,,,,,,,,,,,,,,,,,,,,
1737284041.152551,1737284041.152490,20.000000,0.000000,4334.743652,4348.589844,4262.179688,4317.307617,4351.025879,4354.615234,4352.692383,4558.846191,4559.358887,4563.077148,4496.538574,5640.000000,4319.487305,4268.077148,0.000000,1.000000,32.000000,,,,0.000000,0.000000,0.000000,0.000000,0.000000,0.000000,0.000000,0.000000,0.000000,0.000000,0.000000,0.000000,0.000000,0.000000,0.000000,0.000000,,,,,,,,,,,,,,,,,5.000000,0.000000,0.659523,-0.749634,0.018860,0.052185,-0.097180,-0.981077,-0.115248,15.711913,-30.863686,17.419594,,,,,,,,,,,,,,,,,,,,,,,,,,,,,,,,,,,,,,,,,,,,,,,,,,,,,,,,,,,,,,,,,,,,,,,,,,,,,,,,,,,,,,,,,,,,,,,,,,,,,
1737284041.160359,1737284041.160298,21.000000,0.000000,4330.000000,4347.563965,4255.512695,4312.179688,4350.256348,4351.794922,4357.436035,4561.153809,4561.794922,4560.641113,4490.128418,5633.077148,4314.871582,4256.410156,0.000000,1.000000,32.000000,,,,0.000000,0.000000,0.000000,0.000000,0.000000,0.000000,0.000000,0.000000,0.000000,0.000000,0.000000,0.000000,0.000000,0.000000,0.000000,0.000000,,,,,,,,,,,,,,,,,,,,,,,,,,,,,,,,,,,,,,,,,,,,,,,,,,,,,,,,,,,,,,,,,,,,,,,,,,,,,,,,,,,,,,,,,,,,,,,,,,,,,,,,,,,,,,,,,,,,,,,,,,,,,,,,,
1737284041.168167,1737284041.168206,22.000000,0.000000,4331.538574,4349.615234,4264.487305,4317.307617,4350.512695,4349.102539,4352.563965,4557.820313,4559.615234,4562.179688,4496.922852,5641.025879,4319.615234,4267.563965,0.000000,1.000000,32.000000,,,,0.000000,0.000000,0.000000,0.000000,0.000000,0.000000,0.000000,0.000000,0.000000,0.000000,0.000000,0.000000,0.000000,0.000000,0.000000,0.000000,,,,,,,,,,,,,,,,,,,,,,,,,,,,,,,,,,,,,,,,,,,,,,,,,,,,,,,,,,,,,,,,,,,,,,,,,,,,,,,,,,,,,,,,,,,,,,,,,,,,,,,,,,,,,,,,,,,,,,,,,,,,,,,,,
1737284041.175975,1737284041.176014,23.000000,0.000000,4329.102539,4342.307617,4261.794922,4317.948730,4352.948730,4356.538574,4361.153809,4557.436035,4560.000000,4564.230957,4493.717773,5634.871582,4309.102539,4261.153809,0.000000,1.000000,32.000000,,,,0.000000,0.000000,0.000000,0.000000,0.000000,0.000000,0.000000,0.000000,0.000000,0.000000,0.000000,0.000000,0.000000,0.000000,0.000000,0.000000,,,,,,,,,,,,,,,,,,,,,,,,,,,,,,,,,,,,,,,,,,,,,,,,,,,,,,,,,,,,,,,,,,,,,,,,,,,,,,,,,,,,,,,,,,,,,,,,,,,,,,,,,,,,,,,,,,,,,,,,,,,,,,,,,
1737284041.183783,1737284041.183922,24.000000,0.000000,4333.205078,4347.179688,4265.128418,4318.077148,4355.000000,4360.897461,4366.282227,4557.179688,4557.179688,4563.461426,4491.922852,5638.974121,4306.282227,4263.461426,0.000000,1.000000,32.000000,,,,0.000000,0.000000,0.000000,0.000000,0.000000,0.000000,0.000000,0.000000,0.000000,0.000000,0.000000,0.000000,0.000000,0.000000,0.000000,0.000000,,,,,,,,,,,,,,,,,6.000000,0.000000,0.659523,-0.749634,0.018860,0.052185,-0.110853,-0.975705,-0.133317,15.740722,-30.843985,17.377634,,,,,,,,,,,,,,,,,,,,,,,,,,,,,,,,,,,,,,,,,,,,,,,,,,,,,,,,,,,,,,,,,,,,,,,,,,,,,,,,,,,,,,,,,,,,,,,,,,,,,
1737284041.191591,1737284041.191730,25.000000,0.000000,4333.461426,4354.743652,4269.871582,4318.077148,4352.948730,4359.743652,4364.358887,4555.512695,4550.384766,4562.179688,4493.717773,5645.128418,4307.179688,4267.692383,0.000000,1.000000,32.000000,,,,0.000000,0.000000,0.000000,0.000000,0.000000,0.000000,0.000000,0.000000,0.000000,0.000000,0.000000,0.000000,0.000000,0.000000,0.000000,0.000000,,,,,,,,,,,,,,,,,,,,,,,,,,,,,,,,,,,,,,,,,,,,,,,,,,,,,,,,,,,,,,,,,,,,,,,,,,,,,,,,,,,,,,,,,,,,,,,,,,,,,,,,,,,,,,,,,,,,,,,,,,,,,,,,,
1737284041.199399,1737284041.199637,26.000000,0.000000,4325.769043,4348.717773,4264.230957,4320.641113,4351.666504,4362.692383,4369.102539,4556.153809,4550.128418,4562.307617,4490.897461,5633.461426,4298.077148,4255.384766,0.000000,1.000000,32.000000,,,,0.000000,0.000000,0.000000,0.000000,0.000000,0.000000,0.000000,0.000000,0.000000,0.000000,0.000000,0.000000,0.000000,0.000000,0.000000,0.000000,,,,,,,,,,,,,,,,,,,,,,,,,,,,,,,,,,,,,,,,,,,,,,,,,,,,,,,,,,,,,,,,,,,,,,,,,,,,,,,,,,,,,,,,,,,,,,,,,,,,,,,,,,,,,,,,,,,,,,,,,,,,,,,,,
1737284041.207208,1737284041.207445,27.000000,0.000000,4333.846191,4352.051270,4274.615234,4328.717773,4354.230957,4362.692383,4364.358887,4555.000000,4550.769043,4564.358887,4495.641113,5642.307617,4303.589844,4266.538574,0.000000,1.000000,32.000000,,,,0.000000,0.000000,0.000000,0.000000,0.000000,0.000000,0.000000,0.000000,0.000000,0.000000,0.000000,0.000000,0.000000,0.000000,0.000000,0.000000,,,,,,,,,,,,,,,,,,,,,,,,,,,,,,,,,,,,,,,,,,,,,,,,,,,,,,,,,,,,,,,,,,,,,,,,,,,,,,,,,,,,,,,,,,,,,,,,,,,,,,,,,,,,,,,,,,,,,,,,,,,,,,,,,
1737284041.215016,1737284041.215154,28.000000,0.000000,4335.128418,4353.974121,4269.487305,4322.307617,4355.769043,4361.794922,4367.563965,4555.256348,4550.641113,4563.846191,4491.025879,5637.563965,4302.563965,4258.461426,0.000000,1.000000,32.000000,,,,0.000000,0.000000,0.000000,0.000000,0.000000,0.000000,0.000000,0.000000,0.000000,0.000000,0.000000,0.000000,0.000000,0.000000,0.000000,0.000000,,,,,,,,,,,,,,,,,7.000000,0.000000,0.659523,-0.749634,0.018860,0.052185,-0.113783,-0.989379,-0.126480,15.733316,-30.759586,17.323204,,,,,,,,,,,,,,,,,,,,,,,,,,,,,,,,0.021905,0.057244,0.023234,0.023262,0.024372,0.199000,0.047182,0.043271,0.008534,0.019813,0.880429,0.204478,0.102035,0.049998,0.053500,0.867122,0.138103,0.069593,0.046493,0.034931,0.067014,0.022155,0.022300,0.013479,0.023445,1.295933,0.257384,0.132671,0.127230,0.044407,1.190268,0.337581,0.161239,0.063722,0.038112,0.302092,0.136263,0.036967,0.048226,0.027457,0.876547,0.186183,0.151228,0.086751,0.027240,0.087977,0.017301,0.024069,0.039314,0.028879,0.073056,0.043336,0.042472,0.029540,0.042364,0.041201,0.029423,0.034342,0.019865,0.027637,2.588159,0.638555,0.326577,0.176104,0.039042,0.055740,0.077363,0.090782,0.034641,0.040732
1737284041.222824,1737284041.222961,29.000000,0.000000,4333.589844,4354.487305,4266.794922,4320.000000,4353.846191,4362.051270,4368.461426,4554.230957,4550.256348,4562.820313,4492.307617,5634.358887,4302.820313,4256.538574,0.000000,1.000000,32.000000,,,,0.000000,0.000000,0.000000,0.000000,0.000000,0.000000,0.000000,0.000000,0.000000,0.000000,0.000000,0.000000,0.000000,0.000000,0.000000,0.000000,,,,,,,,,,,,,,,,,,,,,,,,,,,,,,,,,,,,,,,,,,,,,,,,,,,,,,,,,,,,,,,,,,,,,,,,,,,,,,,,,,,,,,,,,,,,,,,,,,,,,,,,,,,,,,,,,,,,,,,,,,,,,,,,,
1737284041.230632,1737284041.230670,30.000000,0.000000,4335.256348,4353.717773,4275.897461,4324.358887,4351.282227,4361.538574,4363.461426,4553.461426,4549.102539,4563.974121,4498.717773,5645.641113,4309.230957,4267.436035,0.000000,1.000000,32.000000,,,,0.000000,0.000000,0.000000,0.000000,0.000000,0.000000,0.000000,0.000000,0.000000,0.000000,0.000000,0.000000,0.000000,0.000000,0.000000,0.000000,,,,,,,,,,,,,,,,,,,,,,,,,,,,,,,,,,,,,,,,,,,,,,,,,,,,,,,,,,,,,,,,,,,,,,,,,,,,,,,,,,,,,,,,,,,,,,,,,,,,,,,,,,,,,,,,,,,,,,,,,,,,,,,,,
1737284041.238440,1737284041.238578,31.000000,0.000000,4331.538574,4348.717773,4268.974121,4317.692383,4352.307617,4363.589844,4370.000000,4556.410156,4551.025879,4562.307617,4491.666504,5635.897461,4301.666504,4256.538574,0.000000,1.000000,32.000000,,,,0.000000,0.000000,0.000000,0.000000,0.000000,0.000000,0.000000,0.000000,0.000000,0.000000,0.000000,0.000000,0.000000,0.000000,0.000000,0.000000,,,,,,,,,,,,,,,,,,,,,,,,,,,,,,,,,,,,,,,,,,,,,,,,,,,,,,,,,,,,,,,,,,,,,,,,,,,,,,,,,,,,,,,,,,,,,,,,,,,,,,,,,,,,,,,,,,,,,,,,,,,,,,,,,
1737284041.246248,1737284041.246386,32.000000,0.000000,4338.333496,4354.358887,4270.128418,4318.077148,4355.512695,4361.666504,4367.179688,4553.589844,4551.410156,4561.794922,4493.333496,5638.974121,4302.563965,4269.871582,0.000000,1.000000,32.000000,,,,0.000000,0.000000,0.000000,0.000000,0.000000,0.000000,0.000000,0.000000,0.000000,0.000000,0.000000,0.000000,0.000000,0.000000,0.000000,0.000000,,,,,,,,,,,,,,,,,8.000000,0.000000,0.659524,-0.749634,0.018799,0.052185,-0.097668,-0.973263,-0.114760,15.459985,-30.850294,17.257549,,,,,,,,,,,,,,,,,,,,,,,,,,,,,,,,,,,,,,,,,,,,,,,,,,,,,,,,,,,,,,,,,,,,,,,,,,,,,,,,,,,,,,,,,,,,,,,,,,,,,
1737284041.254056,1737284041.254294,33.000000,0.000000,4334.615234,4351.794922,4266.794922,4319.743652,4353.846191,4360.641113,4367.563965,4553.589844,4550.512695,4562.692383,4491.794922,5641.410156,4299.871582,4266.282227,0.000000,1.000000,32.000000,,,,0.000000,0.000000,0.000000,0.000000,0.000000,0.000000,0.000000,0.000000,0.000000,0.000000,0.000000,0.000000,0.000000,0.000000,0.000000,0.000000,,,,,,,,,,,,,,,,,,,,,,,,,,,,,,,,,,,,,,,,,,,,,,,,,,,,,,,,,,,,,,,,,,,,,,,,,,,,,,,,,,,,,,,,,,,,,,,,,,,,,,,,,,,,,,,,,,,,,,,,,,,,,,,,,
1737284041.261864,1737284041.262102,34.000000,0.000000,4330.384766,4350.000000,4267.692383,4321.538574,4353.461426,4361.794922,4369.487305,4556.282227,4551.025879,4560.641113,4491.794922,5639.487305,4299.102539,4256.025879,0.000000,1.000000,32.000000,,,,0.000000,0.000000,0.000000,0.000000,0.000000,0.000000,0.000000,0.000000,0.000000,0.000000,0.000000,0.000000,0.000000,0.000000,0.000000,0.000000,,,,,,,,,,,,,,,,,,,,,,,,,,,,,,,,,,,,,,,,,,,,,,,,,,,,,,,,,,,,,,,,,,,,,,,,,,,,,,,,,,,,,,,,,,,,,,,,,,,,,,,,,,,,,,,,,,,,,,,,,,,,,,,,,
1737284041.269672,1737284041.269910,35.000000,0.000000,4335.384766,4355.897461,4278.205078,4324.743652,4356.538574,4361.282227,4363.461426,4554.487305,4550.256348,4559.743652,4499.743652,5643.589844,4305.641113,4268.077148,0.000000,1.000000,32.000000,,,,0.000000,0.000000,0.000000,0.000000,0.000000,0.000000,0.000000,0.000000,0.000000,0.000000,0.000000,0.000000,0.000000,0.000000,0.000000,0.000000,,,,,,,,,,,,,,,,,,,,,,,,,,,,,,,,,,,,,,,,,,,,,,,,,,,,,,,,,,,,,,,,,,,,,,,,,,,,,,,,,,,,,,,,,,,,,,,,,,,,,,,,,,,,,,,,,,,,,,,,,,,,,,,,,
1737284041.277480,1737284041.277618,36.000000,0.000000,4329.102539,4349.615234,4269.358887,4318.333496,4354.871582,4361.794922,4366.922852,4556.538574,4550.128418,4562.820313,4492.051270,5633.333496,4298.974121,4256.282227,0.000000,1.000000,32.000000,,,,0.000000,0.000000,0.000000,0.000000,0.000000,0.000000,0.000000,0.000000,0.000000,0.000000,0.000000,0.000000,0.000000,0.000000,0.000000,0.000000,,,,,,,,,,,,,,,,,9.000000,0.000000,0.659524,-0.749634,0.018799,0.052185,-0.110853,-0.973752,-0.118178,15.347320,-30.881931,17.231794,,,,,,,,,,,,,,,,,,,,,,,,,,,,,,,,,,,,,,,,,,,,,,,,,,,,,,,,,,,,,,,,,,,,,,,,,,,,,,,,,,,,,,,,,,,,,,,,,,,,,
1737284041.285288,1737284041.285426,37.000000,0.000000,4334.615234,4349.102539,4270.256348,4321.410156,4355.000000,4362.051270,4360.000000,4557.307617,4550.384766,4564.487305,4491.922852,5640.128418,4304.102539,4260.384766,0.000000,1.000000,32.000000,,,,0.000000,0.000000,0.000000,0.000000,0.000000,0.000000,0.000000,0.000000,0.000000,0.000000,0.000000,0.000000,0.000000,0.000000,0.000000,0.000000,,,,,,,,,,,,,,,,,,,,,,,,,,,,,,,,,,,,,,,,,,,,,,,,,,,,,,,,,,,,,,,,,,,,,,,,,,,,,,,,,,,,,,,,,,,,,,,,,,,,,,,,,,,,,,,,,,,,,,,,,,,,,,,,,
1737284041.293096,1737284041.293134,38.000000,0.000000,4334.615234,4350.000000,4270.384766,4322.948730,4356.282227,4365.128418,4360.128418,4557.051270,4551.153809,4561.666504,4494.615234,5640.641113,4305.000000,4261.666504,0.000000,1.000000,32.000000,,,,0.000000,0.000000,0.000000,0.000000,0.000000,0.000000,0.000000,0.000000,0.000000,0.000000,0.000000,0.000000,0.000000,0.000000,0.000000,0.000000,,,,,,,,,,,,,,,,,,,,,,,,,,,,,,,,,,,,,,,,,,,,,,,,,,,,,,,,,,,,,,,,,,,,,,,,,,,,,,,,,,,,,,,,,,,,,,,,,,,,,,,,,,,,,,,,,,,,,,,,,,,,,,,,,
1737284041.300905,1737284041.301043,39.000000,0.000000,4327.948730,4351.153809,4265.256348,4320.000000,4355.256348,4365.000000,4368.717773,4555.897461,4552.436035,4560.000000,4492.563965,5633.333496,4298.974121,4255.256348,0.000000,1.000000,32.000000,,,,0.000000,0.000000,0.000000,0.000000,0.000000,0.000000,0.000000,0.000000,0.000000,0.000000,0.000000,0.000000,0.000000,0.000000,0.000000,0.000000,,,,,,,,,,,,,,,,,,,,,,,,,,,,,,,,,,,,,,,,,,,,,,,,,,,,,,,,,,,,,,,,,,,,,,,,,,,,,,,,,,,,,,,,,,,,,,,,,,,,,,,,,,,,,,,,,,,,,,,,,,,,,,,,,
1737284041.308713,1737284041.308851,40.000000,0.000000,4337.051270,4356.538574,4274.358887,4324.871582,4355.128418,4360.128418,4362.692383,4551.794922,4552.179688,4561.025879,4498.205078,5644.230957,4306.153809,4270.769043,0.000000,1.000000,32.000000,,,,0.000000,0.000000,0.000000,0.000000,0.000000,0.000000,0.000000,0.000000,0.000000,0.000000,0.000000,0.000000,0.000000,0.000000,0.000000,0.000000,,,,,,,,,,,,,,,,,10.000000,0.000000,0.659587,-0.749573,0.018860,0.052246,-0.115737,-0.986937,-0.116713,15.295920,-30.927073,17.308615,,,,,,,,,,,,,,,,,,,,,,,,,,,,,,,,,,,,,,,,,,,,,,,,,,,,,,,,,,,,,,,,,,,,,,,,,,,,,,,,,,,,,,,,,,,,,,,,,,,,,
1737284041.316521,1737284041.316759,41.000000,0.000000,4333.974121,4351.153809,4269.487305,4322.179688,4354.230957,4361.153809,4364.230957,4557.179688,4552.307617,4560.769043,4493.333496,5636.666504,4303.717773,4261.538574,0.000000,1.000000,32.000000,,,,0.000000,0.000000,0.000000,0.000000,0.000000,0.000000,0.000000,0.000000,0.000000,0.000000,0.000000,0.000000,0.000000,0.000000,0.000000,0.000000,,,,,,,,,,,,,,,,,,,,,,,,,,,,,,,,,,,,,,,,,,,,,,,,,,,,,,,,,,,,,,,,,,,,,,,,,,,,,,,,,,,,,,,,,,,,,,,,,,,,,,,,,,,,,,,,,,,,,,,,,,,,,,,,,
1737284041.324329,1737284041.324567,42.000000,0.000000,4331.538574,4352.820313,4271.794922,4321.153809,4355.128418,4363.461426,4361.538574,4558.205078,4552.307617,4562.563965,4493.589844,5636.922852,4305.512695,4260.897461,0.000000,1.000000,32.000000,,,,0.000000,0.000000,0.000000,0.000000,0.000000,0.000000,0.000000,0.000000,0.000000,0.000000,0.000000,0.000000,0.000000,0.000000,0.000000,0.000000,,,,,,,,,,,,,,,,,,,,,,,,,,,,,,,,,,,,,,,,,,,,,,,,,,,,,,,,,,,,,,,,,,,,,,,,,,,,,,,,,,,,,,,,,,,,,,,,,,,,,,,,,,,,,,,,,,,,,,,,,,,,,,,,,
1737284041.332137,1737284041.332375,43.000000,0.000000,4333.077148,4354.743652,4275.641113,4322.307617,4355.000000,4361.922852,4365.256348,4551.794922,4552.051270,4563.077148,4495.641113,5641.922852,4305.512695,4262.436035,0.000000,1.000000,32.000000,,,,0.000000,0.000000,0.000000,0.000000,0.000000,0.000000,0.000000,0.000000,0.000000,0.000000,0.000000,0.000000,0.000000,0.000000,0.000000,0.000000,,,,,,,,,,,,,,,,,,,,,,,,,,,,,,,,,,,,,,,,,,,,,,,,,,,,,,,,,,,,,,,,,,,,,,,,,,,,,,,,,,,,,,,,,,,,,,,,,,,,,,,,,,,,,,,,,,,,,,,,,,,,,,,,,
1737284041.339945,1737284041.340083,44.000000,0.000000,4330.256348,4348.717773,4267.179688,4322.563965,4353.846191,4360.897461,4372.563965,4552.820313,4552.051270,4562.307617,4491.538574,5635.128418,4298.461426,4253.974121,0.000000,1.000000,32.000000,,,,0.000000,0.000000,0.000000,0.000000,0.000000,0.000000,0.000000,0.000000,0.000000,0.000000,0.000000,0.000000,0.000000,0.000000,0.000000,0.000000,1.000000,0.000000,0.000000,0.000000,0.000000,0.000000,0.000000,0.000000,0.000000,0.000000,0.000000,0.000000,0.000000,0.000000,0.000000,0.000000,11.000000,0.000000,0.659587,-0.749573,0.018860,0.052246,-0.095715,-0.976682,-0.134294,15.382996,-30.884365,17.344421,,,,,,,,,,,,,,,,,,,,,,,,,,,,,,,,0.022297,0.045401,0.024861,0.022105,0.025297,0.198971,0.047000,0.041694,0.008085,0.019900,0.890455,0.195681,0.098488,0.047292,0.050863,0.833079,0.140929,0.066950,0.049802,0.036607,0.075424,0.031031,0.019904,0.013118,0.023662,1.307498,0.265364,0.125717,0.112613,0.041585,1.199641,0.387434,0.146457,0.054913,0.032873,0.300876,0.135397,0.024291,0.050048,0.026275,0.869250,0.187645,0.157858,0.076338,0.026243,0.086618,0.023646,0.024958,0.036036,0.026537,0.067730,0.033207,0.038458,0.030524,0.041046,0.038858,0.031763,0.033794,0.020941,0.025397,2.561744,0.632300,0.291379,0.154745,0.034841,0.057473,0.071504,0.078870,0.031012,0.041183
1737284041.347753,1737284041.347991,45.000000,0.000000,4336.922852,4351.538574,4271.922852,4326.410156,4355.512695,4361.666504,4360.897461,4554.230957,4551.153809,4563.205078,4495.512695,5643.974121,4306.282227,4267.692383,0.000000,1.000000,32.000000,,,,0.000000,0.000000,0.000000,0.000000,0.000000,0.000000,0.000000,0.000000,0.000000,0.000000,0.000000,0.000000,0.000000,0.000000,0.000000,0.000000,,,,,,,,,,,,,,,,,,,,,,,,,,,,,,,,,,,,,,,,,,,,,,,,,,,,,,,,,,,,,,,,,,,,,,,,,,,,,,,,,,,,,,,,,,,,,,,,,,,,,,,,,,,,,,,,,,,,,,,,,,,,,,,,,
1737284041.355561,1737284041.355799,46.000000,0.000000,4335.256348,4351.282227,4267.307617,4320.128418,4352.948730,4361.410156,4366.922852,4552.948730,4551.282227,4562.820313,4491.025879,5638.717773,4304.230957,4258.846191,0.000000,1.000000,32.000000,,,,0.000000,0.000000,0.000000,0.000000,0.000000,0.000000,0.000000,0.000000,0.000000,0.000000,0.000000,0.000000,0.000000,0.000000,0.000000,0.000000,,,,,,,,,,,,,,,,,,,,,,,,,,,,,,,,,,,,,,,,,,,,,,,,,,,,,,,,,,,,,,,,,,,,,,,,,,,,,,,,,,,,,,,,,,,,,,,,,,,,,,,,,,,,,,,,,,,,,,,,,,,,,,,,,
1737284041.363369,1737284041.363707,47.000000,0.000000,4333.846191,4352.563965,4268.974121,4320.256348,4350.000000,4359.230957,4370.128418,4550.897461,4551.025879,4564.102539,4492.563965,5638.205078,4304.743652,4260.897461,0.000000,1.000000,32.000000,,,,0.000000,0.000000,0.000000,0.000000,0.000000,0.000000,0.000000,0.000000,0.000000,0.000000,0.000000,0.000000,0.000000,0.000000,0.000000,0.000000,,,,,,,,,,,,,,,,,,,,,,,,,,,,,,,,,,,,,,,,,,,,,,,,,,,,,,,,,,,,,,,,,,,,,,,,,,,,,,,,,,,,,,,,,,,,,,,,,,,,,,,,,,,,,,,,,,,,,,,,,,,,,,,,,
1737284041.371177,1737284041.371515,48.000000,0.000000,4334.743652,4355.384766,4273.589844,4322.820313,4353.333496,4359.615234,4362.820313,4550.769043,4552.179688,4564.102539,4498.077148,5643.717773,4307.820313,4269.230957,0.000000,1.000000,32.000000,,,,0.000000,0.000000,0.000000,0.000000,0.000000,0.000000,0.000000,0.000000,0.000000,0.000000,0.000000,0.000000,0.000000,0.000000,0.000000,0.000000,,,,,,,,,,,,,,,,,12.000000,0.000000,0.659594,-0.749573,0.018799,0.052185,-0.110853,-0.976193,-0.117202,15.411363,-30.979261,17.376646,,,,,,,,,,,,,,,,,,,,,,,,,,,,,,,,,,,,,,,,,,,,,,,,,,,,,,,,,,,,,,,,,,,,,,,,,,,,,,,,,,,,,,,,,,,,,,,,,,,,,
1737284041.378986,1737284041.379323,49.000000,0.000000,4330.128418,4351.282227,4262.948730,4317.563965,4354.102539,4362.436035,4368.077148,4552.948730,4554.743652,4560.128418,4492.179688,5633.974121,4299.871582,4253.461426,0.000000,1.000000,32.000000,,,,0.000000,0.000000,0.000000,0.000000,0.000000,0.000000,0.000000,0.000000,0.000000,0.000000,0.000000,0.000000,0.000000,0.000000,0.000000,0.000000,,,,,,,,,,,,,,,,,,,,,,,,,,,,,,,,,,,,,,,,,,,,,,,,,,,,,,,,,,,,,,,,,,,,,,,,,,,,,,,,,,,,,,,,,,,,,,,,,,,,,,,,,,,,,,,,,,,,,,,,,,,,,,,,,
1737284041.386794,1737284041.387131,50.000000,0.000000,4334.743652,4352.820313,4270.384766,4324.487305,4351.922852,4360.897461,4362.948730,4552.948730,4553.333496,4562.436035,4494.615234,5641.794922,4309.487305,4268.846191,0.000000,1.000000,32.000000,,,,0.000000,0.000000,0.000000,0.000000,0.000000,0.000000,0.000000,0.000000,0.000000,0.000000,0.000000,0.000000,0.000000,0.000000,0.000000,0.000000,,,,,,,,,,,,,,,,,,,,,,,,,,,,,,,,,,,,,,,,,,,,,,,,,,,,,,,,,,,,,,,,,,,,,,,,,,,,,,,,,,,,,,,,,,,,,,,,,,,,,,,,,,,,,,,,,,,,,,,,,,,,,,,,,
1737284041.394602,1737284041.394839,51.000000,0.000000,4331.922852,4349.871582,4270.897461,4324.487305,4354.230957,4359.615234,4364.487305,4557.051270,4551.153809,4566.025879,4493.717773,5637.820313,4307.307617,4266.410156,0.000000,1.000000,32.000000,,,,0.000000,0.000000,0.000000,0.000000,0.000000,0.000000,0.000000,0.000000,0.000000,0.000000,0.000000,0.000000,0.000000,0.000000,0.000000,0.000000,,,,,,,,,,,,,,,,,,,,,,,,,,,,,,,,,,,,,,,,,,,,,,,,,,,,,,,,,,,,,,,,,,,,,,,,,,,,,,,,,,,,,,,,,,,,,,,,,,,,,,,,,,,,,,,,,,,,,,,,,,,,,,,,,
1737284041.402410,1737284041.402647,52.000000,0.000000,4332.436035,4351.666504,4268.974121,4320.000000,4356.153809,4360.256348,4367.436035,4557.563965,4551.410156,4561.794922,4492.820313,5636.794922,4299.871582,4258.333496,0.000000,1.000000,32.000000,,,,0.000000,0.000000,0.000000,0.000000,0.000000,0.000000,0.000000,0.000000,0.000000,0.000000,0.000000,0.000000,0.000000,0.000000,0.000000,0.000000,,,,,,,,,,,,,,,,,13.000000,0.000000,0.659587,-0.749573,0.018860,0.052246,-0.106458,-0.979612,-0.119155,15.353559,-31.014669,17.238981,,,,,,,,,,,,,,,,,,,,,,,,,,,,,,,,,,,,,,,,,,,,,,,,,,,,,,,,,,,,,,,,,,,,,,,,,,,,,,,,,,,,,,,,,,,,,,,,,,,,,
1737284041.410218,1737284041.410355,53.000000,0.000000,4335.512695,4355.641113,4272.179688,4325.641113,4351.410156,4360.384766,4363.717773,4553.333496,4551.153809,4559.358887,4497.692383,5647.948730,4308.205078,4268.974121,0.000000,1.000000,32.000000,,,,0.000000,0.000000,0.000000,0.000000,0.000000,0.000000,0.000000,0.000000,0.000000,0.000000,0.000000,0.000000,0.000000,0.000000,0.000000,0.000000,,,,,,,,,,,,,,,,,,,,,,,,,,,,,,,,,,,,,,,,,,,,,,,,,,,,,,,,,,,,,,,,,,,,,,,,,,,,,,,,,,,,,,,,,,,,,,,,,,,,,,,,,,,,,,,,,,,,,,,,,,,,,,,,,
1737284041.418026,1737284041.418163,54.000000,0.000000,4326.025879,4347.820313,4262.051270,4321.282227,4349.871582,4361.922852,4369.743652,4555.512695,4552.436035,4562.051270,4492.307617,5637.051270,4305.384766,4255.641113,0.000000,1.000000,32.000000,,,,0.000000,0.000000,0.000000,0.000000,0.000000,0.000000,0.000000,0.000000,0.000000,0.000000,0.000000,0.000000,0.000000,0.000000,0.000000,0.000000,,,,,,,,,,,,,,,,,,,,,,,,,,,,,,,,,,,,,,,,,,,,,,,,,,,,,,,,,,,,,,,,,,,,,,,,,,,,,,,,,,,,,,,,,,,,,,,,,,,,,,,,,,,,,,,,,,,,,,,,,,,,,,,,,
1737284041.425834,1737284041.425871,55.000000,0.000000,4333.205078,4349.743652,4268.974121,4319.230957,4355.512695,4361.282227,4365.512695,4555.000000,4552.307617,4560.769043,4496.025879,5643.589844,4305.641113,4264.102539,0.000000,1.000000,32.000000,,,,0.000000,0.000000,0.000000,0.000000,0.000000,0.000000,0.000000,0.000000,0.000000,0.000000,0.000000,0.000000,0.000000,0.000000,0.000000,0.000000,,,,,,,,,,,,,,,,,,,,,,,,,,,,,,,,,,,,,,,,,,,,,,,,,,,,,,,,,,,,,,,,,,,,,,,,,,,,,,,,,,,,,,,,,,,,,,,,,,,,,,,,,,,,,,,,,,,,,,,,,,,,,,,,,
1737284041.433642,1737284041.433679,56.000000,0.000000,4335.000000,4352.179688,4269.230957,4320.256348,4354.871582,4360.897461,4364.743652,4556.025879,4550.641113,4556.922852,4495.512695,5642.820313,4302.307617,4263.846191,0.000000,1.000000,32.000000,,,,0.000000,0.000000,0.000000,0.000000,0.000000,0.000000,0.000000,0.000000,0.000000,0.000000,0.000000,0.000000,0.000000,0.000000,0.000000,0.000000,,,,,,,,,,,,,,,,,14.000000,0.000000,0.659592,-0.749573,0.018860,0.052185,-0.103528,-0.975705,-0.132829,15.218204,-30.913202,17.231749,,,,,,,,,,,,,,,,,,,,,,,,,,,,,,,,,,,,,,,,,,,,,,,,,,,,,,,,,,,,,,,,,,,,,,,,,,,,,,,,,,,,,,,,,,,,,,,,,,,,,
1737284041.441450,1737284041.441387,57.000000,0.000000,4330.128418,4351.794922,4265.000000,4319.358887,4353.717773,4361.666504,4365.128418,4559.743652,4551.538574,4560.512695,4489.487305,5633.974121,4302.179688,4252.051270,0.000000,1.000000,32.000000,,,,0.000000,0.000000,0.000000,0.000000,0.000000,0.000000,0.000000,0.000000,0.000000,0.000000,0.000000,0.000000,0.000000,0.000000,0.000000,0.000000,,,,,,,,,,,,,,,,,,,,,,,,,,,,,,,,,,,,,,,,,,,,,,,,,,,,,,,,,,,,,,,,,,,,,,,,,,,,,,,,,,,,,,,,,,,,,,,,,,,,,,,,,,,,,,,,,,,,,,,,,,,,,,,,,
1737284041.449258,1737284041.449195,58.000000,0.000000,4336.922852,4356.410156,4274.743652,4320.897461,4357.436035,4361.922852,4357.948730,4557.563965,4553.077148,4565.256348,4495.512695,5646.025879,4311.282227,4265.512695,0.000000,1.000000,32.000000,,,,0.000000,0.000000,0.000000,0.000000,0.000000,0.000000,0.000000,0.000000,0.000000,0.000000,0.000000,0.000000,0.000000,0.000000,0.000000,0.000000,,,,,,,,,,,,,,,,,,,,,,,,,,,,,,,,,,,,,,,,,,,,,,,,,,,,,,,,,,,,,,,,,,,,,,,,,,,,,,,,,,,,,,,,,,,,,,,,,,,,,,,,,,,,,,,,,,,,,,,,,,,,,,,,,
1737284041.457066,1737284041.456903,59.000000,0.000000,4330.769043,4352.436035,4266.282227,4317.179688,4354.358887,4361.922852,4364.871582,4558.077148,4553.589844,4561.025879,4492.948730,5635.256348,4304.102539,4260.769043,0.000000,1.000000,32.000000,,,,0.000000,0.000000,0.000000,0.000000,0.000000,0.000000,0.000000,0.000000,0.000000,0.000000,0.000000,0.000000,0.000000,0.000000,0.000000,0.000000,,,,,,,,,,,,,,,,,,,,,,,,,,,,,,,,,,,,,,,,,,,,,,,,,,,,,,,,,,,,,,,,,,,,,,,,,,,,,,,,,,,,,,,,,,,,,,,,,,,,,,,,,,,,,,,,,,,,,,,,,,,,,,,,,
1737284041.464874,1737284041.464711,60.000000,0.000000,4331.025879,4354.102539,4267.051270,4321.282227,4351.153809,4358.717773,4363.846191,4556.666504,4552.563965,4559.615234,4493.846191,5634.871582,4307.436035,4267.179688,0.000000,1.000000,32.000000,,,,0.000000,0.000000,0.000000,0.000000,0.000000,0.000000,0.000000,0.000000,0.000000,0.000000,0.000000,0.000000,0.000000,0.000000,0.000000,0.000000,,,,,,,,,,,,,,,,,15.000000,0.000000,0.659653,-0.749512,0.018982,0.052246,-0.108412,-0.980100,-0.116713,15.229716,-30.921881,17.275242,,,,,,,,,,,,,,,,,,,,,,,,,,,,,,,,0.021987,0.036584,0.025824,0.019687,0.025651,0.207160,0.055902,0.040415,0.008543,0.021236,0.889226,0.195614,0.096312,0.046557,0.046866,0.801779,0.160512,0.067288,0.053013,0.039181,0.086246,0.044795,0.021803,0.012581,0.023818,1.308151,0.290606,0.115087,0.092384,0.039274,1.247733,0.463456,0.136766,0.049558,0.029905,0.306407,0.137045,0.018220,0.049188,0.024376,0.864442,0.201743,0.157509,0.061674,0.025204,0.086705,0.033822,0.024989,0.030720,0.024701,0.060564,0.025486,0.034365,0.031427,0.037463,0.036840,0.031406,0.032584,0.022424,0.023668,2.520758,0.627675,0.259258,0.129735,0.032034,0.058686,0.062888,0.062686,0.026847,0.040552
1737284041.472683,1737284041.472419,61.000000,0.000000,4334.871582,4354.743652,4270.897461,4322.307617,4353.205078,4360.256348,4365.641113,4555.000000,4552.692383,4564.230957,4495.256348,5642.179688,4309.230957,4267.563965,0.000000,1.000000,32.000000,,,,0.000000,0.000000,0.000000,0.000000,0.000000,0.000000,0.000000,0.000000,0.000000,0.000000,0.000000,0.000000,0.000000,0.000000,0.000000,0.000000,,,,,,,,,,,,,,,,,,,,,,,,,,,,,,,,,,,,,,,,,,,,,,,,,,,,,,,,,,,,,,,,,,,,,,,,,,,,,,,,,,,,,,,,,,,,,,,,,,,,,,,,,,,,,,,,,,,,,,,,,,,,,,,,,
1737284041.480491,1737284041.480327,62.000000,0.000000,4331.153809,4350.512695,4265.128418,4318.077148,4353.461426,4362.179688,4372.051270,4556.922852,4552.820313,4562.692383,4492.820313,5635.128418,4300.897461,4257.948730,0.000000,1.000000,32.000000,,,,0.000000,0.000000,0.000000,0.000000,0.000000,0.000000,0.000000,0.000000,0.000000,0.000000,0.000000,0.000000,0.000000,0.000000,0.000000,0.000000,,,,,,,,,,,,,,,,,,,,,,,,,,,,,,,,,,,,,,,,,,,,,,,,,,,,,,,,,,,,,,,,,,,,,,,,,,,,,,,,,,,,,,,,,,,,,,,,,,,,,,,,,,,,,,,,,,,,,,,,,,,,,,,,,
1737284041.488299,1737284041.488136,63.000000,0.000000,4333.333496,4354.102539,4272.307617,4322.179688,4353.077148,4357.948730,4364.743652,4556.282227,4550.512695,4560.641113,4498.846191,5641.666504,4307.436035,4274.487305,0.000000,1.000000,32.000000,,,,0.000000,0.000000,0.000000,0.000000,0.000000,0.000000,0.000000,0.000000,0.000000,0.000000,0.000000,0.000000,0.000000,0.000000,0.000000,0.000000,,,,,,,,,,,,,,,,,,,,,,,,,,,,,,,,,,,,,,,,,,,,,,,,,,,,,,,,,,,,,,,,,,,,,,,,,,,,,,,,,,,,,,,,,,,,,,,,,,,,,,,,,,,,,,,,,,,,,,,,,,,,,,,,,
1737284041.496107,1737284041.495944,64.000000,0.000000,4328.589844,4351.538574,4268.205078,4317.436035,4353.846191,4360.128418,4368.974121,4556.282227,4552.436035,4560.641113,4494.487305,5637.051270,4304.487305,4262.179688,0.000000,1.000000,32.000000,,,,0.000000,0.000000,0.000000,0.000000,0.000000,0.000000,0.000000,0.000000,0.000000,0.000000,0.000000,0.000000,0.000000,0.000000,0.000000,0.000000,,,,,,,,,,,,,,,,,16.000000,0.000000,0.659651,-0.749512,0.019043,0.052246,-0.096203,-0.974728,-0.123062,15.006745,-30.946360,17.214384,,,,,,,,,,,,,,,,,,,,,,,,,,,,,,,,,,,,,,,,,,,,,,,,,,,,,,,,,,,,,,,,,,,,,,,,,,,,,,,,,,,,,,,,,,,,,,,,,,,,,
1737284041.503915,1737284041.503652,65.000000,0.000000,4331.794922,4353.461426,4268.974121,4318.077148,4354.230957,4364.230957,4366.025879,4555.128418,4553.461426,4559.358887,4495.512695,5638.846191,4304.358887,4257.948730,0.000000,1.000000,32.000000,,,,0.000000,0.000000,0.000000,0.000000,0.000000,0.000000,0.000000,0.000000,0.000000,0.000000,0.000000,0.000000,0.000000,0.000000,0.000000,0.000000,,,,,,,,,,,,,,,,,,,,,,,,,,,,,,,,,,,,,,,,,,,,,,,,,,,,,,,,,,,,,,,,,,,,,,,,,,,,,,,,,,,,,,,,,,,,,,,,,,,,,,,,,,,,,,,,,,,,,,,,,,,,,,,,,
1737284041.511723,1737284041.511560,66.000000,0.000000,4335.512695,4355.000000,4273.077148,4321.538574,4353.974121,4362.563965,4362.436035,4556.538574,4551.410156,4560.512695,4498.333496,5641.666504,4307.436035,4266.922852,0.000000,1.000000,32.000000,,,,0.000000,0.000000,0.000000,0.000000,0.000000,0.000000,0.000000,0.000000,0.000000,0.000000,0.000000,0.000000,0.000000,0.000000,0.000000,0.000000,,,,,,,,,,,,,,,,,,,,,,,,,,,,,,,,,,,,,,,,,,,,,,,,,,,,,,,,,,,,,,,,,,,,,,,,,,,,,,,,,,,,,,,,,,,,,,,,,,,,,,,,,,,,,,,,,,,,,,,,,,,,,,,,,
1737284041.519531,1737284041.519368,67.000000,0.000000,4329.487305,4347.051270,4265.128418,4318.077148,4355.641113,4360.897461,4371.922852,4557.692383,4553.205078,4563.717773,4490.512695,5631.794922,4301.538574,4257.179688,0.000000,1.000000,32.000000,,,,0.000000,0.000000,0.000000,0.000000,0.000000,0.000000,0.000000,0.000000,0.000000,0.000000,0.000000,0.000000,0.000000,0.000000,0.000000,0.000000,,,,,,,,,,,,,,,,,,,,,,,,,,,,,,,,,,,,,,,,,,,,,,,,,,,,,,,,,,,,,,,,,,,,,,,,,,,,,,,,,,,,,,,,,,,,,,,,,,,,,,,,,,,,,,,,,,,,,,,,,,,,,,,,,
1737284041.527339,1737284041.527276,68.000000,0.000000,4334.871582,4353.077148,4271.282227,4324.358887,4355.769043,4360.128418,4365.641113,4551.794922,4554.871582,4565.256348,4496.153809,5642.179688,4308.461426,4267.692383,0.000000,1.000000,32.000000,,,,0.000000,0.000000,0.000000,0.000000,0.000000,0.000000,0.000000,0.000000,0.000000,0.000000,0.000000,0.000000,0.000000,0.000000,0.000000,0.000000,,,,,,,,,,,,,,,,,17.000000,0.000000,0.659575,-0.749573,0.019104,0.052307,-0.104017,-0.978147,-0.132340,15.056070,-30.785057,17.109612,,,,,,,,,,,,,,,,,,,,,,,,,,,,,,,,,,,,,,,,,,,,,,,,,,,,,,,,,,,,,,,,,,,,,,,,,,,,,,,,,,,,,,,,,,,,,,,,,,,,,
1737284041.535147,1737284041.535084,69.000000,0.000000,4332.307617,4355.512695,4268.205078,4319.230957,4351.025879,4362.563965,4366.666504,4554.743652,4551.794922,4563.077148,4494.487305,5637.179688,4303.846191,4258.589844,0.000000,1.000000,32.000000,,,,0.000000,0.000000,0.000000,0.000000,0.000000,0.000000,0.000000,0.000000,0.000000,0.000000,0.000000,0.000000,0.000000,0.000000,0.000000,0.000000,,,,,,,,,,,,,,,,,,,,,,,,,,,,,,,,,,,,,,,,,,,,,,,,,,,,,,,,,,,,,,,,,,,,,,,,,,,,,,,,,,,,,,,,,,,,,,,,,,,,,,,,,,,,,,,,,,,,,,,,,,,,,,,,,
1737284041.542955,1737284041.542992,70.000000,0.000000,4330.769043,4354.102539,4268.974121,4316.282227,4350.512695,4361.666504,4369.230957,4558.333496,4549.230957,4561.538574,4494.230957,5634.487305,4301.666504,4257.179688,0.000000,1.000000,32.000000,,,,0.000000,0.000000,0.000000,0.000000,0.000000,0.000000,0.000000,0.000000,0.000000,0.000000,0.000000,0.000000,0.000000,0.000000,0.000000,0.000000,,,,,,,,,,,,,,,,,,,,,,,,,,,,,,,,,,,,,,,,,,,,,,,,,,,,,,,,,,,,,,,,,,,,,,,,,,,,,,,,,,,,,,,,,,,,,,,,,,,,,,,,,,,,,,,,,,,,,,,,,,,,,,,,,
1737284041.550763,1737284041.550800,71.000000,0.000000,4334.615234,4355.897461,4277.179688,4325.256348,4352.948730,4358.717773,4364.102539,4552.436035,4550.641113,4560.256348,4498.974121,5644.615234,4308.974121,4270.641113,0.000000,1.000000,32.000000,,,,0.000000,0.000000,0.000000,0.000000,0.000000,0.000000,0.000000,0.000000,0.000000,0.000000,0.000000,0.000000,0.000000,0.000000,0.000000,0.000000,,,,,,,,,,,,,,,,,,,,,,,,,,,,,,,,,,,,,,,,,,,,,,,,,,,,,,,,,,,,,,,,,,,,,,,,,,,,,,,,,,,,,,,,,,,,,,,,,,,,,,,,,,,,,,,,,,,,,,,,,,,,,,,,,
1737284041.558572,1737284041.558708,72.000000,0.000000,4329.102539,4350.384766,4267.436035,4320.256348,4352.307617,4361.282227,4369.358887,4551.922852,4552.563965,4557.692383,4489.743652,5635.384766,4301.153809,4256.282227,0.000000,1.000000,32.000000,,,,0.000000,0.000000,0.000000,0.000000,0.000000,0.000000,0.000000,0.000000,0.000000,0.000000,0.000000,0.000000,0.000000,0.000000,0.000000,0.000000,,,,,,,,,,,,,,,,,18.000000,0.000000,0.659580,-0.749573,0.019104,0.052246,-0.105970,-0.978147,-0.121109,15.033796,-30.806551,17.081984,,,,,,,,,,,,,,,,,,,,,,,,,,,,,,,,,,,,,,,,,,,,,,,,,,,,,,,,,,,,,,,,,,,,,,,,,,,,,,,,,,,,,,,,,,,,,,,,,,,,,
1737284041.566380,1737284041.566516,73.000000,0.000000,4333.846191,4352.948730,4272.307617,4321.538574,4353.717773,4359.871582,4365.769043,4553.589844,4552.948730,4559.871582,4492.563965,5641.153809,4305.384766,4263.589844,0.000000,1.000000,32.000000,,,,0.000000,0.000000,0.000000,0.000000,0.000000,0.000000,0.000000,0.000000,0.000000,0.000000,0.000000,0.000000,0.000000,0.000000,0.000000,0.000000,,,,,,,,,,,,,,,,,,,,,,,,,,,,,,,,,,,,,,,,,,,,,,,,,,,,,,,,,,,,,,,,,,,,,,,,,,,,,,,,,,,,,,,,,,,,,,,,,,,,,,,,,,,,,,,,,,,,,,,,,,,,,,,,,
1737284041.574188,1737284041.574424,74.000000,0.000000,4331.410156,4352.692383,4270.512695,4323.461426,4355.512695,4358.077148,4368.333496,4555.641113,4552.563965,4560.769043,4490.641113,5639.230957,4304.615234,4259.615234,0.000000,1.000000,32.000000,,,,0.000000,0.000000,0.000000,0.000000,0.000000,0.000000,0.000000,0.000000,0.000000,0.000000,0.000000,0.000000,0.000000,0.000000,0.000000,0.000000,,,,,,,,,,,,,,,,,,,,,,,,,,,,,,,,,,,,,,,,,,,,,,,,,,,,,,,,,,,,,,,,,,,,,,,,,,,,,,,,,,,,,,,,,,,,,,,,,,,,,,,,,,,,,,,,,,,,,,,,,,,,,,,,,
1737284041.581996,1737284041.582232,75.000000,0.000000,4326.153809,4350.641113,4266.538574,4319.743652,4354.871582,4361.922852,4366.794922,4554.871582,4552.563965,4559.871582,4487.563965,5634.871582,4301.153809,4256.410156,0.000000,1.000000,32.000000,,,,0.000000,0.000000,0.000000,0.000000,0.000000,0.000000,0.000000,0.000000,0.000000,0.000000,0.000000,0.000000,0.000000,0.000000,0.000000,0.000000,,,,,,,,,,,,,,,,,,,,,,,,,,,,,,,,,,,,,,,,,,,,,,,,,,,,,,,,,,,,,,,,,,,,,,,,,,,,,,,,,,,,,,,,,,,,,,,,,,,,,,,,,,,,,,,,,,,,,,,,,,,,,,,,,
1737284041.589804,1737284041.590040,76.000000,0.000000,4332.692383,4351.666504,4275.769043,4320.769043,4354.230957,4363.717773,4359.487305,4550.128418,4552.436035,4561.282227,4495.641113,5646.410156,4308.846191,4272.307617,0.000000,1.000000,32.000000,,,,0.000000,0.000000,0.000000,0.000000,0.000000,0.000000,0.000000,0.000000,0.000000,0.000000,0.000000,0.000000,0.000000,0.000000,0.000000,0.000000,,,,,,,,,,,,,,,,,19.000000,0.000000,0.659580,-0.749573,0.019104,0.052246,-0.103040,-0.975705,-0.130875,14.980417,-30.642563,17.057119,,,,,,,,,,,,,,,,,,,,,,,,,,,,,,,,0.021465,0.030369,0.025424,0.016273,0.025600,0.223823,0.073507,0.041304,0.009835,0.023922,0.892970,0.208440,0.095272,0.047192,0.042472,0.794854,0.192844,0.069816,0.055761,0.042367,0.099211,0.061898,0.026081,0.011812,0.023745,1.314630,0.331074,0.099463,0.070839,0.037343,1.339479,0.554835,0.129950,0.048201,0.029807,0.325009,0.142477,0.016993,0.045249,0.022535,0.875499,0.227913,0.149929,0.046188,0.023929,0.088797,0.045695,0.024910,0.024720,0.023673,0.054442,0.020330,0.030698,0.031429,0.032608,0.035914,0.028265,0.030087,0.023900,0.023263,2.485678,0.634705,0.228020,0.104511,0.030686,0.060053,0.054992,0.047705,0.023083,0.038727
1737284041.597612,1737284041.597848,77.000000,0.000000,4331.282227,4345.256348,4266.410156,4318.846191,4354.358887,4362.692383,4371.025879,4555.641113,4552.563965,4561.153809,4492.307617,5638.205078,4301.794922,4256.922852,0.000000,1.000000,32.000000,,,,0.000000,0.000000,0.000000,0.000000,0.000000,0.000000,0.000000,0.000000,0.000000,0.000000,0.000000,0.000000,0.000000,0.000000,0.000000,0.000000,,,,,,,,,,,,,,,,,,,,,,,,,,,,,,,,,,,,,,,,,,,,,,,,,,,,,,,,,,,,,,,,,,,,,,,,,,,,,,,,,,,,,,,,,,,,,,,,,,,,,,,,,,,,,,,,,,,,,,,,,,,,,,,,,
1737284041.605420,1737284041.605556,78.000000,0.000000,4336.282227,4352.307617,4269.615234,4322.179688,4355.897461,4362.820313,4366.538574,4557.307617,4551.025879,4562.051270,4496.538574,5643.205078,4305.000000,4262.692383,0.000000,1.000000,32.000000,,,,0.000000,0.000000,0.000000,0.000000,0.000000,0.000000,0.000000,0.000000,0.000000,0.000000,0.000000,0.000000,0.000000,0.000000,0.000000,0.000000,,,,,,,,,,,,,,,,,,,,,,,,,,,,,,,,,,,,,,,,,,,,,,,,,,,,,,,,,,,,,,,,,,,,,,,,,,,,,,,,,,,,,,,,,,,,,,,,,,,,,,,,,,,,,,,,,,,,,,,,,,,,,,,,,
1737284041.613228,1737284041.613364,79.000000,0.000000,4335.128418,4353.589844,4272.051270,4322.820313,4354.358887,4363.333496,4361.794922,4553.077148,4551.538574,4561.666504,4497.051270,5643.077148,4307.307617,4267.563965,0.000000,1.000000,32.000000,,,,0.000000,0.000000,0.000000,0.000000,0.000000,0.000000,0.000000,0.000000,0.000000,0.000000,0.000000,0.000000,0.000000,0.000000,0.000000,0.000000,,,,,,,,,,,,,,,,,,,,,,,,,,,,,,,,,,,,,,,,,,,,,,,,,,,,,,,,,,,,,,,,,,,,,,,,,,,,,,,,,,,,,,,,,,,,,,,,,,,,,,,,,,,,,,,,,,,,,,,,,,,,,,,,,
1737284041.621036,1737284041.621072,80.000000,0.000000,4326.794922,4347.051270,4266.153809,4322.307617,4352.307617,4359.615234,4367.307617,4555.769043,4554.743652,4558.846191,4492.307617,5634.102539,4302.179688,4257.948730,0.000000,1.000000,32.000000,,,,0.000000,0.000000,0.000000,0.000000,0.000000,0.000000,0.000000,0.000000,0.000000,0.000000,0.000000,0.000000,0.000000,0.000000,0.000000,0.000000,,,,,,,,,,,,,,,,,20.000000,0.000000,0.659511,-0.749634,0.019104,0.052246,-0.091808,-0.984007,-0.116713,15.115708,-30.611641,16.968073,,,,,,,,,,,,,,,,,,,,,,,,,,,,,,,,,,,,,,,,,,,,,,,,,,,,,,,,,,,,,,,,,,,,,,,,,,,,,,,,,,,,,,,,,,,,,,,,,,,,,
1737284041.628844,1737284041.628880,81.000000,0.000000,4333.589844,4351.922852,4276.410156,4327.051270,4354.871582,4358.846191,4361.666504,4557.948730,4553.846191,4559.358887,4497.179688,5645.769043,4306.153809,4268.589844,0.000000,1.000000,32.000000,,,,0.000000,0.000000,0.000000,0.000000,0.000000,0.000000,0.000000,0.000000,0.000000,0.000000,0.000000,0.000000,0.000000,0.000000,0.000000,0.000000,,,,,,,,,,,,,,,,,,,,,,,,,,,,,,,,,,,,,,,,,,,,,,,,,,,,,,,,,,,,,,,,,,,,,,,,,,,,,,,,,,,,,,,,,,,,,,,,,,,,,,,,,,,,,,,,,,,,,,,,,,,,,,,,,
