title:bread1, start timestamp:1738754176.901344, stop timestamp:1738754177.932014, headset type:EPOCX, headset serial:E50208A5, headset firmware:720, channels:168, sampling rate:eeg_128;mot_32;pm_0.1;pow_8, samples:133       , version:2.2, 
Timestamp,OriginalTimestamp,EEG.Counter,EEG.Interpolated,EEG.AF3,EEG.F7,EEG.F3,EEG.FC5,EEG.T7,EEG.P7,EEG.O1,EEG.O2,EEG.P8,EEG.T8,EEG.FC6,EEG.F4,EEG.F8,EEG.AF4,EEG.RawCq,EEG.Battery,EEG.BatteryPercent,MarkerIndex,MarkerType,MarkerValueInt,EEG.MarkerHardware,CQ.AF3,CQ.F7,CQ.F3,CQ.FC5,CQ.T7,CQ.P7,CQ.O1,CQ.O2,CQ.P8,CQ.T8,CQ.FC6,CQ.F4,CQ.F8,CQ.AF4,CQ.Overall,EQ.SampleRateQuality,EQ.OVERALL,EQ.AF3,EQ.F7,EQ.F3,EQ.FC5,EQ.T7,EQ.P7,EQ.O1,EQ.O2,EQ.P8,EQ.T8,EQ.FC6,EQ.F4,EQ.F8,EQ.AF4,MOT.CounterMems,MOT.InterpolatedMems,MOT.Q0,MOT.Q1,MOT.Q2,MOT.Q3,MOT.AccX,MOT.AccY,MOT.AccZ,MOT.MagX,MOT.MagY,MOT.MagZ,PM.Attention.IsActive,PM.Attention.Scaled,PM.Attention.Raw,PM.Attention.Min,PM.Attention.Max,PM.Engagement.IsActive,PM.Engagement.Scaled,PM.Engagement.Raw,PM.Engagement.Min,PM.Engagement.Max,PM.Excitement.IsActive,PM.Excitement.Scaled,PM.Excitement.Raw,PM.Excitement.Min,PM.Excitement.Max,PM.LongTermExcitement,PM.Stress.IsActive,PM.Stress.Scaled,PM.Stress.Raw,PM.Stress.Min,PM.Stress.Max,PM.Relaxation.IsActive,PM.Relaxation.Scaled,PM.Relaxation.Raw,PM.Relaxation.Min,PM.Relaxation.Max,PM.Interest.IsActive,PM.Interest.Scaled,PM.Interest.Raw,PM.Interest.Min,PM.Interest.Max,POW.AF3.Theta,POW.AF3.Alpha,POW.AF3.BetaL,POW.AF3.BetaH,POW.AF3.Gamma,POW.F7.Theta,POW.F7.Alpha,POW.F7.BetaL,POW.F7.BetaH,POW.F7.Gamma,POW.F3.Theta,POW.F3.Alpha,POW.F3.BetaL,POW.F3.BetaH,POW.F3.Gamma,POW.FC5.Theta,POW.FC5.Alpha,POW.FC5.BetaL,POW.FC5.BetaH,POW.FC5.Gamma,POW.T7.Theta,POW.T7.Alpha,POW.T7.BetaL,POW.T7.BetaH,POW.T7.Gamma,POW.P7.Theta,POW.P7.Alpha,POW.P7.BetaL,POW.P7.BetaH,POW.P7.Gamma,POW.O1.Theta,POW.O1.Alpha,POW.O1.BetaL,POW.O1.BetaH,POW.O1.Gamma,POW.O2.Theta,POW.O2.Alpha,POW.O2.BetaL,POW.O2.BetaH,POW.O2.Gamma,POW.P8.Theta,POW.P8.Alpha,POW.P8.BetaL,POW.P8.BetaH,POW.P8.Gamma,POW.T8.Theta,POW.T8.Alpha,POW.T8.BetaL,POW.T8.BetaH,POW.T8.Gamma,POW.FC6.Theta,POW.FC6.Alpha,POW.FC6.BetaL,POW.FC6.BetaH,POW.FC6.Gamma,POW.F4.Theta,POW.F4.Alpha,POW.F4.BetaL,POW.F4.BetaH,POW.F4.Gamma,POW.F8.Theta,POW.F8.Alpha,POW.F8.BetaL,POW.F8.BetaH,POW.F8.Gamma,POW.AF4.Theta,POW.AF4.Alpha,POW.AF4.BetaL,POW.AF4.BetaH,POW.AF4.Gamma
1738754176.901344,1738754176.901791,19.000000,0.000000,4315.897461,4346.282227,4249.230957,4303.846191,4348.077148,4357.692383,4363.974121,4548.333496,4537.179688,4554.743652,4494.358887,5663.846191,4302.692383,4252.307617,0.000000,4.000000,79.000000,,,,0.000000,0.000000,0.000000,0.000000,0.000000,0.000000,0.000000,0.000000,0.000000,0.000000,0.000000,0.000000,0.000000,0.000000,0.000000,0.000000,,,,,,,,,,,,,,,,,,,,,,,,,,,,,,,,,,,,,,,,,,,,,,,,,,,,,,,,,,,,,,,,,,,,,,,,,,,,,,,,,,,,,,,,,,,,,,,,,,,,,,,,,,,,,,,,,,,,,,,,,,,,,,,,,
1738754176.909152,1738754176.909499,20.000000,0.000000,4314.358887,4347.307617,4246.922852,4302.307617,4347.179688,4356.410156,4360.128418,4547.179688,4537.436035,4554.487305,4496.794922,5663.461426,4308.589844,4255.641113,0.000000,4.000000,79.000000,,,,0.000000,0.000000,0.000000,0.000000,0.000000,0.000000,0.000000,0.000000,0.000000,0.000000,0.000000,0.000000,0.000000,0.000000,0.000000,0.000000,,,,,,,,,,,,,,,,,5.000000,0.000000,0.785737,-0.615845,-0.054932,0.018311,0.067391,-0.967892,0.230009,4.373696,-15.399671,22.411198,,,,,,,,,,,,,,,,,,,,,,,,,,,,,,,,,,,,,,,,,,,,,,,,,,,,,,,,,,,,,,,,,,,,,,,,,,,,,,,,,,,,,,,,,,,,,,,,,,,,,
1738754176.916960,1738754176.917307,21.000000,0.000000,4320.256348,4348.461426,4250.641113,4298.077148,4346.922852,4357.563965,4361.153809,4545.384766,4536.025879,4557.692383,4495.128418,5660.641113,4309.871582,4257.948730,0.000000,4.000000,79.000000,,,,0.000000,0.000000,0.000000,0.000000,0.000000,0.000000,0.000000,0.000000,0.000000,0.000000,0.000000,0.000000,0.000000,0.000000,0.000000,0.000000,,,,,,,,,,,,,,,,,,,,,,,,,,,,,,,,,,,,,,,,,,,,,,,,,,,,,,,,,,,,,,,,,,,,,,,,,,,,,,,,,,,,,,,,,,,,,,,,,,,,,,,,,,,,,,,,,,,,,,,,,,,,,,,,,
1738754176.924769,1738754176.925015,22.000000,0.000000,4323.846191,4347.820313,4254.230957,4298.846191,4349.743652,4358.846191,4364.615234,4547.820313,4534.615234,4557.563965,4494.230957,5662.563965,4301.410156,4251.538574,0.000000,4.000000,79.000000,,,,0.000000,0.000000,0.000000,0.000000,0.000000,0.000000,0.000000,0.000000,0.000000,0.000000,0.000000,0.000000,0.000000,0.000000,0.000000,0.000000,,,,,,,,,,,,,,,,,,,,,,,,,,,,,,,,,,,,,,,,,,,,,,,,,,,,,,,,,,,,,,,,,,,,,,,,,,,,,,,,,,,,,,,,,,,,,,,,,,,,,,,,,,,,,,,,,,,,,,,,,,,,,,,,,
1738754176.932577,1738754176.932823,23.000000,0.000000,4319.871582,4348.717773,4250.769043,4299.871582,4349.487305,4358.717773,4357.820313,4545.769043,4536.666504,4555.512695,4496.538574,5658.333496,4311.922852,4253.846191,0.000000,4.000000,79.000000,,,,0.000000,0.000000,0.000000,0.000000,0.000000,0.000000,0.000000,0.000000,0.000000,0.000000,0.000000,0.000000,0.000000,0.000000,0.000000,0.000000,,,,,,,,,,,,,,,,,,,,,,,,,,,,,,,,,,,,,,,,,,,,,,,,,,,,,,,,,,,,,,,,,,,,,,,,,,,,,,,,,,,,,,,,,,,,,,,,,,,,,,,,,,,,,,,,,,,,,,,,,,,,,,,,,
1738754176.940385,1738754176.940531,24.000000,0.000000,4318.205078,4347.563965,4250.769043,4303.846191,4348.333496,4360.000000,4359.230957,4547.307617,4535.769043,4555.000000,4493.717773,5662.436035,4306.666504,4253.461426,0.000000,4.000000,79.000000,,,,0.000000,0.000000,0.000000,0.000000,0.000000,0.000000,0.000000,0.000000,0.000000,0.000000,0.000000,0.000000,0.000000,0.000000,0.000000,0.000000,,,,,,,,,,,,,,,,,6.000000,0.000000,0.785738,-0.615845,-0.054932,0.018250,0.066903,-0.976682,0.241729,4.269660,-15.209703,22.370077,,,,,,,,,,,,,,,,,,,,,,,,,,,,,,,,,,,,,,,,,,,,,,,,,,,,,,,,,,,,,,,,,,,,,,,,,,,,,,,,,,,,,,,,,,,,,,,,,,,,,
1738754176.948193,1738754176.948439,25.000000,0.000000,4317.563965,4347.307617,4252.307617,4300.512695,4348.846191,4360.897461,4362.820313,4547.820313,4537.179688,4555.384766,4495.641113,5661.153809,4304.743652,4255.384766,0.000000,4.000000,79.000000,,,,0.000000,0.000000,0.000000,0.000000,0.000000,0.000000,0.000000,0.000000,0.000000,0.000000,0.000000,0.000000,0.000000,0.000000,0.000000,0.000000,,,,,,,,,,,,,,,,,,,,,,,,,,,,,,,,,,,,,,,,,,,,,,,,,,,,,,,,,,,,,,,,,,,,,,,,,,,,,,,,,,,,,,,,,,,,,,,,,,,,,,,,,,,,,,,,,,,,,,,,,,,,,,,,,
1738754176.956001,1738754176.956247,26.000000,0.000000,4317.820313,4348.461426,4251.410156,4298.846191,4347.307617,4359.487305,4363.333496,4546.922852,4537.563965,4554.358887,4496.666504,5658.717773,4308.205078,4256.666504,0.000000,4.000000,79.000000,,,,0.000000,0.000000,0.000000,0.000000,0.000000,0.000000,0.000000,0.000000,0.000000,0.000000,0.000000,0.000000,0.000000,0.000000,0.000000,0.000000,,,,,,,,,,,,,,,,,,,,,,,,,,,,,,,,,,,,,,,,,,,,,,,,,,,,,,,,,,,,,,,,,,,,,,,,,,,,,,,,,,,,,,,,,,,,,,,,,,,,,,,,,,,,,,,,,,,,,,,,,,,,,,,,,
1738754176.963809,1738754176.964055,27.000000,0.000000,4319.358887,4346.794922,4251.666504,4303.077148,4344.615234,4356.410156,4364.102539,4548.974121,4535.897461,4554.487305,4493.974121,5666.153809,4304.358887,4254.102539,0.000000,4.000000,79.000000,,,,0.000000,0.000000,0.000000,0.000000,0.000000,0.000000,0.000000,0.000000,0.000000,0.000000,0.000000,0.000000,0.000000,0.000000,0.000000,0.000000,,,,,,,,,,,,,,,,,,,,,,,,,,,,,,,,,,,,,,,,,,,,,,,,,,,,,,,,,,,,,,,,,,,,,,,,,,,,,,,,,,,,,,,,,,,,,,,,,,,,,,,,,,,,,,,,,,,,,,,,,,,,,,,,,
1738754176.971617,1738754176.971763,28.000000,0.000000,4321.025879,4347.051270,4251.410156,4300.000000,4345.512695,4354.487305,4360.769043,4546.922852,4539.871582,4556.538574,4497.948730,5662.436035,4311.282227,4257.563965,0.000000,4.000000,79.000000,,,,0.000000,0.000000,0.000000,0.000000,0.000000,0.000000,0.000000,0.000000,0.000000,0.000000,0.000000,0.000000,0.000000,0.000000,0.000000,0.000000,,,,,,,,,,,,,,,,,7.000000,0.000000,0.785733,-0.615845,-0.054993,0.018311,0.070321,-0.963497,0.235380,4.326027,-15.238733,22.399736,,,,,,,,,,,,,,,,,,,,,,,,,,,,,,,,,,,,,,,,,,,,,,,,,,,,,,,,,,,,,,,,,,,,,,,,,,,,,,,,,,,,,,,,,,,,,,,,,,,,,
1738754176.979425,1738754176.979671,29.000000,0.000000,4325.384766,4347.307617,4251.666504,4301.538574,4349.358887,4357.179688,4364.358887,4547.948730,4535.256348,4555.769043,4497.948730,5661.282227,4304.230957,4253.333496,0.000000,4.000000,79.000000,,,,0.000000,0.000000,0.000000,0.000000,0.000000,0.000000,0.000000,0.000000,0.000000,0.000000,0.000000,0.000000,0.000000,0.000000,0.000000,0.000000,,,,,,,,,,,,,,,,,,,,,,,,,,,,,,,,,,,,,,,,,,,,,,,,,,,,,,,,,,,,,,,,,,,,,,,,,,,,,,,,,,,,,,,,,,,,,,,,,,,,,,,,,,,,,,,,,,,,,,,,,,,,,,,,,
1738754176.987233,1738754176.987479,30.000000,0.000000,4321.666504,4348.333496,4251.538574,4301.410156,4348.846191,4358.205078,4363.589844,4547.051270,4530.641113,4555.897461,4496.538574,5662.820313,4305.641113,4252.051270,0.000000,4.000000,79.000000,,,,0.000000,0.000000,0.000000,0.000000,0.000000,0.000000,0.000000,0.000000,0.000000,0.000000,0.000000,0.000000,0.000000,0.000000,0.000000,0.000000,1.000000,0.000000,0.000000,0.000000,0.000000,0.000000,0.000000,0.000000,0.000000,0.000000,0.000000,0.000000,0.000000,0.000000,0.000000,0.000000,,,,,,,,,,,,,,,,,,,,,,,,,,,,,,,,,,,,,,,,,,,,0.035797,0.033159,0.012528,0.048539,0.037673,0.016074,0.025089,0.009443,0.023811,0.017536,0.010660,0.031442,0.013852,0.019296,0.034341,0.045434,0.015044,0.046932,0.009552,0.016441,0.014005,0.012720,0.019101,0.033667,0.020704,0.061096,0.028085,0.037374,0.026455,0.038099,0.047373,0.043610,0.028579,0.022513,0.042878,0.010307,0.009676,0.023278,0.015928,0.020830,0.025749,0.016126,0.020425,0.017209,0.026595,0.007813,0.011033,0.026109,0.022540,0.011215,0.011394,0.030530,0.016696,0.008397,0.019013,0.015188,0.015766,0.041097,0.028619,0.029485,0.024723,0.016641,0.091856,0.040045,0.026538,0.083086,0.028019,0.029916,0.026962,0.036995
1738754176.995041,1738754176.995388,31.000000,0.000000,4316.922852,4349.102539,4251.922852,4299.230957,4346.922852,4354.487305,4360.000000,4545.384766,4535.897461,4557.436035,4498.461426,5660.000000,4312.307617,4256.025879,0.000000,4.000000,79.000000,,,,0.000000,0.000000,0.000000,0.000000,0.000000,0.000000,0.000000,0.000000,0.000000,0.000000,0.000000,0.000000,0.000000,0.000000,0.000000,0.000000,,,,,,,,,,,,,,,,,,,,,,,,,,,,,,,,,,,,,,,,,,,,,,,,,,,,,,,,,,,,,,,,,,,,,,,,,,,,,,,,,,,,,,,,,,,,,,,,,,,,,,,,,,,,,,,,,,,,,,,,,,,,,,,,,
1738754177.002849,1738754177.003196,32.000000,0.000000,4320.641113,4346.666504,4250.512695,4304.230957,4346.666504,4355.384766,4365.256348,4549.102539,4537.436035,4556.025879,4496.666504,5661.153809,4301.794922,4253.589844,0.000000,4.000000,79.000000,,,,0.000000,0.000000,0.000000,0.000000,0.000000,0.000000,0.000000,0.000000,0.000000,0.000000,0.000000,0.000000,0.000000,0.000000,0.000000,0.000000,,,,,,,,,,,,,,,,,8.000000,0.000000,0.785676,-0.615906,-0.055115,0.018311,0.052741,-0.966915,0.230985,4.410091,-15.264859,22.343096,,,,,,,,,,,,,,,,,,,,,,,,,,,,,,,,,,,,,,,,,,,,,,,,,,,,,,,,,,,,,,,,,,,,,,,,,,,,,,,,,,,,,,,,,,,,,,,,,,,,,
1738754177.010658,1738754177.011104,33.000000,0.000000,4320.256348,4346.538574,4248.589844,4302.563965,4346.282227,4359.871582,4362.948730,4545.641113,4536.922852,4554.615234,4495.769043,5658.205078,4309.871582,4256.666504,0.000000,4.000000,79.000000,,,,0.000000,0.000000,0.000000,0.000000,0.000000,0.000000,0.000000,0.000000,0.000000,0.000000,0.000000,0.000000,0.000000,0.000000,0.000000,0.000000,,,,,,,,,,,,,,,,,,,,,,,,,,,,,,,,,,,,,,,,,,,,,,,,,,,,,,,,,,,,,,,,,,,,,,,,,,,,,,,,,,,,,,,,,,,,,,,,,,,,,,,,,,,,,,,,,,,,,,,,,,,,,,,,,
1738754177.018466,1738754177.018912,34.000000,0.000000,4317.692383,4347.436035,4251.922852,4298.717773,4347.436035,4361.538574,4362.051270,4545.897461,4535.256348,4553.974121,4493.974121,5663.077148,4308.589844,4253.717773,0.000000,4.000000,79.000000,,,,0.000000,0.000000,0.000000,0.000000,0.000000,0.000000,0.000000,0.000000,0.000000,0.000000,0.000000,0.000000,0.000000,0.000000,0.000000,0.000000,,,,,,,,,,,,,,,,,,,,,,,,,,,,,,,,,,,,,,,,,,,,,,,,,,,,,,,,,,,,,,,,,,,,,,,,,,,,,,,,,,,,,,,,,,,,,,,,,,,,,,,,,,,,,,,,,,,,,,,,,,,,,,,,,
1738754177.026274,1738754177.026820,35.000000,0.000000,4319.615234,4348.205078,4252.051270,4297.436035,4347.948730,4358.974121,4362.179688,4548.589844,4536.025879,4555.512695,4492.692383,5666.025879,4303.077148,4252.307617,0.000000,4.000000,79.000000,,,,0.000000,0.000000,0.000000,0.000000,0.000000,0.000000,0.000000,0.000000,0.000000,0.000000,0.000000,0.000000,0.000000,0.000000,0.000000,0.000000,,,,,,,,,,,,,,,,,,,,,,,,,,,,,,,,,,,,,,,,,,,,,,,,,,,,,,,,,,,,,,,,,,,,,,,,,,,,,,,,,,,,,,,,,,,,,,,,,,,,,,,,,,,,,,,,,,,,,,,,,,,,,,,,,
1738754177.034082,1738754177.034628,36.000000,0.000000,4322.179688,4348.333496,4248.077148,4299.102539,4347.948730,4356.282227,4360.512695,4546.153809,4537.820313,4557.307617,4494.743652,5660.384766,4309.102539,4255.512695,0.000000,4.000000,79.000000,,,,0.000000,0.000000,0.000000,0.000000,0.000000,0.000000,0.000000,0.000000,0.000000,0.000000,0.000000,0.000000,0.000000,0.000000,0.000000,0.000000,,,,,,,,,,,,,,,,,9.000000,0.000000,0.785721,-0.615845,-0.055176,0.018250,0.063973,-0.964962,0.244659,4.452415,-15.255040,22.242119,,,,,,,,,,,,,,,,,,,,,,,,,,,,,,,,,,,,,,,,,,,,,,,,,,,,,,,,,,,,,,,,,,,,,,,,,,,,,,,,,,,,,,,,,,,,,,,,,,,,,
1738754177.041890,1738754177.042536,37.000000,0.000000,4322.563965,4346.153809,4248.589844,4303.461426,4348.846191,4357.051270,4366.025879,4547.307617,4534.871582,4553.589844,4495.000000,5664.615234,4301.794922,4250.641113,0.000000,4.000000,79.000000,,,,0.000000,0.000000,0.000000,0.000000,0.000000,0.000000,0.000000,0.000000,0.000000,0.000000,0.000000,0.000000,0.000000,0.000000,0.000000,0.000000,,,,,,,,,,,,,,,,,,,,,,,,,,,,,,,,,,,,,,,,,,,,,,,,,,,,,,,,,,,,,,,,,,,,,,,,,,,,,,,,,,,,,,,,,,,,,,,,,,,,,,,,,,,,,,,,,,,,,,,,,,,,,,,,,
1738754177.049698,1738754177.050344,38.000000,0.000000,4318.717773,4346.666504,4249.358887,4299.487305,4349.102539,4359.102539,4363.974121,4544.615234,4535.769043,4553.333496,4496.282227,5660.256348,4308.589844,4254.615234,0.000000,4.000000,79.000000,,,,0.000000,0.000000,0.000000,0.000000,0.000000,0.000000,0.000000,0.000000,0.000000,0.000000,0.000000,0.000000,0.000000,0.000000,0.000000,0.000000,,,,,,,,,,,,,,,,,,,,,,,,,,,,,,,,,,,,,,,,,,,,,,,,,,,,,,,,,,,,,,,,,,,,,,,,,,,,,,,,,,,,,,,,,,,,,,,,,,,,,,,,,,,,,,,,,,,,,,,,,,,,,,,,,
1738754177.057506,1738754177.058252,39.000000,0.000000,4318.205078,4347.563965,4248.846191,4299.487305,4350.000000,4360.256348,4362.692383,4545.769043,4537.179688,4556.794922,4495.897461,5658.077148,4309.102539,4255.000000,0.000000,4.000000,79.000000,,,,0.000000,0.000000,0.000000,0.000000,0.000000,0.000000,0.000000,0.000000,0.000000,0.000000,0.000000,0.000000,0.000000,0.000000,0.000000,0.000000,,,,,,,,,,,,,,,,,,,,,,,,,,,,,,,,,,,,,,,,,,,,,,,,,,,,,,,,,,,,,,,,,,,,,,,,,,,,,,,,,,,,,,,,,,,,,,,,,,,,,,,,,,,,,,,,,,,,,,,,,,,,,,,,,
1738754177.065314,1738754177.066160,40.000000,0.000000,4320.897461,4347.436035,4249.743652,4302.692383,4349.230957,4359.871582,4365.897461,4548.974121,4537.692383,4555.769043,4494.871582,5665.256348,4302.820313,4252.563965,0.000000,4.000000,79.000000,,,,0.000000,0.000000,0.000000,0.000000,0.000000,0.000000,0.000000,0.000000,0.000000,0.000000,0.000000,0.000000,0.000000,0.000000,0.000000,0.000000,,,,,,,,,,,,,,,,,10.000000,0.000000,0.785769,-0.615784,-0.055176,0.018250,0.061531,-0.975705,0.237822,4.523840,-15.379537,22.367908,,,,,,,,,,,,,,,,,,,,,,,,,,,,,,,,,,,,,,,,,,,,,,,,,,,,,,,,,,,,,,,,,,,,,,,,,,,,,,,,,,,,,,,,,,,,,,,,,,,,,
1738754177.073122,1738754177.073969,41.000000,0.000000,4320.641113,4346.794922,4253.974121,4299.230957,4345.641113,4358.846191,4365.256348,4545.000000,4537.563965,4552.948730,4496.153809,5662.179688,4311.153809,4257.948730,0.000000,4.000000,79.000000,,,,0.000000,0.000000,0.000000,0.000000,0.000000,0.000000,0.000000,0.000000,0.000000,0.000000,0.000000,0.000000,0.000000,0.000000,0.000000,0.000000,,,,,,,,,,,,,,,,,,,,,,,,,,,,,,,,,,,,,,,,,,,,,,,,,,,,,,,,,,,,,,,,,,,,,,,,,,,,,,,,,,,,,,,,,,,,,,,,,,,,,,,,,,,,,,,,,,,,,,,,,,,,,,,,,
1738754177.080931,1738754177.081777,42.000000,0.000000,4319.358887,4345.512695,4256.922852,4301.025879,4346.410156,4356.538574,4365.128418,4546.538574,4533.333496,4552.563965,4494.871582,5661.025879,4304.615234,4253.717773,0.000000,4.000000,79.000000,,,,0.000000,0.000000,0.000000,0.000000,0.000000,0.000000,0.000000,0.000000,0.000000,0.000000,0.000000,0.000000,0.000000,0.000000,0.000000,0.000000,,,,,,,,,,,,,,,,,,,,,,,,,,,,,,,,,,,,,,,,,,,,,,,,,,,,,,,,,,,,,,,,,,,,,,,,,,,,,,,,,,,,,,,,,,,,,,,,,,,,,,,,,,,,,,,,,,,,,,,,,,,,,,,,,
1738754177.088739,1738754177.089485,43.000000,0.000000,4317.051270,4351.794922,4252.820313,4299.358887,4348.205078,4356.922852,4360.128418,4546.922852,4535.512695,4554.871582,4497.692383,5659.102539,4305.000000,4254.615234,0.000000,4.000000,79.000000,,,,0.000000,0.000000,0.000000,0.000000,0.000000,0.000000,0.000000,0.000000,0.000000,0.000000,0.000000,0.000000,0.000000,0.000000,0.000000,0.000000,,,,,,,,,,,,,,,,,,,,,,,,,,,,,,,,,,,,,,,,,,,,,,,,,,,,,,,,,,,,,,,,,,,,,,,,,,,,,,,,,,,,,,,,,,,,,,,,,,,,,,,,,,,,,,,,,,,,,,,,,,,,,,,,,
1738754177.096547,1738754177.097293,44.000000,0.000000,4318.205078,4352.051270,4250.384766,4297.692383,4346.922852,4362.948730,4362.436035,4546.153809,4538.589844,4554.102539,4496.794922,5661.538574,4303.461426,4256.025879,0.000000,4.000000,79.000000,,,,0.000000,0.000000,0.000000,0.000000,0.000000,0.000000,0.000000,0.000000,0.000000,0.000000,0.000000,0.000000,0.000000,0.000000,0.000000,0.000000,,,,,,,,,,,,,,,,,11.000000,0.000000,0.785759,-0.615784,-0.055298,0.018311,0.082530,-0.973752,0.233915,4.588123,-15.358250,22.397783,,,,,,,,,,,,,,,,,,,,,,,,,,,,,,,,,,,,,,,,,,,,,,,,,,,,,,,,,,,,,,,,,,,,,,,,,,,,,,,,,,,,,,,,,,,,,,,,,,,,,
1738754177.104355,1738754177.105001,45.000000,0.000000,4319.358887,4346.282227,4251.538574,4301.794922,4347.051270,4362.051270,4364.487305,4547.692383,4535.000000,4553.333496,4494.102539,5665.128418,4300.000000,4253.333496,0.000000,4.000000,79.000000,,,,0.000000,0.000000,0.000000,0.000000,0.000000,0.000000,0.000000,0.000000,0.000000,0.000000,0.000000,0.000000,0.000000,0.000000,0.000000,0.000000,,,,,,,,,,,,,,,,,,,,,,,,,,,,,,,,,,,,,,,,,,,,,,,,,,,,,,,,,,,,,,,,,,,,,,,,,,,,,,,,,,,,,,,,,,,,,,,,,,,,,,,,,,,,,,,,,,,,,,,,,,,,,,,,,
1738754177.112163,1738754177.112809,46.000000,0.000000,4315.769043,4350.000000,4251.410156,4298.461426,4348.077148,4355.512695,4357.051270,4545.384766,4536.282227,4556.922852,4498.846191,5659.358887,4311.282227,4258.461426,0.000000,4.000000,79.000000,,,,0.000000,0.000000,0.000000,0.000000,0.000000,0.000000,0.000000,0.000000,0.000000,0.000000,0.000000,0.000000,0.000000,0.000000,0.000000,0.000000,,,,,,,,,,,,,,,,,,,,,,,,,,,,,,,,,,,,,,,,,,,,,,,,,,,,,,,,,,,,0.029752,0.026305,0.013133,0.041796,0.036854,0.014974,0.025371,0.007194,0.020257,0.016592,0.012595,0.029300,0.014897,0.017403,0.039897,0.038554,0.017841,0.037993,0.010279,0.017459,0.013522,0.014987,0.019931,0.034999,0.022339,0.058593,0.034175,0.032975,0.024519,0.041393,0.048903,0.039244,0.029483,0.025660,0.042358,0.011990,0.013585,0.022473,0.014362,0.018635,0.030628,0.013799,0.020569,0.019322,0.024956,0.007154,0.010809,0.030729,0.026921,0.010772,0.012143,0.024891,0.016923,0.010316,0.016622,0.013121,0.014713,0.041407,0.030852,0.031996,0.021639,0.016621,0.091400,0.036449,0.030253,0.076191,0.026596,0.038412,0.026225,0.039076
1738754177.119971,1738754177.120518,47.000000,0.000000,4318.846191,4349.743652,4251.922852,4298.846191,4347.948730,4357.692383,4362.307617,4547.948730,4537.692383,4556.794922,4496.922852,5663.717773,4301.666504,4255.384766,0.000000,4.000000,79.000000,,,,0.000000,0.000000,0.000000,0.000000,0.000000,0.000000,0.000000,0.000000,0.000000,0.000000,0.000000,0.000000,0.000000,0.000000,0.000000,0.000000,,,,,,,,,,,,,,,,,,,,,,,,,,,,,,,,,,,,,,,,,,,,,,,,,,,,,,,,,,,,,,,,,,,,,,,,,,,,,,,,,,,,,,,,,,,,,,,,,,,,,,,,,,,,,,,,,,,,,,,,,,,,,,,,,
1738754177.127779,1738754177.128326,48.000000,0.000000,4322.436035,4346.282227,4251.282227,4301.794922,4349.487305,4360.897461,4363.974121,4546.922852,4536.794922,4555.256348,4493.846191,5663.461426,4303.589844,4255.897461,0.000000,4.000000,79.000000,,,,0.000000,0.000000,0.000000,0.000000,0.000000,0.000000,0.000000,0.000000,0.000000,0.000000,0.000000,0.000000,0.000000,0.000000,0.000000,0.000000,,,,,,,,,,,,,,,,,12.000000,0.000000,0.785755,-0.615784,-0.055359,0.018311,0.063484,-0.973752,0.238310,4.529311,-15.372424,22.291338,,,,,,,,,,,,,,,,,,,,,,,,,,,,,,,,,,,,,,,,,,,,,,,,,,,,,,,,,,,,,,,,,,,,,,,,,,,,,,,,,,,,,,,,,,,,,,,,,,,,,
1738754177.135587,1738754177.136034,49.000000,0.000000,4320.384766,4347.051270,4251.666504,4301.282227,4349.743652,4359.743652,4361.410156,4544.871582,4536.282227,4556.282227,4496.538574,5659.871582,4311.282227,4258.333496,0.000000,4.000000,79.000000,,,,0.000000,0.000000,0.000000,0.000000,0.000000,0.000000,0.000000,0.000000,0.000000,0.000000,0.000000,0.000000,0.000000,0.000000,0.000000,0.000000,,,,,,,,,,,,,,,,,,,,,,,,,,,,,,,,,,,,,,,,,,,,,,,,,,,,,,,,,,,,,,,,,,,,,,,,,,,,,,,,,,,,,,,,,,,,,,,,,,,,,,,,,,,,,,,,,,,,,,,,,,,,,,,,,
1738754177.143395,1738754177.143842,50.000000,0.000000,4317.692383,4347.307617,4253.461426,4300.897461,4347.051270,4359.230957,4365.641113,4547.563965,4534.743652,4555.897461,4496.410156,5666.025879,4299.615234,4250.256348,0.000000,4.000000,79.000000,,,,0.000000,0.000000,0.000000,0.000000,0.000000,0.000000,0.000000,0.000000,0.000000,0.000000,0.000000,0.000000,0.000000,0.000000,0.000000,0.000000,,,,,,,,,,,,,,,,,,,,,,,,,,,,,,,,,,,,,,,,,,,,,,,,,,,,,,,,,,,,,,,,,,,,,,,,,,,,,,,,,,,,,,,,,,,,,,,,,,,,,,,,,,,,,,,,,,,,,,,,,,,,,,,,,
1738754177.151204,1738754177.151549,51.000000,0.000000,4315.769043,4348.333496,4251.666504,4298.589844,4346.025879,4358.589844,4361.282227,4544.871582,4536.666504,4555.512695,4495.641113,5663.205078,4305.897461,4252.179688,0.000000,4.000000,79.000000,,,,0.000000,0.000000,0.000000,0.000000,0.000000,0.000000,0.000000,0.000000,0.000000,0.000000,0.000000,0.000000,0.000000,0.000000,0.000000,0.000000,,,,,,,,,,,,,,,,,,,,,,,,,,,,,,,,,,,,,,,,,,,,,,,,,,,,,,,,,,,,,,,,,,,,,,,,,,,,,,,,,,,,,,,,,,,,,,,,,,,,,,,,,,,,,,,,,,,,,,,,,,,,,,,,,
1738754177.159011,1738754177.159357,52.000000,0.000000,4318.589844,4346.282227,4252.051270,4302.692383,4347.692383,4357.820313,4361.282227,4547.051270,4536.538574,4555.000000,4494.230957,5661.410156,4303.589844,4253.846191,0.000000,4.000000,79.000000,,,,0.000000,0.000000,0.000000,0.000000,0.000000,0.000000,0.000000,0.000000,0.000000,0.000000,0.000000,0.000000,0.000000,0.000000,0.000000,0.000000,,,,,,,,,,,,,,,,,13.000000,0.000000,0.785707,-0.615845,-0.055359,0.018311,0.057624,-0.980588,0.234404,4.509713,-15.351849,22.195538,,,,,,,,,,,,,,,,,,,,,,,,,,,,,,,,,,,,,,,,,,,,,,,,,,,,,,,,,,,,,,,,,,,,,,,,,,,,,,,,,,,,,,,,,,,,,,,,,,,,,
1738754177.166820,1738754177.167065,53.000000,0.000000,4319.871582,4343.974121,4253.589844,4302.820313,4349.102539,4357.820313,4363.717773,4549.615234,4536.794922,4555.512695,4494.358887,5660.384766,4301.794922,4254.743652,0.000000,4.000000,79.000000,,,,0.000000,0.000000,0.000000,0.000000,0.000000,0.000000,0.000000,0.000000,0.000000,0.000000,0.000000,0.000000,0.000000,0.000000,0.000000,0.000000,,,,,,,,,,,,,,,,,,,,,,,,,,,,,,,,,,,,,,,,,,,,,,,,,,,,,,,,,,,,,,,,,,,,,,,,,,,,,,,,,,,,,,,,,,,,,,,,,,,,,,,,,,,,,,,,,,,,,,,,,,,,,,,,,
1738754177.174628,1738754177.174973,54.000000,0.000000,4318.717773,4346.538574,4252.179688,4298.461426,4348.974121,4357.563965,4363.205078,4546.282227,4537.948730,4556.153809,4494.487305,5660.897461,4311.538574,4256.666504,0.000000,4.000000,79.000000,,,,0.000000,0.000000,0.000000,0.000000,0.000000,0.000000,0.000000,0.000000,0.000000,0.000000,0.000000,0.000000,0.000000,0.000000,0.000000,0.000000,,,,,,,,,,,,,,,,,,,,,,,,,,,,,,,,,,,,,,,,,,,,,,,,,,,,,,,,,,,,,,,,,,,,,,,,,,,,,,,,,,,,,,,,,,,,,,,,,,,,,,,,,,,,,,,,,,,,,,,,,,,,,,,,,
1738754177.182436,1738754177.182781,55.000000,0.000000,4318.974121,4348.717773,4253.461426,4300.897461,4348.717773,4358.333496,4365.000000,4547.563965,4535.512695,4555.000000,4493.846191,5667.692383,4302.820313,4251.538574,0.000000,4.000000,79.000000,,,,0.000000,0.000000,0.000000,0.000000,0.000000,0.000000,0.000000,0.000000,0.000000,0.000000,0.000000,0.000000,0.000000,0.000000,0.000000,0.000000,,,,,,,,,,,,,,,,,,,,,,,,,,,,,,,,,,,,,,,,,,,,,,,,,,,,,,,,,,,,,,,,,,,,,,,,,,,,,,,,,,,,,,,,,,,,,,,,,,,,,,,,,,,,,,,,,,,,,,,,,,,,,,,,,
1738754177.190244,1738754177.190689,56.000000,0.000000,4317.563965,4349.102539,4252.436035,4300.000000,4347.436035,4356.282227,4359.358887,4546.794922,4537.820313,4556.538574,4498.589844,5660.000000,4306.410156,4255.641113,0.000000,4.000000,79.000000,,,,0.000000,0.000000,0.000000,0.000000,0.000000,0.000000,0.000000,0.000000,0.000000,0.000000,0.000000,0.000000,0.000000,0.000000,0.000000,0.000000,,,,,,,,,,,,,,,,,14.000000,0.000000,0.785752,-0.615784,-0.055359,0.018433,0.066414,-0.973752,0.242217,4.642075,-15.299997,22.309317,,,,,,,,,,,,,,,,,,,,,,,,,,,,,,,,,,,,,,,,,,,,,,,,,,,,,,,,,,,,,,,,,,,,,,,,,,,,,,,,,,,,,,,,,,,,,,,,,,,,,
1738754177.198052,1738754177.198498,57.000000,0.000000,4318.846191,4346.794922,4249.358887,4300.512695,4346.153809,4354.102539,4358.717773,4547.563965,4536.922852,4556.153809,4498.461426,5658.589844,4306.282227,4258.205078,0.000000,4.000000,79.000000,,,,0.000000,0.000000,0.000000,0.000000,0.000000,0.000000,0.000000,0.000000,0.000000,0.000000,0.000000,0.000000,0.000000,0.000000,0.000000,0.000000,,,,,,,,,,,,,,,,,,,,,,,,,,,,,,,,,,,,,,,,,,,,,,,,,,,,,,,,,,,,,,,,,,,,,,,,,,,,,,,,,,,,,,,,,,,,,,,,,,,,,,,,,,,,,,,,,,,,,,,,,,,,,,,,,
1738754177.205860,1738754177.206406,58.000000,0.000000,4318.846191,4346.538574,4250.256348,4299.102539,4349.102539,4356.794922,4360.000000,4547.820313,4534.230957,4555.128418,4493.205078,5663.589844,4301.410156,4256.025879,0.000000,4.000000,79.000000,,,,0.000000,0.000000,0.000000,0.000000,0.000000,0.000000,0.000000,0.000000,0.000000,0.000000,0.000000,0.000000,0.000000,0.000000,0.000000,0.000000,,,,,,,,,,,,,,,,,,,,,,,,,,,,,,,,,,,,,,,,,,,,,,,,,,,,,,,,,,,,,,,,,,,,,,,,,,,,,,,,,,,,,,,,,,,,,,,,,,,,,,,,,,,,,,,,,,,,,,,,,,,,,,,,,
1738754177.213668,1738754177.214214,59.000000,0.000000,4316.025879,4349.615234,4251.922852,4296.666504,4351.410156,4357.692383,4357.436035,4543.846191,4536.025879,4555.897461,4492.948730,5659.102539,4307.179688,4255.769043,0.000000,4.000000,79.000000,,,,0.000000,0.000000,0.000000,0.000000,0.000000,0.000000,0.000000,0.000000,0.000000,0.000000,0.000000,0.000000,0.000000,0.000000,0.000000,0.000000,,,,,,,,,,,,,,,,,,,,,,,,,,,,,,,,,,,,,,,,,,,,,,,,,,,,,,,,,,,,,,,,,,,,,,,,,,,,,,,,,,,,,,,,,,,,,,,,,,,,,,,,,,,,,,,,,,,,,,,,,,,,,,,,,
1738754177.221476,1738754177.222122,60.000000,0.000000,4317.820313,4348.974121,4250.897461,4302.179688,4349.102539,4358.077148,4360.128418,4547.307617,4533.205078,4555.512695,4494.358887,5662.563965,4301.538574,4249.230957,0.000000,4.000000,79.000000,,,,0.000000,0.000000,0.000000,0.000000,0.000000,0.000000,0.000000,0.000000,0.000000,0.000000,0.000000,0.000000,0.000000,0.000000,0.000000,0.000000,,,,,,,,,,,,,,,,,15.000000,0.000000,0.785758,-0.615784,-0.055298,0.018372,0.064949,-0.974728,0.232939,4.711201,-15.386664,22.278385,,,,,,,,,,,,,,,,,,,,,,,,,,,,,,,,,,,,,,,,,,,,,,,,,,,,,,,,,,,,,,,,,,,,,,,,,,,,,,,,,,,,,,,,,,,,,,,,,,,,,
1738754177.229284,1738754177.229930,61.000000,0.000000,4317.307617,4347.948730,4250.128418,4300.512695,4347.179688,4360.256348,4358.974121,4547.563965,4533.846191,4557.948730,4496.922852,5663.077148,4309.358887,4252.692383,0.000000,4.000000,79.000000,,,,0.000000,0.000000,0.000000,0.000000,0.000000,0.000000,0.000000,0.000000,0.000000,0.000000,0.000000,0.000000,0.000000,0.000000,0.000000,0.000000,,,,,,,,,,,,,,,,,,,,,,,,,,,,,,,,,,,,,,,,,,,,,,,,,,,,,,,,,,,,,,,,,,,,,,,,,,,,,,,,,,,,,,,,,,,,,,,,,,,,,,,,,,,,,,,,,,,,,,,,,,,,,,,,,
1738754177.237093,1738754177.237738,62.000000,0.000000,4315.384766,4346.153809,4252.436035,4299.358887,4349.615234,4359.102539,4360.897461,4545.897461,4535.256348,4559.743652,4494.743652,5662.563965,4309.487305,4253.974121,0.000000,4.000000,79.000000,,,,0.000000,0.000000,0.000000,0.000000,0.000000,0.000000,0.000000,0.000000,0.000000,0.000000,0.000000,0.000000,0.000000,0.000000,0.000000,0.000000,,,,,,,,,,,,,,,,,,,,,,,,,,,,,,,,,,,,,,,,,,,,,,,,,,,,,,,,,,,,0.025958,0.021046,0.014086,0.033490,0.034241,0.014617,0.026628,0.005845,0.017624,0.016593,0.014661,0.026310,0.017330,0.017860,0.044663,0.031401,0.024199,0.029388,0.011560,0.018414,0.012365,0.017271,0.019909,0.035033,0.023921,0.061490,0.043146,0.029565,0.022275,0.043604,0.047221,0.037389,0.029616,0.029460,0.040350,0.013686,0.017646,0.020074,0.012458,0.016364,0.032969,0.012276,0.018912,0.021408,0.023870,0.006709,0.011066,0.034055,0.029468,0.010937,0.012898,0.019367,0.016942,0.012418,0.014768,0.011310,0.014276,0.043398,0.033642,0.033744,0.020947,0.016274,0.086839,0.036677,0.034023,0.061884,0.024013,0.045947,0.024501,0.040562
1738754177.244901,1738754177.245546,63.000000,0.000000,4316.153809,4345.641113,4251.282227,4300.128418,4348.974121,4355.512695,4361.410156,4546.410156,4535.512695,4559.743652,4492.563965,5663.717773,4303.717773,4249.487305,0.000000,4.000000,79.000000,,,,0.000000,0.000000,0.000000,0.000000,0.000000,0.000000,0.000000,0.000000,0.000000,0.000000,0.000000,0.000000,0.000000,0.000000,0.000000,0.000000,,,,,,,,,,,,,,,,,,,,,,,,,,,,,,,,,,,,,,,,,,,,,,,,,,,,,,,,,,,,,,,,,,,,,,,,,,,,,,,,,,,,,,,,,,,,,,,,,,,,,,,,,,,,,,,,,,,,,,,,,,,,,,,,,
1738754177.252709,1738754177.253454,64.000000,0.000000,4316.410156,4347.948730,4249.743652,4295.000000,4345.897461,4354.230957,4356.538574,4543.333496,4539.230957,4558.717773,4496.538574,5659.358887,4314.743652,4253.974121,0.000000,4.000000,79.000000,,,,0.000000,0.000000,0.000000,0.000000,0.000000,0.000000,0.000000,0.000000,0.000000,0.000000,0.000000,0.000000,0.000000,0.000000,0.000000,0.000000,,,,,,,,,,,,,,,,,16.000000,0.000000,0.785793,-0.615723,-0.055481,0.018372,0.065438,-0.967892,0.241729,4.723414,-15.397998,22.350548,,,,,,,,,,,,,,,,,,,,,,,,,,,,,,,,,,,,,,,,,,,,,,,,,,,,,,,,,,,,,,,,,,,,,,,,,,,,,,,,,,,,,,,,,,,,,,,,,,,,,
1738754177.260517,1738754177.261262,65.000000,0.000000,4318.974121,4346.538574,4253.717773,4300.512695,4347.307617,4356.666504,4362.820313,4546.666504,4535.128418,4554.230957,4496.025879,5663.461426,4305.641113,4253.717773,0.000000,4.000000,79.000000,,,,0.000000,0.000000,0.000000,0.000000,0.000000,0.000000,0.000000,0.000000,0.000000,0.000000,0.000000,0.000000,0.000000,0.000000,0.000000,0.000000,,,,,,,,,,,,,,,,,,,,,,,,,,,,,,,,,,,,,,,,,,,,,,,,,,,,,,,,,,,,,,,,,,,,,,,,,,,,,,,,,,,,,,,,,,,,,,,,,,,,,,,,,,,,,,,,,,,,,,,,,,,,,,,,,
1738754177.268325,1738754177.268970,66.000000,0.000000,4319.743652,4346.538574,4253.717773,4302.307617,4348.974121,4358.077148,4363.589844,4547.179688,4532.692383,4554.615234,4496.025879,5662.436035,4304.102539,4255.512695,0.000000,4.000000,79.000000,,,,0.000000,0.000000,0.000000,0.000000,0.000000,0.000000,0.000000,0.000000,0.000000,0.000000,0.000000,0.000000,0.000000,0.000000,0.000000,0.000000,,,,,,,,,,,,,,,,,,,,,,,,,,,,,,,,,,,,,,,,,,,,,,,,,,,,,,,,,,,,,,,,,,,,,,,,,,,,,,,,,,,,,,,,,,,,,,,,,,,,,,,,,,,,,,,,,,,,,,,,,,,,,,,,,
1738754177.276133,1738754177.276778,67.000000,0.000000,4319.102539,4348.077148,4251.538574,4297.051270,4348.589844,4358.077148,4358.333496,4545.897461,4535.897461,4557.692383,4496.153809,5661.666504,4306.794922,4254.871582,0.000000,4.000000,79.000000,,,,0.000000,0.000000,0.000000,0.000000,0.000000,0.000000,0.000000,0.000000,0.000000,0.000000,0.000000,0.000000,0.000000,0.000000,0.000000,0.000000,,,,,,,,,,,,,,,,,,,,,,,,,,,,,,,,,,,,,,,,,,,,,,,,,,,,,,,,,,,,,,,,,,,,,,,,,,,,,,,,,,,,,,,,,,,,,,,,,,,,,,,,,,,,,,,,,,,,,,,,,,,,,,,,,
1738754177.283941,1738754177.284486,68.000000,0.000000,4320.128418,4347.307617,4252.436035,4300.769043,4348.589844,4358.974121,4362.948730,4547.179688,4535.128418,4555.128418,4494.871582,5665.897461,4300.384766,4250.641113,0.000000,4.000000,79.000000,,,,0.000000,0.000000,0.000000,0.000000,0.000000,0.000000,0.000000,0.000000,0.000000,0.000000,0.000000,0.000000,0.000000,0.000000,0.000000,0.000000,,,,,,,,,,,,,,,,,17.000000,0.000000,0.785738,-0.615784,-0.055542,0.018494,0.075204,-0.972287,0.241240,4.767739,-15.324864,22.465492,,,,,,,,,,,,,,,,,,,,,,,,,,,,,,,,,,,,,,,,,,,,,,,,,,,,,,,,,,,,,,,,,,,,,,,,,,,,,,,,,,,,,,,,,,,,,,,,,,,,,
1738754177.291749,1738754177.292294,69.000000,0.000000,4318.974121,4348.461426,4251.410156,4301.282227,4348.333496,4360.000000,4363.846191,4545.769043,4536.282227,4553.589844,4497.051270,5659.743652,4307.563965,4256.282227,0.000000,4.000000,79.000000,,,,0.000000,0.000000,0.000000,0.000000,0.000000,0.000000,0.000000,0.000000,0.000000,0.000000,0.000000,0.000000,0.000000,0.000000,0.000000,0.000000,,,,,,,,,,,,,,,,,,,,,,,,,,,,,,,,,,,,,,,,,,,,,,,,,,,,,,,,,,,,,,,,,,,,,,,,,,,,,,,,,,,,,,,,,,,,,,,,,,,,,,,,,,,,,,,,,,,,,,,,,,,,,,,,,
1738754177.299557,1738754177.300002,70.000000,0.000000,4318.717773,4346.153809,4251.282227,4300.769043,4348.589844,4360.000000,4363.717773,4549.487305,4536.666504,4556.410156,4494.358887,5661.794922,4301.538574,4253.717773,0.000000,4.000000,79.000000,,,,0.000000,0.000000,0.000000,0.000000,0.000000,0.000000,0.000000,0.000000,0.000000,0.000000,0.000000,0.000000,0.000000,0.000000,0.000000,0.000000,,,,,,,,,,,,,,,,,,,,,,,,,,,,,,,,,,,,,,,,,,,,,,,,,,,,,,,,,,,,,,,,,,,,,,,,,,,,,,,,,,,,,,,,,,,,,,,,,,,,,,,,,,,,,,,,,,,,,,,,,,,,,,,,,
1738754177.307366,1738754177.307810,71.000000,0.000000,4318.846191,4345.384766,4251.538574,4300.256348,4348.205078,4357.948730,4363.589844,4547.307617,4537.307617,4558.589844,4493.333496,5664.102539,4305.128418,4253.077148,0.000000,4.000000,79.000000,,,,0.000000,0.000000,0.000000,0.000000,0.000000,0.000000,0.000000,0.000000,0.000000,0.000000,0.000000,0.000000,0.000000,0.000000,0.000000,0.000000,,,,,,,,,,,,,,,,,,,,,,,,,,,,,,,,,,,,,,,,,,,,,,,,,,,,,,,,,,,,,,,,,,,,,,,,,,,,,,,,,,,,,,,,,,,,,,,,,,,,,,,,,,,,,,,,,,,,,,,,,,,,,,,,,
1738754177.315174,1738754177.315518,72.000000,0.000000,4319.358887,4347.307617,4252.179688,4299.871582,4348.205078,4356.538574,4363.589844,4543.333496,4537.179688,4557.563965,4495.128418,5660.128418,4314.743652,4258.333496,0.000000,4.000000,79.000000,,,,0.000000,0.000000,0.000000,0.000000,0.000000,0.000000,0.000000,0.000000,0.000000,0.000000,0.000000,0.000000,0.000000,0.000000,0.000000,0.000000,,,,,,,,,,,,,,,,,18.000000,0.000000,0.785836,-0.615662,-0.055481,0.018555,0.069344,-0.968868,0.230497,4.740965,-15.375711,22.502277,,,,,,,,,,,,,,,,,,,,,,,,,,,,,,,,,,,,,,,,,,,,,,,,,,,,,,,,,,,,,,,,,,,,,,,,,,,,,,,,,,,,,,,,,,,,,,,,,,,,,
1738754177.322982,1738754177.323326,73.000000,0.000000,4319.358887,4343.205078,4253.205078,4303.077148,4347.948730,4356.282227,4365.000000,4548.461426,4531.922852,4555.128418,4492.692383,5662.820313,4305.128418,4255.384766,0.000000,4.000000,79.000000,,,,0.000000,0.000000,0.000000,0.000000,0.000000,0.000000,0.000000,0.000000,0.000000,0.000000,0.000000,0.000000,0.000000,0.000000,0.000000,0.000000,,,,,,,,,,,,,,,,,,,,,,,,,,,,,,,,,,,,,,,,,,,,,,,,,,,,,,,,,,,,,,,,,,,,,,,,,,,,,,,,,,,,,,,,,,,,,,,,,,,,,,,,,,,,,,,,,,,,,,,,,,,,,,,,,
1738754177.330790,1738754177.331034,74.000000,0.000000,4314.358887,4344.102539,4249.743652,4300.897461,4347.820313,4359.358887,4361.153809,4545.769043,4533.717773,4555.769043,4495.000000,5659.487305,4309.230957,4256.025879,0.000000,4.000000,79.000000,,,,0.000000,0.000000,0.000000,0.000000,0.000000,0.000000,0.000000,0.000000,0.000000,0.000000,0.000000,0.000000,0.000000,0.000000,0.000000,0.000000,,,,,,,,,,,,,,,,,,,,,,,,,,,,,,,,,,,,,,,,,,,,,,,,,,,,,,,,,,,,,,,,,,,,,,,,,,,,,,,,,,,,,,,,,,,,,,,,,,,,,,,,,,,,,,,,,,,,,,,,,,,,,,,,,
1738754177.338598,1738754177.338842,75.000000,0.000000,4316.666504,4345.512695,4248.974121,4301.153809,4348.205078,4361.794922,4366.282227,4546.153809,4537.820313,4555.641113,4497.051270,5660.769043,4305.256348,4251.410156,0.000000,4.000000,79.000000,,,,0.000000,0.000000,0.000000,0.000000,0.000000,0.000000,0.000000,0.000000,0.000000,0.000000,0.000000,0.000000,0.000000,0.000000,0.000000,0.000000,,,,,,,,,,,,,,,,,,,,,,,,,,,,,,,,,,,,,,,,,,,,,,,,,,,,,,,,,,,,,,,,,,,,,,,,,,,,,,,,,,,,,,,,,,,,,,,,,,,,,,,,,,,,,,,,,,,,,,,,,,,,,,,,,
1738754177.346406,1738754177.346550,76.000000,0.000000,4321.153809,4342.948730,4251.153809,4300.897461,4347.179688,4359.358887,4367.307617,4550.641113,4536.922852,4555.897461,4495.128418,5663.461426,4304.102539,4250.512695,0.000000,4.000000,79.000000,,,,0.000000,0.000000,0.000000,0.000000,0.000000,0.000000,0.000000,0.000000,0.000000,0.000000,0.000000,0.000000,0.000000,0.000000,0.000000,0.000000,,,,,,,,,,,,,,,,,19.000000,0.000000,0.785842,-0.615662,-0.055420,0.018494,0.072274,-0.977658,0.230497,4.716869,-15.371473,22.418716,,,,,,,,,,,,,,,,,,,,,,,,,,,,,,,,,,,,,,,,,,,,,,,,,,,,,,,,,,,,,,,,,,,,,,,,,,,,,,,,,,,,,,,,,,,,,,,,,,,,,
1738754177.354214,1738754177.354458,77.000000,0.000000,4318.846191,4344.487305,4251.794922,4299.230957,4346.666504,4358.461426,4358.974121,4547.307617,4536.922852,4556.410156,4495.000000,5660.512695,4313.461426,4256.153809,0.000000,4.000000,79.000000,,,,0.000000,0.000000,0.000000,0.000000,0.000000,0.000000,0.000000,0.000000,0.000000,0.000000,0.000000,0.000000,0.000000,0.000000,0.000000,0.000000,,,,,,,,,,,,,,,,,,,,,,,,,,,,,,,,,,,,,,,,,,,,,,,,,,,,,,,,,,,,,,,,,,,,,,,,,,,,,,,,,,,,,,,,,,,,,,,,,,,,,,,,,,,,,,,,,,,,,,,,,,,,,,,,,
1738754177.362022,1738754177.362267,78.000000,0.000000,4318.461426,4346.538574,4251.666504,4300.256348,4348.846191,4358.461426,4361.922852,4547.179688,4538.846191,4553.589844,4495.384766,5663.846191,4303.589844,4250.769043,0.000000,4.000000,79.000000,,,,0.000000,0.000000,0.000000,0.000000,0.000000,0.000000,0.000000,0.000000,0.000000,0.000000,0.000000,0.000000,0.000000,0.000000,0.000000,0.000000,,,,,,,,,,,,,,,,,,,,,,,,,,,,,,,,,,,,,,,,,,,,,,,,,,,,,,,,,,,,0.024665,0.017723,0.015817,0.026431,0.031275,0.014384,0.027656,0.005674,0.016008,0.017190,0.016759,0.023704,0.020789,0.020139,0.047232,0.026000,0.033005,0.023346,0.013006,0.019417,0.011169,0.019346,0.019185,0.034400,0.024797,0.069401,0.055354,0.028227,0.020715,0.044848,0.042567,0.036046,0.028549,0.033318,0.037826,0.015073,0.020856,0.016289,0.010454,0.014409,0.031647,0.011330,0.016280,0.022940,0.023285,0.006236,0.011451,0.035306,0.029325,0.011599,0.013747,0.015080,0.016878,0.014294,0.013813,0.009768,0.014944,0.045149,0.036099,0.034545,0.021216,0.015100,0.078935,0.041587,0.036748,0.045502,0.020623,0.050776,0.022547,0.040916
1738754177.369830,1738754177.370175,79.000000,0.000000,4317.948730,4349.102539,4248.717773,4296.025879,4351.794922,4356.538574,4360.897461,4545.512695,4541.282227,4554.487305,4495.512695,5659.743652,4308.077148,4253.974121,0.000000,4.000000,79.000000,,,,0.000000,0.000000,0.000000,0.000000,0.000000,0.000000,0.000000,0.000000,0.000000,0.000000,0.000000,0.000000,0.000000,0.000000,0.000000,0.000000,,,,,,,,,,,,,,,,,,,,,,,,,,,,,,,,,,,,,,,,,,,,,,,,,,,,,,,,,,,,,,,,,,,,,,,,,,,,,,,,,,,,,,,,,,,,,,,,,,,,,,,,,,,,,,,,,,,,,,,,,,,,,,,,,
1738754177.377638,1738754177.377983,80.000000,0.000000,4317.692383,4347.051270,4249.871582,4298.077148,4349.487305,4356.666504,4362.179688,4543.974121,4536.410156,4556.538574,4493.717773,5660.641113,4307.563965,4254.102539,0.000000,4.000000,79.000000,,,,0.000000,0.000000,0.000000,0.000000,0.000000,0.000000,0.000000,0.000000,0.000000,0.000000,0.000000,0.000000,0.000000,0.000000,0.000000,0.000000,,,,,,,,,,,,,,,,,20.000000,0.000000,0.785895,-0.615601,-0.055359,0.018433,0.069833,-0.974240,0.241729,4.728516,-15.384326,22.643511,,,,,,,,,,,,,,,,,,,,,,,,,,,,,,,,,,,,,,,,,,,,,,,,,,,,,,,,,,,,,,,,,,,,,,,,,,,,,,,,,,,,,,,,,,,,,,,,,,,,,
1738754177.385446,1738754177.385891,81.000000,0.000000,4318.846191,4344.487305,4252.307617,4301.666504,4344.615234,4356.153809,4364.487305,4545.897461,4535.256348,4555.512695,4494.615234,5665.384766,4300.128418,4249.102539,0.000000,4.000000,79.000000,,,,0.000000,0.000000,0.000000,0.000000,0.000000,0.000000,0.000000,0.000000,0.000000,0.000000,0.000000,0.000000,0.000000,0.000000,0.000000,0.000000,,,,,,,,,,,,,,,,,,,,,,,,,,,,,,,,,,,,,,,,,,,,,,,,,,,,,,,,,,,,,,,,,,,,,,,,,,,,,,,,,,,,,,,,,,,,,,,,,,,,,,,,,,,,,,,,,,,,,,,,,,,,,,,,,
1738754177.393255,1738754177.393699,82.000000,0.000000,4318.461426,4345.512695,4250.897461,4297.692383,4345.769043,4355.641113,4359.871582,4545.897461,4539.615234,4554.743652,4496.282227,5658.974121,4311.538574,4253.974121,0.000000,4.000000,79.000000,,,,0.000000,0.000000,0.000000,0.000000,0.000000,0.000000,0.000000,0.000000,0.000000,0.000000,0.000000,0.000000,0.000000,0.000000,0.000000,0.000000,,,,,,,,,,,,,,,,,,,,,,,,,,,,,,,,,,,,,,,,,,,,,,,,,,,,,,,,,,,,,,,,,,,,,,,,,,,,,,,,,,,,,,,,,,,,,,,,,,,,,,,,,,,,,,,,,,,,,,,,,,,,,,,,,
1738754177.401063,1738754177.401607,83.000000,0.000000,4319.871582,4346.153809,4250.512695,4299.487305,4349.871582,4358.077148,4364.615234,4548.077148,4533.717773,4553.589844,4493.333496,5661.666504,4306.538574,4252.436035,0.000000,4.000000,79.000000,,,,0.000000,0.000000,0.000000,0.000000,0.000000,0.000000,0.000000,0.000000,0.000000,0.000000,0.000000,0.000000,0.000000,0.000000,0.000000,0.000000,,,,,,,,,,,,,,,,,,,,,,,,,,,,,,,,,,,,,,,,,,,,,,,,,,,,,,,,,,,,,,,,,,,,,,,,,,,,,,,,,,,,,,,,,,,,,,,,,,,,,,,,,,,,,,,,,,,,,,,,,,,,,,,,,
1738754177.408871,1738754177.409416,84.000000,0.000000,4318.589844,4346.922852,4250.512695,4298.974121,4348.589844,4359.743652,4365.128418,4545.384766,4533.205078,4553.974121,4495.128418,5662.436035,4305.641113,4253.077148,0.000000,4.000000,79.000000,,,,0.000000,0.000000,0.000000,0.000000,0.000000,0.000000,0.000000,0.000000,0.000000,0.000000,0.000000,0.000000,0.000000,0.000000,0.000000,0.000000,,,,,,,,,,,,,,,,,21.000000,0.000000,0.785892,-0.615601,-0.055359,0.018555,0.068368,-0.969845,0.232450,4.655664,-15.362560,22.479160,,,,,,,,,,,,,,,,,,,,,,,,,,,,,,,,,,,,,,,,,,,,,,,,,,,,,,,,,,,,,,,,,,,,,,,,,,,,,,,,,,,,,,,,,,,,,,,,,,,,,
1738754177.416679,1738754177.417324,85.000000,0.000000,4318.077148,4346.153809,4252.307617,4297.948730,4345.384766,4360.512695,4362.307617,4546.153809,4537.948730,4553.974121,4495.897461,5660.769043,4307.820313,4253.974121,0.000000,4.000000,79.000000,,,,0.000000,0.000000,0.000000,0.000000,0.000000,0.000000,0.000000,0.000000,0.000000,0.000000,0.000000,0.000000,0.000000,0.000000,0.000000,0.000000,,,,,,,,,,,,,,,,,,,,,,,,,,,,,,,,,,,,,,,,,,,,,,,,,,,,,,,,,,,,,,,,,,,,,,,,,,,,,,,,,,,,,,,,,,,,,,,,,,,,,,,,,,,,,,,,,,,,,,,,,,,,,,,,,
1738754177.424487,1738754177.425132,86.000000,0.000000,4318.717773,4345.769043,4252.051270,4299.743652,4347.051270,4360.256348,4363.333496,4550.256348,4535.641113,4553.589844,4493.077148,5664.615234,4303.589844,4252.179688,0.000000,4.000000,79.000000,,,,0.000000,0.000000,0.000000,0.000000,0.000000,0.000000,0.000000,0.000000,0.000000,0.000000,0.000000,0.000000,0.000000,0.000000,0.000000,0.000000,,,,,,,,,,,,,,,,,,,,,,,,,,,,,,,,,,,,,,,,,,,,,,,,,,,,,,,,,,,,,,,,,,,,,,,,,,,,,,,,,,,,,,,,,,,,,,,,,,,,,,,,,,,,,,,,,,,,,,,,,,,,,,,,,
1738754177.432295,1738754177.433040,87.000000,0.000000,4317.051270,4347.179688,4249.871582,4298.461426,4349.230957,4356.922852,4360.897461,4546.025879,4535.000000,4556.410156,4495.512695,5660.641113,4310.000000,4253.974121,0.000000,4.000000,79.000000,,,,0.000000,0.000000,0.000000,0.000000,0.000000,0.000000,0.000000,0.000000,0.000000,0.000000,0.000000,0.000000,0.000000,0.000000,0.000000,0.000000,,,,,,,,,,,,,,,,,,,,,,,,,,,,,,,,,,,,,,,,,,,,,,,,,,,,,,,,,,,,,,,,,,,,,,,,,,,,,,,,,,,,,,,,,,,,,,,,,,,,,,,,,,,,,,,,,,,,,,,,,,,,,,,,,
1738754177.440103,1738754177.440848,88.000000,0.000000,4319.358887,4347.307617,4251.922852,4301.538574,4348.333496,4359.230957,4363.333496,4546.538574,4534.230957,4557.563965,4496.025879,5662.820313,4303.717773,4250.128418,0.000000,4.000000,79.000000,,,,0.000000,0.000000,0.000000,0.000000,0.000000,0.000000,0.000000,0.000000,0.000000,0.000000,0.000000,0.000000,0.000000,0.000000,0.000000,0.000000,,,,,,,,,,,,,,,,,22.000000,0.000000,0.785892,-0.615601,-0.055359,0.018555,0.062996,-0.959101,0.227078,4.606764,-15.409637,22.564577,,,,,,,,,,,,,,,,,,,,,,,,,,,,,,,,,,,,,,,,,,,,,,,,,,,,,,,,,,,,,,,,,,,,,,,,,,,,,,,,,,,,,,,,,,,,,,,,,,,,,
1738754177.447911,1738754177.448556,89.000000,0.000000,4320.000000,4348.717773,4254.615234,4300.512695,4346.025879,4361.666504,4363.333496,4546.794922,4534.871582,4556.025879,4495.769043,5662.692383,4305.641113,4251.410156,0.000000,4.000000,79.000000,,,,0.000000,0.000000,0.000000,0.000000,0.000000,0.000000,0.000000,0.000000,0.000000,0.000000,0.000000,0.000000,0.000000,0.000000,0.000000,0.000000,,,,,,,,,,,,,,,,,,,,,,,,,,,,,,,,,,,,,,,,,,,,,,,,,,,,,,,,,,,,,,,,,,,,,,,,,,,,,,,,,,,,,,,,,,,,,,,,,,,,,,,,,,,,,,,,,,,,,,,,,,,,,,,,,
1738754177.455719,1738754177.456364,90.000000,0.000000,4319.743652,4347.307617,4253.333496,4298.717773,4346.794922,4357.307617,4362.820313,4545.256348,4536.153809,4555.512695,4493.974121,5659.871582,4309.743652,4252.948730,0.000000,4.000000,79.000000,,,,0.000000,0.000000,0.000000,0.000000,0.000000,0.000000,0.000000,0.000000,0.000000,0.000000,0.000000,0.000000,0.000000,0.000000,0.000000,0.000000,,,,,,,,,,,,,,,,,,,,,,,,,,,,,,,,,,,,,,,,,,,,,,,,,,,,,,,,,,,,,,,,,,,,,,,,,,,,,,,,,,,,,,,,,,,,,,,,,,,,,,,,,,,,,,,,,,,,,,,,,,,,,,,,,
1738754177.463528,1738754177.464072,91.000000,0.000000,4321.794922,4343.974121,4250.128418,4303.077148,4348.846191,4356.153809,4363.846191,4547.692383,4535.000000,4558.077148,4491.538574,5665.512695,4303.333496,4250.384766,0.000000,4.000000,79.000000,,,,0.000000,0.000000,0.000000,0.000000,0.000000,0.000000,0.000000,0.000000,0.000000,0.000000,0.000000,0.000000,0.000000,0.000000,0.000000,0.000000,,,,,,,,,,,,,,,,,,,,,,,,,,,,,,,,,,,,,,,,,,,,,,,,,,,,,,,,,,,,,,,,,,,,,,,,,,,,,,,,,,,,,,,,,,,,,,,,,,,,,,,,,,,,,,,,,,,,,,,,,,,,,,,,,
1738754177.471336,1738754177.471880,92.000000,0.000000,4319.615234,4348.461426,4249.487305,4299.230957,4347.307617,4358.589844,4359.358887,4545.384766,4537.051270,4559.871582,4496.153809,5662.307617,4312.948730,4257.948730,0.000000,4.000000,79.000000,,,,0.000000,0.000000,0.000000,0.000000,0.000000,0.000000,0.000000,0.000000,0.000000,0.000000,0.000000,0.000000,0.000000,0.000000,0.000000,0.000000,,,,,,,,,,,,,,,,,23.000000,0.000000,0.785932,-0.615540,-0.055481,0.018555,0.070321,-0.968868,0.234892,4.596088,-15.452007,22.558119,,,,,,,,,,,,,,,,,,,,,,,,,,,,,,,,,,,,,,,,,,,,,,,,,,,,,,,,,,,,,,,,,,,,,,,,,,,,,,,,,,,,,,,,,,,,,,,,,,,,,
1738754177.479144,1738754177.479588,93.000000,0.000000,4318.974121,4350.256348,4252.820313,4298.717773,4347.563965,4356.282227,4362.692383,4544.871582,4534.871582,4556.410156,4495.256348,5662.948730,4307.563965,4256.153809,0.000000,4.000000,79.000000,,,,0.000000,0.000000,0.000000,0.000000,0.000000,0.000000,0.000000,0.000000,0.000000,0.000000,0.000000,0.000000,0.000000,0.000000,0.000000,0.000000,,,,,,,,,,,,,,,,,,,,,,,,,,,,,,,,,,,,,,,,,,,,,,,,,,,,,,,,,,,,,,,,,,,,,,,,,,,,,,,,,,,,,,,,,,,,,,,,,,,,,,,,,,,,,,,,,,,,,,,,,,,,,,,,,
1738754177.486952,1738754177.487396,94.000000,0.000000,4318.589844,4345.000000,4251.538574,4302.436035,4348.974121,4354.743652,4364.230957,4543.461426,4533.974121,4554.743652,4492.820313,5665.512695,4304.358887,4252.051270,0.000000,4.000000,79.000000,,,,0.000000,0.000000,0.000000,0.000000,0.000000,0.000000,0.000000,0.000000,0.000000,0.000000,0.000000,0.000000,0.000000,0.000000,0.000000,0.000000,1.000000,0.000000,0.000000,0.000000,0.000000,0.000000,0.000000,0.000000,0.000000,0.000000,0.000000,0.000000,0.000000,0.000000,0.000000,0.000000,,,,,,,,,,,,,,,,,,,,,,,,,,,,,,,,,,,,,,,,,,,,0.025120,0.015776,0.018464,0.022913,0.029342,0.013720,0.028155,0.006306,0.015077,0.017962,0.018713,0.022427,0.024593,0.023202,0.046687,0.023333,0.041762,0.020554,0.014262,0.020624,0.010362,0.020851,0.018098,0.033591,0.024530,0.078796,0.068573,0.029201,0.020652,0.045303,0.036080,0.034383,0.026387,0.036245,0.035562,0.015877,0.022355,0.012111,0.008870,0.012985,0.026879,0.010499,0.013680,0.023481,0.022878,0.005637,0.011906,0.034591,0.026522,0.012563,0.014979,0.012644,0.016928,0.015708,0.013807,0.008479,0.016599,0.044711,0.037594,0.034393,0.021012,0.013250,0.069509,0.049769,0.037671,0.031911,0.017619,0.052173,0.021409,0.039808
1738754177.494760,1738754177.495104,95.000000,0.000000,4317.307617,4344.230957,4247.051270,4301.410156,4347.436035,4359.102539,4358.846191,4542.051270,4536.282227,4555.897461,4494.487305,5663.974121,4309.743652,4254.358887,0.000000,4.000000,79.000000,,,,0.000000,0.000000,0.000000,0.000000,0.000000,0.000000,0.000000,0.000000,0.000000,0.000000,0.000000,0.000000,0.000000,0.000000,0.000000,0.000000,,,,,,,,,,,,,,,,,,,,,,,,,,,,,,,,,,,,,,,,,,,,,,,,,,,,,,,,,,,,,,,,,,,,,,,,,,,,,,,,,,,,,,,,,,,,,,,,,,,,,,,,,,,,,,,,,,,,,,,,,,,,,,,,,
1738754177.502568,1738754177.503012,96.000000,0.000000,4320.384766,4346.794922,4247.820313,4299.487305,4348.461426,4359.487305,4362.563965,4547.179688,4533.846191,4553.974121,4494.615234,5667.436035,4302.051270,4250.897461,0.000000,4.000000,79.000000,,,,0.000000,0.000000,0.000000,0.000000,0.000000,0.000000,0.000000,0.000000,0.000000,0.000000,0.000000,0.000000,0.000000,0.000000,0.000000,0.000000,,,,,,,,,,,,,,,,,24.000000,0.000000,0.785887,-0.615601,-0.055420,0.018616,0.064461,-0.974240,0.239775,4.586479,-15.356807,22.635641,,,,,,,,,,,,,,,,,,,,,,,,,,,,,,,,,,,,,,,,,,,,,,,,,,,,,,,,,,,,,,,,,,,,,,,,,,,,,,,,,,,,,,,,,,,,,,,,,,,,,
1738754177.510376,1738754177.510820,97.000000,0.000000,4321.153809,4348.461426,4250.128418,4294.615234,4351.153809,4356.538574,4364.487305,4544.871582,4535.256348,4555.384766,4497.436035,5662.179688,4309.102539,4255.256348,0.000000,4.000000,79.000000,,,,0.000000,0.000000,0.000000,0.000000,0.000000,0.000000,0.000000,0.000000,0.000000,0.000000,0.000000,0.000000,0.000000,0.000000,0.000000,0.000000,,,,,,,,,,,,,,,,,,,,,,,,,,,,,,,,,,,,,,,,,,,,,,,,,,,,,,,,,,,,,,,,,,,,,,,,,,,,,,,,,,,,,,,,,,,,,,,,,,,,,,,,,,,,,,,,,,,,,,,,,,,,,,,,,
1738754177.518184,1738754177.518728,98.000000,0.000000,4320.897461,4346.282227,4252.436035,4296.922852,4350.128418,4357.563965,4363.205078,4543.846191,4534.871582,4556.666504,4496.794922,5662.820313,4303.461426,4255.000000,0.000000,4.000000,79.000000,,,,0.000000,0.000000,0.000000,0.000000,0.000000,0.000000,0.000000,0.000000,0.000000,0.000000,0.000000,0.000000,0.000000,0.000000,0.000000,0.000000,,,,,,,,,,,,,,,,,,,,,,,,,,,,,,,,,,,,,,,,,,,,,,,,,,,,,,,,,,,,,,,,,,,,,,,,,,,,,,,,,,,,,,,,,,,,,,,,,,,,,,,,,,,,,,,,,,,,,,,,,,,,,,,,,
1738754177.525992,1738754177.526537,99.000000,0.000000,4320.897461,4348.333496,4253.077148,4299.871582,4347.436035,4359.358887,4359.102539,4546.794922,4532.563965,4553.846191,4493.205078,5664.871582,4299.358887,4251.922852,0.000000,4.000000,79.000000,,,,0.000000,0.000000,0.000000,0.000000,0.000000,0.000000,0.000000,0.000000,0.000000,0.000000,0.000000,0.000000,0.000000,0.000000,0.000000,0.000000,,,,,,,,,,,,,,,,,,,,,,,,,,,,,,,,,,,,,,,,,,,,,,,,,,,,,,,,,,,,,,,,,,,,,,,,,,,,,,,,,,,,,,,,,,,,,,,,,,,,,,,,,,,,,,,,,,,,,,,,,,,,,,,,,
1738754177.533800,1738754177.534445,100.000000,0.000000,4320.384766,4351.282227,4251.153809,4298.461426,4347.179688,4359.102539,4357.692383,4544.871582,4534.871582,4552.948730,4493.846191,5660.128418,4312.948730,4255.512695,0.000000,4.000000,79.000000,,,,0.000000,0.000000,0.000000,0.000000,0.000000,0.000000,0.000000,0.000000,0.000000,0.000000,0.000000,0.000000,0.000000,0.000000,0.000000,0.000000,,,,,,,,,,,,,,,,,25.000000,0.000000,0.785890,-0.615601,-0.055359,0.018677,0.051764,-0.972775,0.242705,4.561164,-15.237792,22.588743,,,,,,,,,,,,,,,,,,,,,,,,,,,,,,,,,,,,,,,,,,,,,,,,,,,,,,,,,,,,,,,,,,,,,,,,,,,,,,,,,,,,,,,,,,,,,,,,,,,,,
1738754177.541608,1738754177.542253,101.000000,0.000000,4320.256348,4348.077148,4250.641113,4303.077148,4348.205078,4359.871582,4363.333496,4547.948730,4535.000000,4555.128418,4495.000000,5664.358887,4304.230957,4251.410156,0.000000,4.000000,79.000000,,,,0.000000,0.000000,0.000000,0.000000,0.000000,0.000000,0.000000,0.000000,0.000000,0.000000,0.000000,0.000000,0.000000,0.000000,0.000000,0.000000,,,,,,,,,,,,,,,,,,,,,,,,,,,,,,,,,,,,,,,,,,,,,,,,,,,,,,,,,,,,,,,,,,,,,,,,,,,,,,,,,,,,,,,,,,,,,,,,,,,,,,,,,,,,,,,,,,,,,,,,,,,,,,,,,
1738754177.549417,1738754177.550161,102.000000,0.000000,4317.692383,4349.230957,4249.871582,4300.128418,4347.948730,4358.589844,4358.461426,4545.128418,4537.179688,4558.333496,4497.051270,5659.743652,4307.563965,4253.717773,0.000000,4.000000,79.000000,,,,0.000000,0.000000,0.000000,0.000000,0.000000,0.000000,0.000000,0.000000,0.000000,0.000000,0.000000,0.000000,0.000000,0.000000,0.000000,0.000000,,,,,,,,,,,,,,,,,,,,,,,,,,,,,,,,,,,,,,,,,,,,,,,,,,,,,,,,,,,,,,,,,,,,,,,,,,,,,,,,,,,,,,,,,,,,,,,,,,,,,,,,,,,,,,,,,,,,,,,,,,,,,,,,,
1738754177.557225,1738754177.557969,103.000000,0.000000,4317.948730,4349.487305,4251.666504,4298.333496,4347.948730,4354.743652,4357.948730,4541.282227,4535.641113,4555.641113,4495.128418,5658.077148,4311.922852,4255.384766,0.000000,4.000000,79.000000,,,,0.000000,0.000000,0.000000,0.000000,0.000000,0.000000,0.000000,0.000000,0.000000,0.000000,0.000000,0.000000,0.000000,0.000000,0.000000,0.000000,,,,,,,,,,,,,,,,,,,,,,,,,,,,,,,,,,,,,,,,,,,,,,,,,,,,,,,,,,,,,,,,,,,,,,,,,,,,,,,,,,,,,,,,,,,,,,,,,,,,,,,,,,,,,,,,,,,,,,,,,,,,,,,,,
1738754177.565033,1738754177.565877,104.000000,0.000000,4318.461426,4346.282227,4252.820313,4301.666504,4347.692383,4354.743652,4362.948730,4547.563965,4532.820313,4553.205078,4494.487305,5664.358887,4306.025879,4255.000000,0.000000,4.000000,79.000000,,,,0.000000,0.000000,0.000000,0.000000,0.000000,0.000000,0.000000,0.000000,0.000000,0.000000,0.000000,0.000000,0.000000,0.000000,0.000000,0.000000,,,,,,,,,,,,,,,,,26.000000,0.000000,0.785885,-0.615601,-0.055420,0.018677,0.063973,-0.976682,0.230497,4.555048,-15.330680,22.663202,,,,,,,,,,,,,,,,,,,,,,,,,,,,,,,,,,,,,,,,,,,,,,,,,,,,,,,,,,,,,,,,,,,,,,,,,,,,,,,,,,,,,,,,,,,,,,,,,,,,,
1738754177.572841,1738754177.573685,105.000000,0.000000,4316.794922,4347.563965,4250.512695,4297.436035,4347.436035,4360.769043,4360.641113,4549.487305,4537.563965,4557.051270,4497.436035,5659.615234,4313.589844,4259.230957,0.000000,4.000000,79.000000,,,,0.000000,0.000000,0.000000,0.000000,0.000000,0.000000,0.000000,0.000000,0.000000,0.000000,0.000000,0.000000,0.000000,0.000000,0.000000,0.000000,,,,,,,,,,,,,,,,,,,,,,,,,,,,,,,,,,,,,,,,,,,,,,,,,,,,,,,,,,,,,,,,,,,,,,,,,,,,,,,,,,,,,,,,,,,,,,,,,,,,,,,,,,,,,,,,,,,,,,,,,,,,,,,,,
1738754177.580649,1738754177.581594,106.000000,0.000000,4319.487305,4345.256348,4250.769043,4298.846191,4347.692383,4364.102539,4362.307617,4548.846191,4540.384766,4554.615234,4494.102539,5661.538574,4304.615234,4251.025879,0.000000,4.000000,79.000000,,,,0.000000,0.000000,0.000000,0.000000,0.000000,0.000000,0.000000,0.000000,0.000000,0.000000,0.000000,0.000000,0.000000,0.000000,0.000000,0.000000,,,,,,,,,,,,,,,,,,,,,,,,,,,,,,,,,,,,,,,,,,,,,,,,,,,,,,,,,,,,,,,,,,,,,,,,,,,,,,,,,,,,,,,,,,,,,,,,,,,,,,,,,,,,,,,,,,,,,,,,,,,,,,,,,
1738754177.588457,1738754177.589402,107.000000,0.000000,4319.871582,4344.358887,4250.000000,4300.641113,4347.051270,4357.307617,4359.230957,4546.410156,4541.922852,4550.128418,4493.717773,5662.051270,4303.461426,4251.538574,0.000000,4.000000,79.000000,,,,0.000000,0.000000,0.000000,0.000000,0.000000,0.000000,0.000000,0.000000,0.000000,0.000000,0.000000,0.000000,0.000000,0.000000,0.000000,0.000000,,,,,,,,,,,,,,,,,,,,,,,,,,,,,,,,,,,,,,,,,,,,,,,,,,,,,,,,,,,,,,,,,,,,,,,,,,,,,,,,,,,,,,,,,,,,,,,,,,,,,,,,,,,,,,,,,,,,,,,,,,,,,,,,,
1738754177.596265,1738754177.597310,108.000000,0.000000,4319.230957,4345.512695,4247.820313,4300.128418,4348.077148,4353.077148,4358.974121,4547.307617,4538.974121,4552.820313,4495.897461,5661.282227,4307.436035,4257.179688,0.000000,4.000000,79.000000,,,,0.000000,0.000000,0.000000,0.000000,0.000000,0.000000,0.000000,0.000000,0.000000,0.000000,0.000000,0.000000,0.000000,0.000000,0.000000,0.000000,,,,,,,,,,,,,,,,,27.000000,0.000000,0.785885,-0.615601,-0.055420,0.018677,0.058601,-0.968380,0.227567,4.699543,-15.447612,22.696882,,,,,,,,,,,,,,,,,,,,,,,,,,,,,,,,,,,,,,,,,,,,,,,,,,,,,,,,,,,,,,,,,,,,,,,,,,,,,,,,,,,,,,,,,,,,,,,,,,,,,
1738754177.604073,1738754177.605118,109.000000,0.000000,4320.000000,4343.974121,4249.871582,4301.922852,4350.384766,4357.820313,4362.948730,4547.436035,4533.333496,4556.666504,4494.615234,5665.128418,4300.000000,4253.589844,0.000000,4.000000,79.000000,,,,0.000000,0.000000,0.000000,0.000000,0.000000,0.000000,0.000000,0.000000,0.000000,0.000000,0.000000,0.000000,0.000000,0.000000,0.000000,0.000000,,,,,,,,,,,,,,,,,,,,,,,,,,,,,,,,,,,,,,,,,,,,,,,,,,,,,,,,,,,,,,,,,,,,,,,,,,,,,,,,,,,,,,,,,,,,,,,,,,,,,,,,,,,,,,,,,,,,,,,,,,,,,,,,,
1738754177.611881,1738754177.613026,110.000000,0.000000,4317.820313,4346.410156,4251.410156,4300.256348,4350.769043,4357.948730,4358.077148,4541.538574,4535.384766,4556.025879,4498.077148,5658.333496,4308.077148,4256.666504,0.000000,4.000000,79.000000,,,,0.000000,0.000000,0.000000,0.000000,0.000000,0.000000,0.000000,0.000000,0.000000,0.000000,0.000000,0.000000,0.000000,0.000000,0.000000,0.000000,,,,,,,,,,,,,,,,,,,,,,,,,,,,,,,,,,,,,,,,,,,,,,,,,,,,,,,,,,,,0.025671,0.014777,0.021713,0.023444,0.029004,0.012532,0.028566,0.007302,0.014381,0.018670,0.020337,0.022676,0.027770,0.025950,0.043061,0.023293,0.047513,0.019931,0.015010,0.022107,0.009985,0.021342,0.017022,0.032657,0.023183,0.085382,0.078986,0.032129,0.022443,0.044962,0.030183,0.032951,0.023404,0.037250,0.033856,0.015894,0.021688,0.008593,0.008017,0.012139,0.020467,0.009732,0.011933,0.023103,0.022396,0.005070,0.012534,0.032748,0.022014,0.013677,0.016554,0.012066,0.017216,0.016440,0.014480,0.007439,0.018497,0.041366,0.037839,0.033440,0.019914,0.011776,0.061026,0.058239,0.036736,0.023419,0.016264,0.050332,0.021611,0.037203
1738754177.619690,1738754177.620834,111.000000,0.000000,4318.589844,4348.077148,4250.000000,4300.897461,4347.948730,4355.256348,4361.794922,4546.922852,4533.974121,4552.948730,4497.948730,5658.461426,4306.410156,4253.333496,0.000000,4.000000,79.000000,,,,0.000000,0.000000,0.000000,0.000000,0.000000,0.000000,0.000000,0.000000,0.000000,0.000000,0.000000,0.000000,0.000000,0.000000,0.000000,0.000000,,,,,,,,,,,,,,,,,,,,,,,,,,,,,,,,,,,,,,,,,,,,,,,,,,,,,,,,,,,,,,,,,,,,,,,,,,,,,,,,,,,,,,,,,,,,,,,,,,,,,,,,,,,,,,,,,,,,,,,,,,,,,,,,,
1738754177.627498,1738754177.628542,112.000000,0.000000,4318.333496,4346.794922,4248.205078,4299.102539,4345.512695,4355.512695,4365.128418,4549.871582,4534.102539,4553.205078,4494.871582,5661.794922,4308.461426,4250.897461,0.000000,4.000000,79.000000,,,,0.000000,0.000000,0.000000,0.000000,0.000000,0.000000,0.000000,0.000000,0.000000,0.000000,0.000000,0.000000,0.000000,0.000000,0.000000,0.000000,,,,,,,,,,,,,,,,,28.000000,0.000000,0.785884,-0.615601,-0.055420,0.018738,0.063484,-0.982053,0.226102,4.629589,-15.419518,22.643860,,,,,,,,,,,,,,,,,,,,,,,,,,,,,,,,,,,,,,,,,,,,,,,,,,,,,,,,,,,,,,,,,,,,,,,,,,,,,,,,,,,,,,,,,,,,,,,,,,,,,
1738754177.635306,1738754177.636350,113.000000,0.000000,4317.692383,4347.051270,4253.461426,4299.743652,4346.410156,4356.025879,4361.666504,4548.205078,4539.358887,4554.358887,4495.641113,5659.743652,4313.461426,4255.512695,0.000000,4.000000,79.000000,,,,0.000000,0.000000,0.000000,0.000000,0.000000,0.000000,0.000000,0.000000,0.000000,0.000000,0.000000,0.000000,0.000000,0.000000,0.000000,0.000000,,,,,,,,,,,,,,,,,,,,,,,,,,,,,,,,,,,,,,,,,,,,,,,,,,,,,,,,,,,,,,,,,,,,,,,,,,,,,,,,,,,,,,,,,,,,,,,,,,,,,,,,,,,,,,,,,,,,,,,,,,,,,,,,,
1738754177.643114,1738754177.644059,114.000000,0.000000,4319.358887,4347.563965,4257.307617,4303.974121,4348.205078,4357.307617,4361.538574,4553.974121,4536.922852,4553.846191,4495.641113,5663.205078,4301.922852,4253.461426,0.000000,4.000000,79.000000,,,,0.000000,0.000000,0.000000,0.000000,0.000000,0.000000,0.000000,0.000000,0.000000,0.000000,0.000000,0.000000,0.000000,0.000000,0.000000,0.000000,,,,,,,,,,,,,,,,,,,,,,,,,,,,,,,,,,,,,,,,,,,,,,,,,,,,,,,,,,,,,,,,,,,,,,,,,,,,,,,,,,,,,,,,,,,,,,,,,,,,,,,,,,,,,,,,,,,,,,,,,,,,,,,,,
1738754177.650922,1738754177.651866,115.000000,0.000000,4318.333496,4349.487305,4252.820313,4299.743652,4348.077148,4360.256348,4359.358887,4549.230957,4535.128418,4553.974121,4495.000000,5660.128418,4307.179688,4253.205078,0.000000,4.000000,79.000000,,,,0.000000,0.000000,0.000000,0.000000,0.000000,0.000000,0.000000,0.000000,0.000000,0.000000,0.000000,0.000000,0.000000,0.000000,0.000000,0.000000,,,,,,,,,,,,,,,,,,,,,,,,,,,,,,,,,,,,,,,,,,,,,,,,,,,,,,,,,,,,,,,,,,,,,,,,,,,,,,,,,,,,,,,,,,,,,,,,,,,,,,,,,,,,,,,,,,,,,,,,,,,,,,,,,
1738754177.658730,1738754177.659575,116.000000,0.000000,4320.769043,4345.512695,4252.179688,4299.102539,4346.794922,4358.974121,4363.974121,4544.102539,4534.871582,4554.871582,4492.948730,5661.025879,4307.307617,4250.000000,0.000000,4.000000,79.000000,,,,0.000000,0.000000,0.000000,0.000000,0.000000,0.000000,0.000000,0.000000,0.000000,0.000000,0.000000,0.000000,0.000000,0.000000,0.000000,0.000000,,,,,,,,,,,,,,,,,29.000000,0.000000,0.785885,-0.615601,-0.055420,0.018677,0.067391,-0.978147,0.229520,4.699963,-15.327565,22.579475,,,,,,,,,,,,,,,,,,,,,,,,,,,,,,,,,,,,,,,,,,,,,,,,,,,,,,,,,,,,,,,,,,,,,,,,,,,,,,,,,,,,,,,,,,,,,,,,,,,,,
1738754177.666538,1738754177.667383,117.000000,0.000000,4321.538574,4342.051270,4252.948730,4301.153809,4346.794922,4355.641113,4364.487305,4547.436035,4534.358887,4557.051270,4493.333496,5663.461426,4306.666504,4251.666504,0.000000,4.000000,79.000000,,,,0.000000,0.000000,0.000000,0.000000,0.000000,0.000000,0.000000,0.000000,0.000000,0.000000,0.000000,0.000000,0.000000,0.000000,0.000000,0.000000,,,,,,,,,,,,,,,,,,,,,,,,,,,,,,,,,,,,,,,,,,,,,,,,,,,,,,,,,,,,,,,,,,,,,,,,,,,,,,,,,,,,,,,,,,,,,,,,,,,,,,,,,,,,,,,,,,,,,,,,,,,,,,,,,
1738754177.674346,1738754177.675091,118.000000,0.000000,4319.102539,4347.563965,4251.666504,4300.769043,4347.692383,4358.333496,4358.846191,4547.692383,4535.384766,4556.282227,4496.025879,5660.128418,4312.948730,4258.205078,0.000000,4.000000,79.000000,,,,0.000000,0.000000,0.000000,0.000000,0.000000,0.000000,0.000000,0.000000,0.000000,0.000000,0.000000,0.000000,0.000000,0.000000,0.000000,0.000000,,,,,,,,,,,,,,,,,,,,,,,,,,,,,,,,,,,,,,,,,,,,,,,,,,,,,,,,,,,,,,,,,,,,,,,,,,,,,,,,,,,,,,,,,,,,,,,,,,,,,,,,,,,,,,,,,,,,,,,,,,,,,,,,,
1738754177.682154,1738754177.682899,119.000000,0.000000,4320.512695,4350.256348,4253.077148,4304.358887,4348.205078,4359.358887,4362.948730,4546.282227,4533.461426,4552.051270,4494.871582,5661.538574,4302.692383,4254.230957,0.000000,4.000000,79.000000,,,,0.000000,0.000000,0.000000,0.000000,0.000000,0.000000,0.000000,0.000000,0.000000,0.000000,0.000000,0.000000,0.000000,0.000000,0.000000,0.000000,,,,,,,,,,,,,,,,,,,,,,,,,,,,,,,,,,,,,,,,,,,,,,,,,,,,,,,,,,,,,,,,,,,,,,,,,,,,,,,,,,,,,,,,,,,,,,,,,,,,,,,,,,,,,,,,,,,,,,,,,,,,,,,,,
1738754177.689963,1738754177.690607,120.000000,0.000000,4319.358887,4346.922852,4252.307617,4300.256348,4347.436035,4355.769043,4361.666504,4543.205078,4536.153809,4552.948730,4496.153809,5656.922852,4308.717773,4254.615234,0.000000,4.000000,79.000000,,,,0.000000,0.000000,0.000000,0.000000,0.000000,0.000000,0.000000,0.000000,0.000000,0.000000,0.000000,0.000000,0.000000,0.000000,0.000000,0.000000,,,,,,,,,,,,,,,,,30.000000,0.000000,0.785885,-0.615601,-0.055420,0.018677,0.073739,-0.966915,0.236845,4.746634,-15.261476,22.538193,,,,,,,,,,,,,,,,,,,,,,,,,,,,,,,,,,,,,,,,,,,,,,,,,,,,,,,,,,,,,,,,,,,,,,,,,,,,,,,,,,,,,,,,,,,,,,,,,,,,,
1738754177.697770,1738754177.698415,121.000000,0.000000,4318.333496,4344.743652,4250.769043,4297.820313,4347.692383,4357.307617,4358.717773,4546.922852,4538.333496,4554.487305,4496.025879,5659.487305,4308.333496,4253.333496,0.000000,4.000000,79.000000,,,,0.000000,0.000000,0.000000,0.000000,0.000000,0.000000,0.000000,0.000000,0.000000,0.000000,0.000000,0.000000,0.000000,0.000000,0.000000,0.000000,,,,,,,,,,,,,,,,,,,,,,,,,,,,,,,,,,,,,,,,,,,,,,,,,,,,,,,,,,,,,,,,,,,,,,,,,,,,,,,,,,,,,,,,,,,,,,,,,,,,,,,,,,,,,,,,,,,,,,,,,,,,,,,,,
1738754177.705579,1738754177.706123,122.000000,0.000000,4321.282227,4346.794922,4251.153809,4300.641113,4348.461426,4358.717773,4359.102539,4548.589844,4535.384766,4554.358887,4494.487305,5665.512695,4300.256348,4252.563965,0.000000,4.000000,79.000000,,,,0.000000,0.000000,0.000000,0.000000,0.000000,0.000000,0.000000,0.000000,0.000000,0.000000,0.000000,0.000000,0.000000,0.000000,0.000000,0.000000,,,,,,,,,,,,,,,,,,,,,,,,,,,,,,,,,,,,,,,,,,,,,,,,,,,,,,,,,,,,,,,,,,,,,,,,,,,,,,,,,,,,,,,,,,,,,,,,,,,,,,,,,,,,,,,,,,,,,,,,,,,,,,,,,
1738754177.713387,1738754177.713931,123.000000,0.000000,4320.512695,4348.205078,4250.512695,4297.051270,4346.410156,4353.846191,4359.871582,4542.563965,4534.743652,4557.051270,4495.897461,5659.871582,4309.230957,4257.179688,0.000000,4.000000,79.000000,,,,0.000000,0.000000,0.000000,0.000000,0.000000,0.000000,0.000000,0.000000,0.000000,0.000000,0.000000,0.000000,0.000000,0.000000,0.000000,0.000000,,,,,,,,,,,,,,,,,,,,,,,,,,,,,,,,,,,,,,,,,,,,,,,,,,,,,,,,,,,,,,,,,,,,,,,,,,,,,,,,,,,,,,,,,,,,,,,,,,,,,,,,,,,,,,,,,,,,,,,,,,,,,,,,,
1738754177.721195,1738754177.721639,124.000000,0.000000,4318.205078,4344.743652,4250.128418,4298.974121,4346.666504,4354.358887,4366.153809,4545.641113,4534.358887,4556.025879,4492.563965,5661.922852,4304.615234,4250.897461,0.000000,4.000000,79.000000,,,,0.000000,0.000000,0.000000,0.000000,0.000000,0.000000,0.000000,0.000000,0.000000,0.000000,0.000000,0.000000,0.000000,0.000000,0.000000,0.000000,,,,,,,,,,,,,,,,,31.000000,0.000000,0.785835,-0.615662,-0.055481,0.018616,0.075204,-0.964473,0.231474,4.805304,-15.085328,22.701040,,,,,,,,,,,,,,,,,,,,,,,,,,,,,,,,,,,,,,,,,,,,,,,,,,,,,,,,,,,,,,,,,,,,,,,,,,,,,,,,,,,,,,,,,,,,,,,,,,,,,
1738754177.729003,1738754177.729447,125.000000,0.000000,4317.948730,4345.384766,4251.153809,4301.538574,4349.871582,4358.461426,4361.538574,4547.179688,4537.563965,4554.487305,4493.077148,5661.410156,4308.077148,4252.563965,0.000000,4.000000,79.000000,,,,0.000000,0.000000,0.000000,0.000000,0.000000,0.000000,0.000000,0.000000,0.000000,0.000000,0.000000,0.000000,0.000000,0.000000,0.000000,0.000000,,,,,,,,,,,,,,,,,,,,,,,,,,,,,,,,,,,,,,,,,,,,,,,,,,,,,,,,,,,,,,,,,,,,,,,,,,,,,,,,,,,,,,,,,,,,,,,,,,,,,,,,,,,,,,,,,,,,,,,,,,,,,,,,,
1738754177.736811,1738754177.737155,126.000000,0.000000,4318.333496,4346.025879,4253.846191,4302.436035,4350.128418,4356.153809,4358.846191,4545.512695,4538.333496,4555.384766,4496.922852,5660.769043,4308.333496,4255.897461,0.000000,4.000000,79.000000,,,,0.000000,0.000000,0.000000,0.000000,0.000000,0.000000,0.000000,0.000000,0.000000,0.000000,0.000000,0.000000,0.000000,0.000000,0.000000,0.000000,,,,,,,,,,,,,,,,,,,,,,,,,,,,,,,,,,,,,,,,,,,,,,,,,,,,,,,,,,,,0.024857,0.014374,0.024907,0.026682,0.029612,0.011523,0.029342,0.008276,0.013648,0.019269,0.021520,0.023859,0.029409,0.027744,0.037380,0.024997,0.048082,0.019770,0.015173,0.023711,0.009736,0.020451,0.016165,0.031152,0.021373,0.085901,0.082926,0.035928,0.025889,0.043748,0.027002,0.032890,0.020153,0.035933,0.032701,0.015324,0.019252,0.006343,0.007836,0.011856,0.014825,0.009462,0.011407,0.022355,0.021851,0.005030,0.013688,0.030959,0.017233,0.014822,0.018032,0.012757,0.017822,0.016430,0.015479,0.007084,0.019790,0.035551,0.036705,0.031922,0.018182,0.011929,0.055429,0.063734,0.034645,0.019816,0.017187,0.046010,0.023156,0.033415
1738754177.744619,1738754177.745063,127.000000,0.000000,4319.743652,4343.589844,4253.717773,4301.410156,4346.666504,4353.077148,4365.897461,4545.769043,4535.128418,4554.871582,4496.922852,5663.717773,4302.563965,4253.461426,79.000000,4.000000,79.000000,,,,0.000000,0.000000,0.000000,0.000000,0.000000,0.000000,0.000000,0.000000,0.000000,0.000000,0.000000,0.000000,0.000000,0.000000,0.000000,0.000000,,,,,,,,,,,,,,,,,,,,,,,,,,,,,,,,,,,,,,,,,,,,,,,,,,,,,,,,,,,,,,,,,,,,,,,,,,,,,,,,,,,,,,,,,,,,,,,,,,,,,,,,,,,,,,,,,,,,,,,,,,,,,,,,,
1738754177.752427,1738754177.752871,0.000000,0.000000,4320.128418,4345.256348,4249.358887,4295.512695,4345.769043,4356.794922,4364.102539,4541.666504,4535.256348,4555.384766,4496.666504,5658.974121,4313.205078,4257.948730,0.000000,4.000000,79.000000,,,,0.000000,0.000000,0.000000,0.000000,0.000000,0.000000,0.000000,0.000000,0.000000,0.000000,0.000000,0.000000,0.000000,0.000000,0.000000,0.000000,,,,,,,,,,,,,,,,,0.000000,0.000000,0.785835,-0.615662,-0.055481,0.018616,0.050787,-0.976193,0.228055,5.008107,-14.993462,22.564270,,,,,,,,,,,,,,,,,,,,,,,,,,,,,,,,,,,,,,,,,,,,,,,,,,,,,,,,,,,,,,,,,,,,,,,,,,,,,,,,,,,,,,,,,,,,,,,,,,,,,
1738754177.760235,1738754177.760779,1.000000,0.000000,4319.487305,4345.128418,4249.871582,4299.230957,4348.333496,4361.922852,4362.948730,4544.615234,4533.333496,4554.871582,4493.846191,5661.538574,4304.743652,4253.974121,0.000000,4.000000,79.000000,,,,0.000000,0.000000,0.000000,0.000000,0.000000,0.000000,0.000000,0.000000,0.000000,0.000000,0.000000,0.000000,0.000000,0.000000,0.000000,0.000000,,,,,,,,,,,,,,,,,,,,,,,,,,,,,,,,,,,,,,,,,,,,,,,,,,,,,,,,,,,,,,,,,,,,,,,,,,,,,,,,,,,,,,,,,,,,,,,,,,,,,,,,,,,,,,,,,,,,,,,,,,,,,,,,,
1738754177.768043,1738754177.768587,2.000000,0.000000,4317.051270,4344.487305,4250.641113,4302.051270,4346.538574,4359.615234,4361.153809,4547.948730,4533.717773,4555.641113,4495.000000,5660.641113,4303.589844,4251.794922,0.000000,4.000000,79.000000,,,,0.000000,0.000000,0.000000,0.000000,0.000000,0.000000,0.000000,0.000000,0.000000,0.000000,0.000000,0.000000,0.000000,0.000000,0.000000,0.000000,,,,,,,,,,,,,,,,,,,,,,,,,,,,,,,,,,,,,,,,,,,,,,,,,,,,,,,,,,,,,,,,,,,,,,,,,,,,,,,,,,,,,,,,,,,,,,,,,,,,,,,,,,,,,,,,,,,,,,,,,,,,,,,,,
1738754177.775852,1738754177.776496,3.000000,0.000000,4318.717773,4345.897461,4249.358887,4302.179688,4346.410156,4353.461426,4359.743652,4546.666504,4535.128418,4556.666504,4495.641113,5657.307617,4310.384766,4252.563965,0.000000,4.000000,79.000000,,,,0.000000,0.000000,0.000000,0.000000,0.000000,0.000000,0.000000,0.000000,0.000000,0.000000,0.000000,0.000000,0.000000,0.000000,0.000000,0.000000,,,,,,,,,,,,,,,,,,,,,,,,,,,,,,,,,,,,,,,,,,,,,,,,,,,,,,,,,,,,,,,,,,,,,,,,,,,,,,,,,,,,,,,,,,,,,,,,,,,,,,,,,,,,,,,,,,,,,,,,,,,,,,,,,
1738754177.783660,1738754177.784304,4.000000,0.000000,4321.538574,4345.769043,4251.538574,4304.102539,4350.256348,4355.128418,4361.410156,4548.077148,4532.563965,4554.615234,4493.846191,5661.666504,4300.897461,4250.897461,0.000000,4.000000,79.000000,,,,0.000000,0.000000,0.000000,0.000000,0.000000,0.000000,0.000000,0.000000,0.000000,0.000000,0.000000,0.000000,0.000000,0.000000,0.000000,0.000000,,,,,,,,,,,,,,,,,1.000000,0.000000,0.785835,-0.615662,-0.055481,0.018616,0.061531,-0.974240,0.240264,4.907296,-15.094116,22.607843,,,,,,,,,,,,,,,,,,,,,,,,,,,,,,,,,,,,,,,,,,,,,,,,,,,,,,,,,,,,,,,,,,,,,,,,,,,,,,,,,,,,,,,,,,,,,,,,,,,,,
1738754177.791468,1738754177.792212,5.000000,0.000000,4317.436035,4346.410156,4251.025879,4298.717773,4349.358887,4360.512695,4358.846191,4548.077148,4534.743652,4554.102539,4496.666504,5658.717773,4306.282227,4255.000000,0.000000,4.000000,79.000000,,,,0.000000,0.000000,0.000000,0.000000,0.000000,0.000000,0.000000,0.000000,0.000000,0.000000,0.000000,0.000000,0.000000,0.000000,0.000000,0.000000,,,,,,,,,,,,,,,,,,,,,,,,,,,,,,,,,,,,,,,,,,,,,,,,,,,,,,,,,,,,,,,,,,,,,,,,,,,,,,,,,,,,,,,,,,,,,,,,,,,,,,,,,,,,,,,,,,,,,,,,,,,,,,,,,
1738754177.799276,1738754177.800020,6.000000,0.000000,4318.077148,4346.410156,4249.102539,4299.487305,4347.820313,4359.871582,4363.333496,4549.102539,4537.436035,4554.487305,4495.384766,5662.051270,4307.563965,4250.641113,0.000000,4.000000,79.000000,,,,0.000000,0.000000,0.000000,0.000000,0.000000,0.000000,0.000000,0.000000,0.000000,0.000000,0.000000,0.000000,0.000000,0.000000,0.000000,0.000000,,,,,,,,,,,,,,,,,,,,,,,,,,,,,,,,,,,,,,,,,,,,,,,,,,,,,,,,,,,,,,,,,,,,,,,,,,,,,,,,,,,,,,,,,,,,,,,,,,,,,,,,,,,,,,,,,,,,,,,,,,,,,,,,,
1738754177.807084,1738754177.807928,7.000000,0.000000,4320.897461,4347.692383,4250.512695,4300.769043,4350.641113,4354.615234,4363.846191,4545.000000,4537.563965,4554.230957,4495.000000,5661.538574,4307.692383,4251.538574,0.000000,4.000000,79.000000,,,,0.000000,0.000000,0.000000,0.000000,0.000000,0.000000,0.000000,0.000000,0.000000,0.000000,0.000000,0.000000,0.000000,0.000000,0.000000,0.000000,,,,,,,,,,,,,,,,,,,,,,,,,,,,,,,,,,,,,,,,,,,,,,,,,,,,,,,,,,,,,,,,,,,,,,,,,,,,,,,,,,,,,,,,,,,,,,,,,,,,,,,,,,,,,,,,,,,,,,,,,,,,,,,,,
1738754177.814892,1738754177.815736,8.000000,0.000000,4319.743652,4347.436035,4251.922852,4299.615234,4351.282227,4352.692383,4360.769043,4543.974121,4535.897461,4554.358887,4496.282227,5653.974121,4309.615234,4256.922852,0.000000,4.000000,79.000000,,,,0.000000,0.000000,0.000000,0.000000,0.000000,0.000000,0.000000,0.000000,0.000000,0.000000,0.000000,0.000000,0.000000,0.000000,0.000000,0.000000,,,,,,,,,,,,,,,,,2.000000,0.000000,0.785884,-0.615601,-0.055481,0.018555,0.061043,-0.972287,0.235380,4.916566,-15.168037,22.597059,,,,,,,,,,,,,,,,,,,,,,,,,,,,,,,,,,,,,,,,,,,,,,,,,,,,,,,,,,,,,,,,,,,,,,,,,,,,,,,,,,,,,,,,,,,,,,,,,,,,,
1738754177.822700,1738754177.823444,9.000000,0.000000,4319.871582,4345.256348,4251.538574,4303.333496,4346.153809,4355.384766,4364.487305,4549.487305,4532.820313,4555.384766,4493.205078,5660.512695,4302.051270,4250.000000,0.000000,4.000000,79.000000,,,,0.000000,0.000000,0.000000,0.000000,0.000000,0.000000,0.000000,0.000000,0.000000,0.000000,0.000000,0.000000,0.000000,0.000000,0.000000,0.000000,,,,,,,,,,,,,,,,,,,,,,,,,,,,,,,,,,,,,,,,,,,,,,,,,,,,,,,,,,,,,,,,,,,,,,,,,,,,,,,,,,,,,,,,,,,,,,,,,,,,,,,,,,,,,,,,,,,,,,,,,,,,,,,,,
1738754177.830508,1738754177.831252,10.000000,0.000000,4318.717773,4346.666504,4250.897461,4298.461426,4344.487305,4355.769043,4361.282227,4543.333496,4537.051270,4556.666504,4493.589844,5661.410156,4311.153809,4253.461426,0.000000,4.000000,79.000000,,,,0.000000,0.000000,0.000000,0.000000,0.000000,0.000000,0.000000,0.000000,0.000000,0.000000,0.000000,0.000000,0.000000,0.000000,0.000000,0.000000,,,,,,,,,,,,,,,,,,,,,,,,,,,,,,,,,,,,,,,,,,,,,,,,,,,,,,,,,,,,,,,,,,,,,,,,,,,,,,,,,,,,,,,,,,,,,,,,,,,,,,,,,,,,,,,,,,,,,,,,,,,,,,,,,
1738754177.838316,1738754177.838960,11.000000,0.000000,4319.102539,4346.025879,4250.769043,4298.461426,4349.102539,4353.974121,4361.153809,4543.077148,4537.179688,4554.487305,4494.743652,5661.922852,4306.538574,4254.487305,0.000000,4.000000,79.000000,,,,0.000000,0.000000,0.000000,0.000000,0.000000,0.000000,0.000000,0.000000,0.000000,0.000000,0.000000,0.000000,0.000000,0.000000,0.000000,0.000000,,,,,,,,,,,,,,,,,,,,,,,,,,,,,,,,,,,,,,,,,,,,,,,,,,,,,,,,,,,,,,,,,,,,,,,,,,,,,,,,,,,,,,,,,,,,,,,,,,,,,,,,,,,,,,,,,,,,,,,,,,,,,,,,,
1738754177.846125,1738754177.846768,12.000000,0.000000,4318.846191,4346.922852,4248.589844,4304.230957,4351.282227,4356.666504,4361.922852,4547.179688,4534.102539,4554.102539,4495.384766,5663.077148,4301.794922,4249.358887,0.000000,4.000000,79.000000,,,,0.000000,0.000000,0.000000,0.000000,0.000000,0.000000,0.000000,0.000000,0.000000,0.000000,0.000000,0.000000,0.000000,0.000000,0.000000,0.000000,,,,,,,,,,,,,,,,,3.000000,0.000000,0.785832,-0.615662,-0.055542,0.018555,0.055671,-0.981077,0.232939,4.824910,-15.117901,22.437353,,,,,,,,,,,,,,,,,,,,,,,,,,,,,,,,,,,,,,,,,,,,,,,,,,,,,,,,,,,,,,,,,,,,,,,,,,,,,,,,,,,,,,,,,,,,,,,,,,,,,
1738754177.853933,1738754177.854476,13.000000,0.000000,4316.410156,4349.102539,4248.974121,4300.897461,4347.692383,4361.025879,4357.436035,4542.820313,4536.025879,4557.820313,4494.358887,5657.436035,4312.179688,4255.384766,0.000000,4.000000,79.000000,,,,0.000000,0.000000,0.000000,0.000000,0.000000,0.000000,0.000000,0.000000,0.000000,0.000000,0.000000,0.000000,0.000000,0.000000,0.000000,0.000000,,,,,,,,,,,,,,,,,,,,,,,,,,,,,,,,,,,,,,,,,,,,,,,,,,,,,,,,,,,,,,,,,,,,,,,,,,,,,,,,,,,,,,,,,,,,,,,,,,,,,,,,,,,,,,,,,,,,,,,,,,,,,,,,,
1738754177.861741,1738754177.862284,14.000000,0.000000,4320.641113,4346.025879,4251.666504,4298.717773,4347.948730,4360.000000,4361.410156,4543.717773,4533.717773,4557.051270,4492.051270,5661.794922,4303.717773,4257.179688,0.000000,4.000000,79.000000,,,,0.000000,0.000000,0.000000,0.000000,0.000000,0.000000,0.000000,0.000000,0.000000,0.000000,0.000000,0.000000,0.000000,0.000000,0.000000,0.000000,,,,,,,,,,,,,,,,,,,,,,,,,,,,,,,,,,,,,,,,,,,,,,,,,,,,,,,,,,,,0.022565,0.014124,0.027628,0.030066,0.029780,0.011527,0.031070,0.009229,0.012710,0.019871,0.022193,0.025389,0.029060,0.028291,0.031206,0.027334,0.043348,0.019026,0.014944,0.025070,0.009248,0.018297,0.015598,0.028730,0.019925,0.079758,0.078822,0.039385,0.030366,0.041924,0.027283,0.034543,0.017304,0.032623,0.031987,0.014799,0.016170,0.005534,0.008477,0.012213,0.012199,0.010487,0.011948,0.022132,0.021426,0.006086,0.015779,0.030077,0.013629,0.016007,0.018651,0.013854,0.018476,0.015761,0.016540,0.007923,0.020020,0.028484,0.034267,0.030085,0.015965,0.014898,0.054035,0.064093,0.032389,0.019332,0.019916,0.040453,0.025697,0.029171
1738754177.869549,1738754177.869992,15.000000,0.000000,4322.436035,4347.179688,4250.512695,4299.230957,4350.897461,4356.153809,4361.025879,4543.333496,4535.641113,4553.077148,4497.051270,5659.743652,4309.102539,4258.077148,0.000000,4.000000,79.000000,,,,0.000000,0.000000,0.000000,0.000000,0.000000,0.000000,0.000000,0.000000,0.000000,0.000000,0.000000,0.000000,0.000000,0.000000,0.000000,0.000000,,,,,,,,,,,,,,,,,,,,,,,,,,,,,,,,,,,,,,,,,,,,,,,,,,,,,,,,,,,,,,,,,,,,,,,,,,,,,,,,,,,,,,,,,,,,,,,,,,,,,,,,,,,,,,,,,,,,,,,,,,,,,,,,,
1738754177.877357,1738754177.877800,16.000000,0.000000,4320.128418,4349.487305,4252.436035,4303.461426,4348.717773,4355.256348,4358.846191,4544.871582,4538.077148,4552.820313,4497.307617,5656.282227,4308.461426,4254.102539,0.000000,4.000000,79.000000,,,,0.000000,0.000000,0.000000,0.000000,0.000000,0.000000,0.000000,0.000000,0.000000,0.000000,0.000000,0.000000,0.000000,0.000000,0.000000,0.000000,,,,,,,,,,,,,,,,,4.000000,0.000000,0.785784,-0.615723,-0.055542,0.018555,0.058601,-0.979612,0.238310,4.775752,-15.022778,22.493618,,,,,,,,,,,,,,,,,,,,,,,,,,,,,,,,,,,,,,,,,,,,,,,,,,,,,,,,,,,,,,,,,,,,,,,,,,,,,,,,,,,,,,,,,,,,,,,,,,,,,
1738754177.885165,1738754177.885508,17.000000,0.000000,4319.358887,4349.230957,4254.871582,4301.666504,4347.179688,4354.615234,4359.615234,4548.846191,4535.897461,4556.794922,4493.717773,5660.128418,4297.563965,4250.256348,0.000000,4.000000,79.000000,,,,0.000000,0.000000,0.000000,0.000000,0.000000,0.000000,0.000000,0.000000,0.000000,0.000000,0.000000,0.000000,0.000000,0.000000,0.000000,0.000000,,,,,,,,,,,,,,,,,,,,,,,,,,,,,,,,,,,,,,,,,,,,,,,,,,,,,,,,,,,,,,,,,,,,,,,,,,,,,,,,,,,,,,,,,,,,,,,,,,,,,,,,,,,,,,,,,,,,,,,,,,,,,,,,,
1738754177.892973,1738754177.893316,18.000000,0.000000,4319.871582,4349.230957,4250.769043,4293.333496,4348.205078,4356.794922,4358.333496,4544.358887,4537.820313,4557.179688,4497.051270,5659.871582,4308.846191,4255.897461,0.000000,4.000000,79.000000,,,,0.000000,0.000000,0.000000,0.000000,0.000000,0.000000,0.000000,0.000000,0.000000,0.000000,0.000000,0.000000,0.000000,0.000000,0.000000,0.000000,,,,,,,,,,,,,,,,,,,,,,,,,,,,,,,,,,,,,,,,,,,,,,,,,,,,,,,,,,,,,,,,,,,,,,,,,,,,,,,,,,,,,,,,,,,,,,,,,,,,,,,,,,,,,,,,,,,,,,,,,,,,,,,,,
1738754177.900781,1738754177.901024,19.000000,0.000000,4323.205078,4345.512695,4250.000000,4298.333496,4348.589844,4359.102539,4364.102539,4544.358887,4536.282227,4553.205078,4496.153809,5662.820313,4305.128418,4251.282227,0.000000,4.000000,79.000000,,,,0.000000,0.000000,0.000000,0.000000,0.000000,0.000000,0.000000,0.000000,0.000000,0.000000,0.000000,0.000000,0.000000,0.000000,0.000000,0.000000,,,,,,,,,,,,,,,,,,,,,,,,,,,,,,,,,,,,,,,,,,,,,,,,,,,,,,,,,,,,,,,,,,,,,,,,,,,,,,,,,,,,,,,,,,,,,,,,,,,,,,,,,,,,,,,,,,,,,,,,,,,,,,,,,
1738754177.908589,1738754177.908832,20.000000,0.000000,4321.666504,4346.794922,4251.794922,4302.051270,4349.102539,4356.153809,4363.461426,4546.410156,4534.487305,4557.179688,4494.487305,5658.205078,4305.128418,4252.051270,0.000000,4.000000,79.000000,,,,0.000000,0.000000,0.000000,0.000000,0.000000,0.000000,0.000000,0.000000,0.000000,0.000000,0.000000,0.000000,0.000000,0.000000,0.000000,0.000000,,,,,,,,,,,,,,,,,5.000000,0.000000,0.785738,-0.615784,-0.055481,0.018677,0.064949,-0.973263,0.240752,4.731510,-14.903832,22.427589,,,,,,,,,,,,,,,,,,,,,,,,,,,,,,,,,,,,,,,,,,,,,,,,,,,,,,,,,,,,,,,,,,,,,,,,,,,,,,,,,,,,,,,,,,,,,,,,,,,,,
1738754177.916397,1738754177.916540,21.000000,0.000000,4319.230957,4348.461426,4250.769043,4299.871582,4349.743652,4356.025879,4361.282227,4549.230957,4535.384766,4560.000000,4494.615234,5656.025879,4309.743652,4257.820313,0.000000,4.000000,79.000000,,,,0.000000,0.000000,0.000000,0.000000,0.000000,0.000000,0.000000,0.000000,0.000000,0.000000,0.000000,0.000000,0.000000,0.000000,0.000000,0.000000,,,,,,,,,,,,,,,,,,,,,,,,,,,,,,,,,,,,,,,,,,,,,,,,,,,,,,,,,,,,,,,,,,,,,,,,,,,,,,,,,,,,,,,,,,,,,,,,,,,,,,,,,,,,,,,,,,,,,,,,,,,,,,,,,
1738754177.924205,1738754177.924448,22.000000,0.000000,4319.743652,4343.846191,4252.051270,4300.897461,4348.077148,4359.358887,4364.615234,4550.128418,4535.512695,4554.871582,4493.205078,5663.461426,4303.589844,4254.487305,0.000000,4.000000,79.000000,,,,0.000000,0.000000,0.000000,0.000000,0.000000,0.000000,0.000000,0.000000,0.000000,0.000000,0.000000,0.000000,0.000000,0.000000,0.000000,0.000000,,,,,,,,,,,,,,,,,,,,,,,,,,,,,,,,,,,,,,,,,,,,,,,,,,,,,,,,,,,,,,,,,,,,,,,,,,,,,,,,,,,,,,,,,,,,,,,,,,,,,,,,,,,,,,,,,,,,,,,,,,,,,,,,,
1738754177.932014,1738754177.932257,23.000000,0.000000,4318.461426,4346.025879,4252.948730,4297.692383,4347.692383,4356.410156,4360.384766,4541.666504,4537.051270,4556.410156,4495.256348,5661.410156,4310.256348,4254.358887,0.000000,4.000000,79.000000,,,,0.000000,0.000000,0.000000,0.000000,0.000000,0.000000,0.000000,0.000000,0.000000,0.000000,0.000000,0.000000,0.000000,0.000000,0.000000,0.000000,,,,,,,,,,,,,,,,,,,,,,,,,,,,,,,,,,,,,,,,,,,,,,,,,,,,,,,,,,,,,,,,,,,,,,,,,,,,,,,,,,,,,,,,,,,,,,,,,,,,,,,,,,,,,,,,,,,,,,,,,,,,,,,,,
