title:bread1, start timestamp:1738754182.702734, stop timestamp:1738754183.741212, headset type:EPOCX, headset serial:E50208A5, headset firmware:720, channels:168, sampling rate:eeg_128;mot_32;pm_0.1;pow_8, samples:134       , version:2.2, 
Timestamp,OriginalTimestamp,EEG.Counter,EEG.Interpolated,EEG.AF3,EEG.F7,EEG.F3,EEG.FC5,EEG.T7,EEG.P7,EEG.O1,EEG.O2,EEG.P8,EEG.T8,EEG.FC6,EEG.F4,EEG.F8,EEG.AF4,EEG.RawCq,EEG.Battery,EEG.BatteryPercent,MarkerIndex,MarkerType,MarkerValueInt,EEG.MarkerHardware,CQ.AF3,CQ.F7,CQ.F3,CQ.FC5,CQ.T7,CQ.P7,CQ.O1,CQ.O2,CQ.P8,CQ.T8,CQ.FC6,CQ.F4,CQ.F8,CQ.AF4,CQ.Overall,EQ.SampleRateQuality,EQ.OVERALL,EQ.AF3,EQ.F7,EQ.F3,EQ.FC5,EQ.T7,EQ.P7,EQ.O1,EQ.O2,EQ.P8,EQ.T8,EQ.FC6,EQ.F4,EQ.F8,EQ.AF4,MOT.CounterMems,MOT.InterpolatedMems,MOT.Q0,MOT.Q1,MOT.Q2,MOT.Q3,MOT.AccX,MOT.AccY,MOT.AccZ,MOT.MagX,MOT.MagY,MOT.MagZ,PM.Attention.IsActive,PM.Attention.Scaled,PM.Attention.Raw,PM.Attention.Min,PM.Attention.Max,PM.Engagement.IsActive,PM.Engagement.Scaled,PM.Engagement.Raw,PM.Engagement.Min,PM.Engagement.Max,PM.Excitement.IsActive,PM.Excitement.Scaled,PM.Excitement.Raw,PM.Excitement.Min,PM.Excitement.Max,PM.LongTermExcitement,PM.Stress.IsActive,PM.Stress.Scaled,PM.Stress.Raw,PM.Stress.Min,PM.Stress.Max,PM.Relaxation.IsActive,PM.Relaxation.Scaled,PM.Relaxation.Raw,PM.Relaxation.Min,PM.Relaxation.Max,PM.Interest.IsActive,PM.Interest.Scaled,PM.Interest.Raw,PM.Interest.Min,PM.Interest.Max,POW.AF3.Theta,POW.AF3.Alpha,POW.AF3.BetaL,POW.AF3.BetaH,POW.AF3.Gamma,POW.F7.Theta,POW.F7.Alpha,POW.F7.BetaL,POW.F7.BetaH,POW.F7.Gamma,POW.F3.Theta,POW.F3.Alpha,POW.F3.BetaL,POW.F3.BetaH,POW.F3.Gamma,POW.FC5.Theta,POW.FC5.Alpha,POW.FC5.BetaL,POW.FC5.BetaH,POW.FC5.Gamma,POW.T7.Theta,POW.T7.Alpha,POW.T7.BetaL,POW.T7.BetaH,POW.T7.Gamma,POW.P7.Theta,POW.P7.Alpha,POW.P7.BetaL,POW.P7.BetaH,POW.P7.Gamma,POW.O1.Theta,POW.O1.Alpha,POW.O1.BetaL,POW.O1.BetaH,POW.O1.Gamma,POW.O2.Theta,POW.O2.Alpha,POW.O2.BetaL,POW.O2.BetaH,POW.O2.Gamma,POW.P8.Theta,POW.P8.Alpha,POW.P8.BetaL,POW.P8.BetaH,POW.P8.Gamma,POW.T8.Theta,POW.T8.Alpha,POW.T8.BetaL,POW.T8.BetaH,POW.T8.Gamma,POW.FC6.Theta,POW.FC6.Alpha,POW.FC6.BetaL,POW.FC6.BetaH,POW.FC6.Gamma,POW.F4.Theta,POW.F4.Alpha,POW.F4.BetaL,POW.F4.BetaH,POW.F4.Gamma,POW.F8.Theta,POW.F8.Alpha,POW.F8.BetaL,POW.F8.BetaH,POW.F8.Gamma,POW.AF4.Theta,POW.AF4.Alpha,POW.AF4.BetaL,POW.AF4.BetaH,POW.AF4.Gamma
1738754182.702734,1738754182.702682,122.000000,0.000000,4320.128418,4350.384766,4252.692383,4299.871582,4348.461426,4358.846191,4359.871582,4547.436035,4535.769043,4554.358887,4492.692383,5663.077148,4305.384766,4255.641113,0.000000,4.000000,79.000000,,,,0.000000,0.000000,0.000000,0.000000,0.000000,0.000000,0.000000,0.000000,0.000000,0.000000,0.000000,0.000000,0.000000,0.000000,0.000000,0.000000,,,,,,,,,,,,,,,,,,,,,,,,,,,,,,,,,,,,,,,,,,,,,,,,,,,,,,,,,,,,,,,,,,,,,,,,,,,,,,,,,,,,,,,,,,,,,,,,,,,,,,,,,,,,,,,,,,,,,,,,,,,,,,,,,
1738754182.710542,1738754182.710590,123.000000,0.000000,4323.205078,4346.538574,4254.102539,4299.615234,4352.179688,4357.692383,4361.153809,4549.102539,4536.794922,4554.230957,4494.871582,5664.871582,4299.871582,4251.410156,0.000000,4.000000,79.000000,,,,0.000000,0.000000,0.000000,0.000000,0.000000,0.000000,0.000000,0.000000,0.000000,0.000000,0.000000,0.000000,0.000000,0.000000,0.000000,0.000000,,,,,,,,,,,,,,,,,,,,,,,,,,,,,,,,,,,,,,,,,,,,,,,,,,,,,,,,,,,,,,,,,,,,,,,,,,,,,,,,,,,,,,,,,,,,,,,,,,,,,,,,,,,,,,,,,,,,,,,,,,,,,,,,,
1738754182.718351,1738754182.718398,124.000000,0.000000,4318.846191,4345.897461,4251.666504,4295.769043,4351.153809,4355.128418,4362.820313,4545.384766,4540.384766,4557.307617,4496.666504,5658.333496,4314.358887,4259.743652,0.000000,4.000000,79.000000,,,,0.000000,0.000000,0.000000,0.000000,0.000000,0.000000,0.000000,0.000000,0.000000,0.000000,0.000000,0.000000,0.000000,0.000000,0.000000,0.000000,,,,,,,,,,,,,,,,,31.000000,0.000000,0.785253,-0.616333,-0.055908,0.019653,0.061531,-0.963497,0.216335,4.781237,-15.291511,22.325392,,,,,,,,,,,,,,,,,,,,,,,,,,,,,,,,,,,,,,,,,,,,,,,,,,,,,,,,,,,,,,,,,,,,,,,,,,,,,,,,,,,,,,,,,,,,,,,,,,,,,
1738754182.726159,1738754182.726306,125.000000,0.000000,4317.436035,4346.410156,4250.000000,4296.922852,4348.461426,4357.436035,4368.205078,4549.230957,4537.436035,4557.307617,4493.461426,5665.000000,4303.077148,4256.410156,0.000000,4.000000,79.000000,,,,0.000000,0.000000,0.000000,0.000000,0.000000,0.000000,0.000000,0.000000,0.000000,0.000000,0.000000,0.000000,0.000000,0.000000,0.000000,0.000000,,,,,,,,,,,,,,,,,,,,,,,,,,,,,,,,,,,,,,,,,,,,,,,,,,,,,,,,,,,,,,,,,,,,,,,,,,,,,,,,,,,,,,,,,,,,,,,,,,,,,,,,,,,,,,,,,,,,,,,,,,,,,,,,,
1738754182.733967,1738754182.734115,126.000000,0.000000,4318.461426,4348.333496,4250.897461,4294.615234,4348.589844,4356.794922,4362.179688,4548.205078,4537.820313,4556.538574,4495.384766,5662.948730,4307.820313,4256.282227,0.000000,4.000000,79.000000,,,,0.000000,0.000000,0.000000,0.000000,0.000000,0.000000,0.000000,0.000000,0.000000,0.000000,0.000000,0.000000,0.000000,0.000000,0.000000,0.000000,,,,,,,,,,,,,,,,,,,,,,,,,,,,,,,,,,,,,,,,,,,,,,,,,,,,,,,,,,,,0.027034,0.029684,0.014313,0.013134,0.017429,0.047508,0.038866,0.016083,0.015801,0.018498,0.016933,0.022384,0.016186,0.019536,0.027169,0.028135,0.012621,0.015125,0.015520,0.024524,0.038381,0.022133,0.017311,0.014869,0.021943,0.017214,0.029795,0.028699,0.038367,0.039917,0.034829,0.022906,0.021093,0.035069,0.026538,0.015348,0.016756,0.013319,0.016134,0.023335,0.038152,0.018237,0.027922,0.015879,0.044337,0.013555,0.053508,0.020470,0.013288,0.015068,0.005343,0.043300,0.028884,0.007527,0.013441,0.013509,0.023697,0.012039,0.021055,0.021140,0.030748,0.032426,0.034493,0.061903,0.035445,0.032383,0.028099,0.034839,0.020874,0.024642
1738754182.741775,1738754182.742023,127.000000,0.000000,4321.025879,4347.179688,4252.436035,4298.589844,4349.615234,4354.102539,4361.282227,4548.461426,4535.641113,4554.358887,4494.615234,5663.333496,4308.461426,4252.051270,79.000000,4.000000,79.000000,,,,0.000000,0.000000,0.000000,0.000000,0.000000,0.000000,0.000000,0.000000,0.000000,0.000000,0.000000,0.000000,0.000000,0.000000,0.000000,0.000000,,,,,,,,,,,,,,,,,,,,,,,,,,,,,,,,,,,,,,,,,,,,,,,,,,,,,,,,,,,,,,,,,,,,,,,,,,,,,,,,,,,,,,,,,,,,,,,,,,,,,,,,,,,,,,,,,,,,,,,,,,,,,,,,,
1738754182.749583,1738754182.749831,0.000000,0.000000,4318.333496,4347.820313,4249.358887,4300.897461,4350.897461,4355.256348,4364.358887,4546.794922,4533.974121,4555.000000,4494.743652,5666.153809,4308.205078,4254.743652,0.000000,4.000000,79.000000,,,,0.000000,0.000000,0.000000,0.000000,0.000000,0.000000,0.000000,0.000000,0.000000,0.000000,0.000000,0.000000,0.000000,0.000000,0.000000,0.000000,,,,,,,,,,,,,,,,,0.000000,0.000000,0.785205,-0.616394,-0.055908,0.019653,0.072274,-0.969357,0.240264,4.819780,-15.312360,22.276186,,,,,,,,,,,,,,,,,,,,,,,,,,,,,,,,,,,,,,,,,,,,,,,,,,,,,,,,,,,,,,,,,,,,,,,,,,,,,,,,,,,,,,,,,,,,,,,,,,,,,
1738754182.757391,1738754182.757738,1.000000,0.000000,4314.871582,4347.692383,4247.436035,4295.897461,4349.487305,4357.692383,4362.179688,4540.769043,4540.384766,4557.948730,4497.948730,5660.384766,4316.153809,4261.410156,0.000000,4.000000,79.000000,,,,0.000000,0.000000,0.000000,0.000000,0.000000,0.000000,0.000000,0.000000,0.000000,0.000000,0.000000,0.000000,0.000000,0.000000,0.000000,0.000000,,,,,,,,,,,,,,,,,,,,,,,,,,,,,,,,,,,,,,,,,,,,,,,,,,,,,,,,,,,,,,,,,,,,,,,,,,,,,,,,,,,,,,,,,,,,,,,,,,,,,,,,,,,,,,,,,,,,,,,,,,,,,,,,,
1738754182.765199,1738754182.765546,2.000000,0.000000,4319.358887,4343.461426,4252.051270,4300.128418,4347.948730,4357.692383,4364.615234,4546.666504,4538.333496,4556.153809,4494.102539,5666.410156,4302.820313,4251.025879,0.000000,4.000000,79.000000,,,,0.000000,0.000000,0.000000,0.000000,0.000000,0.000000,0.000000,0.000000,0.000000,0.000000,0.000000,0.000000,0.000000,0.000000,0.000000,0.000000,,,,,,,,,,,,,,,,,,,,,,,,,,,,,,,,,,,,,,,,,,,,,,,,,,,,,,,,,,,,,,,,,,,,,,,,,,,,,,,,,,,,,,,,,,,,,,,,,,,,,,,,,,,,,,,,,,,,,,,,,,,,,,,,,
1738754182.773007,1738754182.773254,3.000000,0.000000,4318.846191,4346.538574,4252.179688,4299.358887,4351.410156,4356.025879,4359.487305,4547.948730,4536.410156,4555.000000,4494.743652,5663.461426,4313.461426,4253.333496,0.000000,4.000000,79.000000,,,,0.000000,0.000000,0.000000,0.000000,0.000000,0.000000,0.000000,0.000000,0.000000,0.000000,0.000000,0.000000,0.000000,0.000000,0.000000,0.000000,,,,,,,,,,,,,,,,,,,,,,,,,,,,,,,,,,,,,,,,,,,,,,,,,,,,,,,,,,,,,,,,,,,,,,,,,,,,,,,,,,,,,,,,,,,,,,,,,,,,,,,,,,,,,,,,,,,,,,,,,,,,,,,,,
1738754182.780815,1738754182.781062,4.000000,0.000000,4317.692383,4347.179688,4251.025879,4299.487305,4354.615234,4357.436035,4364.230957,4547.307617,4535.384766,4554.871582,4495.897461,5660.897461,4313.205078,4255.256348,0.000000,4.000000,79.000000,,,,0.000000,0.000000,0.000000,0.000000,0.000000,0.000000,0.000000,0.000000,0.000000,0.000000,0.000000,0.000000,0.000000,0.000000,0.000000,0.000000,,,,,,,,,,,,,,,,,1.000000,0.000000,0.785211,-0.616394,-0.055847,0.019592,0.065438,-0.964962,0.234892,4.754469,-15.397791,22.331900,,,,,,,,,,,,,,,,,,,,,,,,,,,,,,,,,,,,,,,,,,,,,,,,,,,,,,,,,,,,,,,,,,,,,,,,,,,,,,,,,,,,,,,,,,,,,,,,,,,,,
1738754182.788623,1738754182.788770,5.000000,0.000000,4319.230957,4343.974121,4252.948730,4302.051270,4352.820313,4359.871582,4369.102539,4549.230957,4534.871582,4555.000000,4493.974121,5667.436035,4301.282227,4253.589844,0.000000,4.000000,79.000000,,,,0.000000,0.000000,0.000000,0.000000,0.000000,0.000000,0.000000,0.000000,0.000000,0.000000,0.000000,0.000000,0.000000,0.000000,0.000000,0.000000,,,,,,,,,,,,,,,,,,,,,,,,,,,,,,,,,,,,,,,,,,,,,,,,,,,,,,,,,,,,,,,,,,,,,,,,,,,,,,,,,,,,,,,,,,,,,,,,,,,,,,,,,,,,,,,,,,,,,,,,,,,,,,,,,
1738754182.796431,1738754182.796679,6.000000,0.000000,4317.820313,4348.205078,4250.128418,4295.512695,4350.897461,4361.025879,4361.410156,4543.974121,4537.051270,4557.179688,4495.897461,5662.307617,4314.871582,4260.000000,0.000000,4.000000,79.000000,,,,0.000000,0.000000,0.000000,0.000000,0.000000,0.000000,0.000000,0.000000,0.000000,0.000000,0.000000,0.000000,0.000000,0.000000,0.000000,0.000000,,,,,,,,,,,,,,,,,,,,,,,,,,,,,,,,,,,,,,,,,,,,,,,,,,,,,,,,,,,,,,,,,,,,,,,,,,,,,,,,,,,,,,,,,,,,,,,,,,,,,,,,,,,,,,,,,,,,,,,,,,,,,,,,,
1738754182.804240,1738754182.804487,7.000000,0.000000,4319.102539,4349.102539,4249.743652,4299.487305,4349.743652,4358.717773,4366.410156,4547.179688,4529.871582,4554.487305,4494.102539,5664.230957,4307.307617,4252.948730,0.000000,4.000000,79.000000,,,,0.000000,0.000000,0.000000,0.000000,0.000000,0.000000,0.000000,0.000000,0.000000,0.000000,0.000000,0.000000,0.000000,0.000000,0.000000,0.000000,,,,,,,,,,,,,,,,,,,,,,,,,,,,,,,,,,,,,,,,,,,,,,,,,,,,,,,,,,,,,,,,,,,,,,,,,,,,,,,,,,,,,,,,,,,,,,,,,,,,,,,,,,,,,,,,,,,,,,,,,,,,,,,,,
1738754182.812048,1738754182.812395,8.000000,0.000000,4319.487305,4347.948730,4252.948730,4302.179688,4348.333496,4356.922852,4363.846191,4550.000000,4531.410156,4554.102539,4494.615234,5663.461426,4310.128418,4253.846191,0.000000,4.000000,79.000000,,,,0.000000,0.000000,0.000000,0.000000,0.000000,0.000000,0.000000,0.000000,0.000000,0.000000,0.000000,0.000000,0.000000,0.000000,0.000000,0.000000,,,,,,,,,,,,,,,,,2.000000,0.000000,0.785211,-0.616394,-0.055847,0.019592,0.057624,-0.977658,0.239287,4.695689,-15.341345,22.298710,,,,,,,,,,,,,,,,,,,,,,,,,,,,,,,,,,,,,,,,,,,,,,,,,,,,,,,,,,,,,,,,,,,,,,,,,,,,,,,,,,,,,,,,,,,,,,,,,,,,,
1738754182.819856,1738754182.820203,9.000000,0.000000,4318.846191,4347.307617,4254.102539,4298.717773,4348.205078,4358.846191,4361.666504,4548.974121,4538.461426,4558.846191,4495.384766,5662.820313,4313.077148,4258.333496,0.000000,4.000000,79.000000,,,,0.000000,0.000000,0.000000,0.000000,0.000000,0.000000,0.000000,0.000000,0.000000,0.000000,0.000000,0.000000,0.000000,0.000000,0.000000,0.000000,,,,,,,,,,,,,,,,,,,,,,,,,,,,,,,,,,,,,,,,,,,,,,,,,,,,,,,,,,,,,,,,,,,,,,,,,,,,,,,,,,,,,,,,,,,,,,,,,,,,,,,,,,,,,,,,,,,,,,,,,,,,,,,,,
1738754182.827664,1738754182.828011,10.000000,0.000000,4319.230957,4345.769043,4252.436035,4299.358887,4347.948730,4357.948730,4366.794922,4549.102539,4534.358887,4558.461426,4493.717773,5665.256348,4302.692383,4253.333496,0.000000,4.000000,79.000000,,,,0.000000,0.000000,0.000000,0.000000,0.000000,0.000000,0.000000,0.000000,0.000000,0.000000,0.000000,0.000000,0.000000,0.000000,0.000000,0.000000,,,,,,,,,,,,,,,,,,,,,,,,,,,,,,,,,,,,,,,,,,,,,,,,,,,,,,,,,,,,,,,,,,,,,,,,,,,,,,,,,,,,,,,,,,,,,,,,,,,,,,,,,,,,,,,,,,,,,,,,,,,,,,,,,
1738754182.835472,1738754182.835719,11.000000,0.000000,4318.077148,4347.307617,4250.769043,4298.717773,4347.179688,4358.205078,4362.307617,4546.153809,4533.205078,4555.769043,4496.282227,5656.410156,4313.461426,4256.794922,0.000000,4.000000,79.000000,,,,0.000000,0.000000,0.000000,0.000000,0.000000,0.000000,0.000000,0.000000,0.000000,0.000000,0.000000,0.000000,0.000000,0.000000,0.000000,0.000000,,,,,,,,,,,,,,,,,,,,,,,,,,,,,,,,,,,,,,,,,,,,,,,,,,,,,,,,,,,,,,,,,,,,,,,,,,,,,,,,,,,,,,,,,,,,,,,,,,,,,,,,,,,,,,,,,,,,,,,,,,,,,,,,,
1738754182.843280,1738754182.843527,12.000000,0.000000,4320.769043,4345.256348,4252.820313,4303.461426,4348.589844,4361.410156,4365.641113,4553.205078,4533.846191,4554.102539,4493.717773,5665.384766,4306.538574,4255.000000,0.000000,4.000000,79.000000,,,,0.000000,0.000000,0.000000,0.000000,0.000000,0.000000,0.000000,0.000000,0.000000,0.000000,0.000000,0.000000,0.000000,0.000000,0.000000,0.000000,,,,,,,,,,,,,,,,,3.000000,0.000000,0.785222,-0.616394,-0.055725,0.019470,0.062019,-0.965938,0.230497,4.876120,-15.223877,22.168839,,,,,,,,,,,,,,,,,,,,,,,,,,,,,,,,,,,,,,,,,,,,,,,,,,,,,,,,,,,,,,,,,,,,,,,,,,,,,,,,,,,,,,,,,,,,,,,,,,,,,
1738754182.851088,1738754182.851235,13.000000,0.000000,4318.461426,4347.436035,4251.794922,4301.282227,4348.974121,4359.615234,4365.256348,4551.153809,4536.666504,4555.897461,4494.358887,5668.077148,4307.820313,4257.179688,0.000000,4.000000,79.000000,,,,0.000000,0.000000,0.000000,0.000000,0.000000,0.000000,0.000000,0.000000,0.000000,0.000000,0.000000,0.000000,0.000000,0.000000,0.000000,0.000000,,,,,,,,,,,,,,,,,,,,,,,,,,,,,,,,,,,,,,,,,,,,,,,,,,,,,,,,,,,,,,,,,,,,,,,,,,,,,,,,,,,,,,,,,,,,,,,,,,,,,,,,,,,,,,,,,,,,,,,,,,,,,,,,,
1738754182.858896,1738754182.859043,14.000000,0.000000,4315.384766,4352.307617,4250.256348,4296.922852,4349.230957,4356.410156,4359.615234,4543.461426,4536.410156,4556.794922,4496.025879,5660.512695,4312.179688,4259.615234,0.000000,4.000000,79.000000,,,,0.000000,0.000000,0.000000,0.000000,0.000000,0.000000,0.000000,0.000000,0.000000,0.000000,0.000000,0.000000,0.000000,0.000000,0.000000,0.000000,,,,,,,,,,,,,,,,,,,,,,,,,,,,,,,,,,,,,,,,,,,,,,,,,,,,,,,,,,,,0.025491,0.025117,0.011948,0.012317,0.018081,0.041179,0.039424,0.016686,0.016387,0.020723,0.016606,0.021789,0.017035,0.017781,0.026512,0.027430,0.008359,0.017184,0.015639,0.024815,0.038261,0.026763,0.017078,0.015682,0.022506,0.015329,0.038669,0.032702,0.041221,0.043243,0.035303,0.030793,0.018288,0.031333,0.022951,0.016022,0.015309,0.012715,0.017873,0.025810,0.033362,0.024529,0.027463,0.014611,0.043621,0.014642,0.050997,0.021003,0.014385,0.017100,0.005120,0.043482,0.027831,0.007286,0.011945,0.012626,0.029009,0.012788,0.019991,0.020327,0.025519,0.031169,0.030924,0.064175,0.036042,0.025120,0.028126,0.035937,0.020827,0.025079
1738754182.866704,1738754182.866751,15.000000,0.000000,4320.769043,4346.666504,4250.512695,4300.897461,4349.487305,4359.743652,4362.436035,4551.410156,4532.307617,4554.102539,4493.205078,5666.153809,4298.717773,4252.692383,0.000000,4.000000,79.000000,,,,0.000000,0.000000,0.000000,0.000000,0.000000,0.000000,0.000000,0.000000,0.000000,0.000000,0.000000,0.000000,0.000000,0.000000,0.000000,0.000000,,,,,,,,,,,,,,,,,,,,,,,,,,,,,,,,,,,,,,,,,,,,,,,,,,,,,,,,,,,,,,,,,,,,,,,,,,,,,,,,,,,,,,,,,,,,,,,,,,,,,,,,,,,,,,,,,,,,,,,,,,,,,,,,,
1738754182.874513,1738754182.874659,16.000000,0.000000,4320.384766,4345.769043,4249.102539,4297.179688,4348.077148,4361.538574,4363.589844,4550.256348,4536.538574,4555.384766,4496.282227,5661.922852,4313.333496,4256.025879,0.000000,4.000000,79.000000,,,,0.000000,0.000000,0.000000,0.000000,0.000000,0.000000,0.000000,0.000000,0.000000,0.000000,0.000000,0.000000,0.000000,0.000000,0.000000,0.000000,,,,,,,,,,,,,,,,,4.000000,0.000000,0.785318,-0.616272,-0.055725,0.019470,0.076670,-0.970822,0.231474,4.838508,-15.184823,22.235289,,,,,,,,,,,,,,,,,,,,,,,,,,,,,,,,,,,,,,,,,,,,,,,,,,,,,,,,,,,,,,,,,,,,,,,,,,,,,,,,,,,,,,,,,,,,,,,,,,,,,
1738754182.882321,1738754182.882468,17.000000,0.000000,4318.205078,4348.589844,4251.666504,4297.563965,4349.743652,4356.666504,4372.948730,4548.717773,4534.615234,4555.384766,4496.410156,5663.205078,4309.871582,4252.051270,0.000000,4.000000,79.000000,,,,0.000000,0.000000,0.000000,0.000000,0.000000,0.000000,0.000000,0.000000,0.000000,0.000000,0.000000,0.000000,0.000000,0.000000,0.000000,0.000000,,,,,,,,,,,,,,,,,,,,,,,,,,,,,,,,,,,,,,,,,,,,,,,,,,,,,,,,,,,,,,,,,,,,,,,,,,,,,,,,,,,,,,,,,,,,,,,,,,,,,,,,,,,,,,,,,,,,,,,,,,,,,,,,,
1738754182.890129,1738754182.890376,18.000000,0.000000,4319.358887,4348.205078,4253.461426,4298.589844,4349.871582,4356.922852,4368.205078,4549.358887,4532.563965,4556.410156,4495.897461,5662.179688,4301.922852,4253.333496,0.000000,4.000000,79.000000,,,,0.000000,0.000000,0.000000,0.000000,0.000000,0.000000,0.000000,0.000000,0.000000,0.000000,0.000000,0.000000,0.000000,0.000000,0.000000,0.000000,,,,,,,,,,,,,,,,,,,,,,,,,,,,,,,,,,,,,,,,,,,,,,,,,,,,,,,,,,,,,,,,,,,,,,,,,,,,,,,,,,,,,,,,,,,,,,,,,,,,,,,,,,,,,,,,,,,,,,,,,,,,,,,,,
1738754182.897937,1738754182.898184,19.000000,0.000000,4320.256348,4349.230957,4251.922852,4296.666504,4347.563965,4365.000000,4352.948730,4546.922852,4536.922852,4558.461426,4497.692383,5656.794922,4312.948730,4259.871582,0.000000,4.000000,79.000000,,,,0.000000,0.000000,0.000000,0.000000,0.000000,0.000000,0.000000,0.000000,0.000000,0.000000,0.000000,0.000000,0.000000,0.000000,0.000000,0.000000,,,,,,,,,,,,,,,,,,,,,,,,,,,,,,,,,,,,,,,,,,,,,,,,,,,,,,,,,,,,,,,,,,,,,,,,,,,,,,,,,,,,,,,,,,,,,,,,,,,,,,,,,,,,,,,,,,,,,,,,,,,,,,,,,
1738754182.905745,1738754182.906092,20.000000,0.000000,4320.641113,4347.307617,4250.897461,4300.512695,4348.461426,4366.410156,4360.256348,4552.307617,4533.974121,4556.538574,4494.358887,5666.282227,4305.512695,4251.025879,0.000000,4.000000,79.000000,,,,0.000000,0.000000,0.000000,0.000000,0.000000,0.000000,0.000000,0.000000,0.000000,0.000000,0.000000,0.000000,0.000000,0.000000,0.000000,0.000000,,,,,,,,,,,,,,,,,5.000000,0.000000,0.785322,-0.616272,-0.055664,0.019470,0.067391,-0.980100,0.225613,4.854657,-15.366341,22.295094,,,,,,,,,,,,,,,,,,,,,,,,,,,,,,,,,,,,,,,,,,,,,,,,,,,,,,,,,,,,,,,,,,,,,,,,,,,,,,,,,,,,,,,,,,,,,,,,,,,,,
1738754182.913553,1738754182.913900,21.000000,0.000000,4318.717773,4347.436035,4249.487305,4299.230957,4349.358887,4358.589844,4364.615234,4548.333496,4536.282227,4556.282227,4495.256348,5661.025879,4313.974121,4255.641113,0.000000,4.000000,79.000000,,,,0.000000,0.000000,0.000000,0.000000,0.000000,0.000000,0.000000,0.000000,0.000000,0.000000,0.000000,0.000000,0.000000,0.000000,0.000000,0.000000,,,,,,,,,,,,,,,,,,,,,,,,,,,,,,,,,,,,,,,,,,,,,,,,,,,,,,,,,,,,,,,,,,,,,,,,,,,,,,,,,,,,,,,,,,,,,,,,,,,,,,,,,,,,,,,,,,,,,,,,,,,,,,,,,
1738754182.921361,1738754182.921808,22.000000,0.000000,4321.922852,4348.461426,4252.179688,4302.563965,4349.615234,4356.025879,4363.589844,4546.538574,4537.948730,4554.871582,4497.307617,5658.333496,4310.384766,4256.538574,0.000000,4.000000,79.000000,,,,0.000000,0.000000,0.000000,0.000000,0.000000,0.000000,0.000000,0.000000,0.000000,0.000000,0.000000,0.000000,0.000000,0.000000,0.000000,0.000000,,,,,,,,,,,,,,,,,,,,,,,,,,,,,,,,,,,,,,,,,,,,,,,,,,,,,,,,,,,,,,,,,,,,,,,,,,,,,,,,,,,,,,,,,,,,,,,,,,,,,,,,,,,,,,,,,,,,,,,,,,,,,,,,,
1738754182.929169,1738754182.929616,23.000000,0.000000,4321.538574,4349.358887,4253.333496,4301.538574,4351.153809,4357.820313,4362.692383,4551.153809,4535.128418,4553.461426,4496.153809,5664.871582,4301.282227,4249.358887,0.000000,4.000000,79.000000,,,,0.000000,0.000000,0.000000,0.000000,0.000000,0.000000,0.000000,0.000000,0.000000,0.000000,0.000000,0.000000,0.000000,0.000000,0.000000,0.000000,,,,,,,,,,,,,,,,,,,,,,,,,,,,,,,,,,,,,,,,,,,,,,,,,,,,,,,,,,,,,,,,,,,,,,,,,,,,,,,,,,,,,,,,,,,,,,,,,,,,,,,,,,,,,,,,,,,,,,,,,,,,,,,,,
1738754182.936977,1738754182.937524,24.000000,0.000000,4316.282227,4347.820313,4250.897461,4295.641113,4351.666504,4356.282227,4359.743652,4547.051270,4535.512695,4557.307617,4496.153809,5659.743652,4315.384766,4254.102539,0.000000,4.000000,79.000000,,,,0.000000,0.000000,0.000000,0.000000,0.000000,0.000000,0.000000,0.000000,0.000000,0.000000,0.000000,0.000000,0.000000,0.000000,0.000000,0.000000,,,,,,,,,,,,,,,,,6.000000,0.000000,0.785369,-0.616211,-0.055664,0.019531,0.066903,-0.972775,0.238310,4.902524,-15.279706,22.348917,,,,,,,,,,,,,,,,,,,,,,,,,,,,,,,,,,,,,,,,,,,,,,,,,,,,,,,,,,,,,,,,,,,,,,,,,,,,,,,,,,,,,,,,,,,,,,,,,,,,,
1738754182.944785,1738754182.945332,25.000000,0.000000,4318.205078,4342.820313,4252.179688,4303.589844,4350.128418,4355.512695,4368.205078,4548.077148,4533.333496,4559.230957,4493.974121,5663.077148,4305.512695,4253.077148,0.000000,4.000000,79.000000,,,,0.000000,0.000000,0.000000,0.000000,0.000000,0.000000,0.000000,0.000000,0.000000,0.000000,0.000000,0.000000,0.000000,0.000000,0.000000,0.000000,,,,,,,,,,,,,,,,,,,,,,,,,,,,,,,,,,,,,,,,,,,,,,,,,,,,,,,,,,,,,,,,,,,,,,,,,,,,,,,,,,,,,,,,,,,,,,,,,,,,,,,,,,,,,,,,,,,,,,,,,,,,,,,,,
1738754182.952593,1738754182.953040,26.000000,0.000000,4317.948730,4347.307617,4251.922852,4301.922852,4348.717773,4356.794922,4364.871582,4548.205078,4536.153809,4556.922852,4494.743652,5661.025879,4305.641113,4256.538574,0.000000,4.000000,79.000000,,,,0.000000,0.000000,0.000000,0.000000,0.000000,0.000000,0.000000,0.000000,0.000000,0.000000,0.000000,0.000000,0.000000,0.000000,0.000000,0.000000,,,,,,,,,,,,,,,,,,,,,,,,,,,,,,,,,,,,,,,,,,,,,,,,,,,,,,,,,,,,,,,,,,,,,,,,,,,,,,,,,,,,,,,,,,,,,,,,,,,,,,,,,,,,,,,,,,,,,,,,,,,,,,,,,
1738754182.960402,1738754182.960848,27.000000,0.000000,4316.282227,4351.025879,4252.692383,4298.077148,4348.846191,4358.589844,4360.384766,4550.128418,4537.179688,4553.717773,4494.102539,5662.179688,4306.282227,4254.358887,0.000000,4.000000,79.000000,,,,0.000000,0.000000,0.000000,0.000000,0.000000,0.000000,0.000000,0.000000,0.000000,0.000000,0.000000,0.000000,0.000000,0.000000,0.000000,0.000000,,,,,,,,,,,,,,,,,,,,,,,,,,,,,,,,,,,,,,,,,,,,,,,,,,,,,,,,,,,,,,,,,,,,,,,,,,,,,,,,,,,,,,,,,,,,,,,,,,,,,,,,,,,,,,,,,,,,,,,,,,,,,,,,,
1738754182.968210,1738754182.968556,28.000000,0.000000,4317.820313,4347.179688,4253.461426,4301.410156,4348.589844,4358.589844,4363.974121,4553.846191,4533.974121,4553.589844,4493.589844,5669.102539,4301.922852,4249.102539,0.000000,4.000000,79.000000,,,,0.000000,0.000000,0.000000,0.000000,0.000000,0.000000,0.000000,0.000000,0.000000,0.000000,0.000000,0.000000,0.000000,0.000000,0.000000,0.000000,,,,,,,,,,,,,,,,,7.000000,0.000000,0.785319,-0.616272,-0.055664,0.019592,0.064949,-0.971798,0.231962,4.828939,-15.201735,22.364025,,,,,,,,,,,,,,,,,,,,,,,,,,,,,,,,,,,,,,,,,,,,,,,,,,,,,,,,,,,,,,,,,,,,,,,,,,,,,,,,,,,,,,,,,,,,,,,,,,,,,
1738754182.976018,1738754182.976364,29.000000,0.000000,4316.666504,4345.897461,4250.384766,4296.538574,4348.333496,4357.692383,4359.487305,4548.717773,4537.692383,4556.794922,4499.102539,5661.538574,4318.717773,4259.743652,0.000000,4.000000,79.000000,,,,0.000000,0.000000,0.000000,0.000000,0.000000,0.000000,0.000000,0.000000,0.000000,0.000000,0.000000,0.000000,0.000000,0.000000,0.000000,0.000000,,,,,,,,,,,,,,,,,,,,,,,,,,,,,,,,,,,,,,,,,,,,,,,,,,,,,,,,,,,,,,,,,,,,,,,,,,,,,,,,,,,,,,,,,,,,,,,,,,,,,,,,,,,,,,,,,,,,,,,,,,,,,,,,,
1738754182.983826,1738754182.984072,30.000000,0.000000,4319.743652,4344.358887,4250.384766,4299.487305,4348.461426,4360.897461,4361.922852,4549.615234,4536.410156,4555.769043,4496.282227,5665.128418,4308.974121,4257.179688,0.000000,4.000000,79.000000,,,,0.000000,0.000000,0.000000,0.000000,0.000000,0.000000,0.000000,0.000000,0.000000,0.000000,0.000000,0.000000,0.000000,0.000000,0.000000,0.000000,1.000000,0.000000,0.000000,0.000000,0.000000,0.000000,0.000000,0.000000,0.000000,0.000000,0.000000,0.000000,0.000000,0.000000,0.000000,0.000000,,,,,,,,,,,,,,,,,,,,,,,,,,,,,,,,,,,,,,,,,,,,0.023546,0.020086,0.009844,0.011468,0.018248,0.033227,0.036520,0.017252,0.016689,0.022581,0.016540,0.021818,0.017174,0.017159,0.025564,0.026831,0.006308,0.021403,0.016632,0.025304,0.038112,0.030857,0.017468,0.017312,0.022881,0.016115,0.050984,0.038184,0.043140,0.044798,0.034248,0.039914,0.016833,0.029153,0.019838,0.016698,0.014213,0.013517,0.019842,0.026919,0.027537,0.030447,0.027119,0.014339,0.040283,0.014674,0.044362,0.021204,0.015966,0.018896,0.005619,0.043522,0.026119,0.007476,0.011788,0.012199,0.033332,0.013401,0.019731,0.018950,0.021084,0.030234,0.027614,0.060513,0.036344,0.018405,0.029787,0.037053,0.020332,0.026495
1738754182.991634,1738754182.991880,31.000000,0.000000,4321.025879,4345.512695,4250.641113,4297.948730,4347.307617,4360.897461,4362.307617,4547.820313,4535.769043,4555.512695,4496.153809,5664.230957,4309.358887,4254.230957,0.000000,4.000000,79.000000,,,,0.000000,0.000000,0.000000,0.000000,0.000000,0.000000,0.000000,0.000000,0.000000,0.000000,0.000000,0.000000,0.000000,0.000000,0.000000,0.000000,,,,,,,,,,,,,,,,,,,,,,,,,,,,,,,,,,,,,,,,,,,,,,,,,,,,,,,,,,,,,,,,,,,,,,,,,,,,,,,,,,,,,,,,,,,,,,,,,,,,,,,,,,,,,,,,,,,,,,,,,,,,,,,,,
1738754182.999442,1738754182.999588,32.000000,0.000000,4317.820313,4344.871582,4252.307617,4294.743652,4348.205078,4355.512695,4362.051270,4546.282227,4537.820313,4556.410156,4496.794922,5658.333496,4313.974121,4255.769043,0.000000,4.000000,79.000000,,,,0.000000,0.000000,0.000000,0.000000,0.000000,0.000000,0.000000,0.000000,0.000000,0.000000,0.000000,0.000000,0.000000,0.000000,0.000000,0.000000,,,,,,,,,,,,,,,,,8.000000,0.000000,0.785280,-0.616333,-0.055542,0.019592,0.057136,-0.993285,0.243194,4.829378,-15.364896,22.344290,,,,,,,,,,,,,,,,,,,,,,,,,,,,,,,,,,,,,,,,,,,,,,,,,,,,,,,,,,,,,,,,,,,,,,,,,,,,,,,,,,,,,,,,,,,,,,,,,,,,,
1738754183.007250,1738754183.007396,33.000000,0.000000,4319.358887,4343.589844,4255.000000,4303.333496,4351.794922,4355.384766,4367.820313,4550.897461,4536.282227,4554.871582,4492.563965,5665.512695,4300.641113,4252.179688,0.000000,4.000000,79.000000,,,,0.000000,0.000000,0.000000,0.000000,0.000000,0.000000,0.000000,0.000000,0.000000,0.000000,0.000000,0.000000,0.000000,0.000000,0.000000,0.000000,,,,,,,,,,,,,,,,,,,,,,,,,,,,,,,,,,,,,,,,,,,,,,,,,,,,,,,,,,,,,,,,,,,,,,,,,,,,,,,,,,,,,,,,,,,,,,,,,,,,,,,,,,,,,,,,,,,,,,,,,,,,,,,,,
1738754183.015058,1738754183.015104,34.000000,0.000000,4320.000000,4349.615234,4252.051270,4301.153809,4351.538574,4357.563965,4363.589844,4546.922852,4539.358887,4556.794922,4495.641113,5661.794922,4311.025879,4258.589844,0.000000,4.000000,79.000000,,,,0.000000,0.000000,0.000000,0.000000,0.000000,0.000000,0.000000,0.000000,0.000000,0.000000,0.000000,0.000000,0.000000,0.000000,0.000000,0.000000,,,,,,,,,,,,,,,,,,,,,,,,,,,,,,,,,,,,,,,,,,,,,,,,,,,,,,,,,,,,,,,,,,,,,,,,,,,,,,,,,,,,,,,,,,,,,,,,,,,,,,,,,,,,,,,,,,,,,,,,,,,,,,,,,
1738754183.022866,1738754183.022912,35.000000,0.000000,4320.000000,4351.666504,4250.256348,4299.102539,4350.256348,4357.436035,4364.871582,4549.230957,4537.948730,4556.922852,4494.102539,5662.948730,4304.102539,4253.205078,0.000000,4.000000,79.000000,,,,0.000000,0.000000,0.000000,0.000000,0.000000,0.000000,0.000000,0.000000,0.000000,0.000000,0.000000,0.000000,0.000000,0.000000,0.000000,0.000000,,,,,,,,,,,,,,,,,,,,,,,,,,,,,,,,,,,,,,,,,,,,,,,,,,,,,,,,,,,,,,,,,,,,,,,,,,,,,,,,,,,,,,,,,,,,,,,,,,,,,,,,,,,,,,,,,,,,,,,,,,,,,,,,,
1738754183.030675,1738754183.030620,36.000000,0.000000,4318.717773,4348.717773,4251.153809,4300.769043,4352.051270,4358.077148,4364.487305,4550.512695,4536.666504,4556.282227,4492.051270,5664.871582,4301.666504,4249.487305,0.000000,4.000000,79.000000,,,,0.000000,0.000000,0.000000,0.000000,0.000000,0.000000,0.000000,0.000000,0.000000,0.000000,0.000000,0.000000,0.000000,0.000000,0.000000,0.000000,,,,,,,,,,,,,,,,,9.000000,0.000000,0.785283,-0.616333,-0.055542,0.019470,0.058113,-0.972287,0.239775,4.763107,-15.495072,22.443193,,,,,,,,,,,,,,,,,,,,,,,,,,,,,,,,,,,,,,,,,,,,,,,,,,,,,,,,,,,,,,,,,,,,,,,,,,,,,,,,,,,,,,,,,,,,,,,,,,,,,
1738754183.038483,1738754183.038428,37.000000,0.000000,4318.205078,4346.025879,4252.051270,4300.128418,4350.897461,4361.410156,4361.153809,4547.948730,4538.461426,4555.641113,4495.769043,5661.282227,4313.589844,4255.897461,0.000000,4.000000,79.000000,,,,0.000000,0.000000,0.000000,0.000000,0.000000,0.000000,0.000000,0.000000,0.000000,0.000000,0.000000,0.000000,0.000000,0.000000,0.000000,0.000000,,,,,,,,,,,,,,,,,,,,,,,,,,,,,,,,,,,,,,,,,,,,,,,,,,,,,,,,,,,,,,,,,,,,,,,,,,,,,,,,,,,,,,,,,,,,,,,,,,,,,,,,,,,,,,,,,,,,,,,,,,,,,,,,,
1738754183.046291,1738754183.046136,38.000000,0.000000,4321.666504,4343.461426,4252.307617,4300.384766,4347.436035,4362.563965,4366.153809,4551.025879,4534.102539,4552.563965,4496.410156,5666.282227,4303.717773,4253.846191,0.000000,4.000000,79.000000,,,,0.000000,0.000000,0.000000,0.000000,0.000000,0.000000,0.000000,0.000000,0.000000,0.000000,0.000000,0.000000,0.000000,0.000000,0.000000,0.000000,,,,,,,,,,,,,,,,,,,,,,,,,,,,,,,,,,,,,,,,,,,,,,,,,,,,,,,,,,,,,,,,,,,,,,,,,,,,,,,,,,,,,,,,,,,,,,,,,,,,,,,,,,,,,,,,,,,,,,,,,,,,,,,,,
1738754183.054099,1738754183.054044,39.000000,0.000000,4318.077148,4346.794922,4250.128418,4294.743652,4345.512695,4360.128418,4361.282227,4544.230957,4535.000000,4554.358887,4499.102539,5660.256348,4312.179688,4259.358887,0.000000,4.000000,79.000000,,,,0.000000,0.000000,0.000000,0.000000,0.000000,0.000000,0.000000,0.000000,0.000000,0.000000,0.000000,0.000000,0.000000,0.000000,0.000000,0.000000,,,,,,,,,,,,,,,,,,,,,,,,,,,,,,,,,,,,,,,,,,,,,,,,,,,,,,,,,,,,,,,,,,,,,,,,,,,,,,,,,,,,,,,,,,,,,,,,,,,,,,,,,,,,,,,,,,,,,,,,,,,,,,,,,
1738754183.061907,1738754183.061852,40.000000,0.000000,4315.897461,4346.666504,4249.487305,4297.563965,4347.051270,4357.820313,4359.615234,4545.128418,4535.256348,4555.641113,4496.794922,5663.974121,4308.205078,4255.897461,0.000000,4.000000,79.000000,,,,0.000000,0.000000,0.000000,0.000000,0.000000,0.000000,0.000000,0.000000,0.000000,0.000000,0.000000,0.000000,0.000000,0.000000,0.000000,0.000000,,,,,,,,,,,,,,,,,10.000000,0.000000,0.785282,-0.616333,-0.055542,0.019531,0.054694,-0.965938,0.230009,4.636796,-15.545566,22.298874,,,,,,,,,,,,,,,,,,,,,,,,,,,,,,,,,,,,,,,,,,,,,,,,,,,,,,,,,,,,,,,,,,,,,,,,,,,,,,,,,,,,,,,,,,,,,,,,,,,,,
1738754183.069715,1738754183.069760,41.000000,0.000000,4318.461426,4346.153809,4249.358887,4299.102539,4351.410156,4357.179688,4362.436035,4552.436035,4532.692383,4554.615234,4494.743652,5670.512695,4301.153809,4252.692383,0.000000,4.000000,79.000000,,,,0.000000,0.000000,0.000000,0.000000,0.000000,0.000000,0.000000,0.000000,0.000000,0.000000,0.000000,0.000000,0.000000,0.000000,0.000000,0.000000,,,,,,,,,,,,,,,,,,,,,,,,,,,,,,,,,,,,,,,,,,,,,,,,,,,,,,,,,,,,,,,,,,,,,,,,,,,,,,,,,,,,,,,,,,,,,,,,,,,,,,,,,,,,,,,,,,,,,,,,,,,,,,,,,
1738754183.077523,1738754183.077569,42.000000,0.000000,4319.487305,4349.487305,4250.769043,4295.000000,4352.948730,4358.974121,4362.436035,4549.102539,4535.256348,4554.743652,4497.948730,5660.256348,4311.794922,4258.077148,0.000000,4.000000,79.000000,,,,0.000000,0.000000,0.000000,0.000000,0.000000,0.000000,0.000000,0.000000,0.000000,0.000000,0.000000,0.000000,0.000000,0.000000,0.000000,0.000000,,,,,,,,,,,,,,,,,,,,,,,,,,,,,,,,,,,,,,,,,,,,,,,,,,,,,,,,,,,,,,,,,,,,,,,,,,,,,,,,,,,,,,,,,,,,,,,,,,,,,,,,,,,,,,,,,,,,,,,,,,,,,,,,,
1738754183.085331,1738754183.085477,43.000000,0.000000,4322.436035,4346.410156,4250.769043,4301.153809,4348.589844,4360.512695,4366.410156,4547.563965,4534.615234,4556.153809,4495.641113,5663.333496,4300.128418,4251.794922,0.000000,4.000000,79.000000,,,,0.000000,0.000000,0.000000,0.000000,0.000000,0.000000,0.000000,0.000000,0.000000,0.000000,0.000000,0.000000,0.000000,0.000000,0.000000,0.000000,,,,,,,,,,,,,,,,,,,,,,,,,,,,,,,,,,,,,,,,,,,,,,,,,,,,,,,,,,,,,,,,,,,,,,,,,,,,,,,,,,,,,,,,,,,,,,,,,,,,,,,,,,,,,,,,,,,,,,,,,,,,,,,,,
1738754183.093139,1738754183.093285,44.000000,0.000000,4319.615234,4345.641113,4245.897461,4299.230957,4345.897461,4359.230957,4359.487305,4542.692383,4535.512695,4558.077148,4494.743652,5663.077148,4306.025879,4255.384766,0.000000,4.000000,79.000000,,,,0.000000,0.000000,0.000000,0.000000,0.000000,0.000000,0.000000,0.000000,0.000000,0.000000,0.000000,0.000000,0.000000,0.000000,0.000000,0.000000,,,,,,,,,,,,,,,,,11.000000,0.000000,0.785319,-0.616272,-0.055664,0.019592,0.072763,-0.972775,0.233915,4.623116,-15.441009,22.235653,,,,,,,,,,,,,,,,,,,,,,,,,,,,,,,,,,,,,,,,,,,,,,,,,,,,,,,,,,,,,,,,,,,,,,,,,,,,,,,,,,,,,,,,,,,,,,,,,,,,,
1738754183.100948,1738754183.101193,45.000000,0.000000,4318.589844,4346.794922,4249.358887,4298.717773,4348.461426,4360.000000,4358.846191,4544.487305,4535.641113,4555.641113,4493.205078,5663.717773,4306.666504,4256.410156,0.000000,4.000000,79.000000,,,,0.000000,0.000000,0.000000,0.000000,0.000000,0.000000,0.000000,0.000000,0.000000,0.000000,0.000000,0.000000,0.000000,0.000000,0.000000,0.000000,,,,,,,,,,,,,,,,,,,,,,,,,,,,,,,,,,,,,,,,,,,,,,,,,,,,,,,,,,,,,,,,,,,,,,,,,,,,,,,,,,,,,,,,,,,,,,,,,,,,,,,,,,,,,,,,,,,,,,,,,,,,,,,,,
1738754183.108755,1738754183.109001,46.000000,0.000000,4321.282227,4345.769043,4253.333496,4303.333496,4348.717773,4359.102539,4363.846191,4550.128418,4535.128418,4554.871582,4492.563965,5668.589844,4299.615234,4250.512695,0.000000,4.000000,79.000000,,,,0.000000,0.000000,0.000000,0.000000,0.000000,0.000000,0.000000,0.000000,0.000000,0.000000,0.000000,0.000000,0.000000,0.000000,0.000000,0.000000,,,,,,,,,,,,,,,,,,,,,,,,,,,,,,,,,,,,,,,,,,,,,,,,,,,,,,,,,,,,0.021508,0.015561,0.008458,0.010588,0.018098,0.026003,0.031028,0.018208,0.017017,0.023425,0.016516,0.022480,0.015823,0.017007,0.024655,0.025947,0.006015,0.027495,0.018351,0.025896,0.037301,0.033541,0.018153,0.019165,0.023010,0.017852,0.062685,0.042579,0.042724,0.044082,0.030915,0.047284,0.016742,0.029787,0.018530,0.017416,0.014403,0.015952,0.021727,0.026724,0.022584,0.033844,0.026578,0.015251,0.035497,0.013853,0.035171,0.020579,0.017785,0.020193,0.006915,0.043043,0.024119,0.007959,0.012356,0.011914,0.035735,0.013409,0.020143,0.017378,0.018725,0.030294,0.026659,0.053034,0.036748,0.013795,0.031744,0.037285,0.020004,0.028617
1738754183.116564,1738754183.116909,47.000000,0.000000,4320.384766,4346.922852,4248.974121,4299.743652,4347.307617,4354.743652,4357.948730,4543.974121,4538.846191,4558.333496,4496.282227,5662.179688,4313.333496,4256.410156,0.000000,4.000000,79.000000,,,,0.000000,0.000000,0.000000,0.000000,0.000000,0.000000,0.000000,0.000000,0.000000,0.000000,0.000000,0.000000,0.000000,0.000000,0.000000,0.000000,,,,,,,,,,,,,,,,,,,,,,,,,,,,,,,,,,,,,,,,,,,,,,,,,,,,,,,,,,,,,,,,,,,,,,,,,,,,,,,,,,,,,,,,,,,,,,,,,,,,,,,,,,,,,,,,,,,,,,,,,,,,,,,,,
1738754183.124372,1738754183.124717,48.000000,0.000000,4320.641113,4343.974121,4250.384766,4299.487305,4347.307617,4355.000000,4360.897461,4546.153809,4535.256348,4556.282227,4494.230957,5667.307617,4302.051270,4254.102539,0.000000,4.000000,79.000000,,,,0.000000,0.000000,0.000000,0.000000,0.000000,0.000000,0.000000,0.000000,0.000000,0.000000,0.000000,0.000000,0.000000,0.000000,0.000000,0.000000,,,,,,,,,,,,,,,,,12.000000,0.000000,0.785277,-0.616333,-0.055603,0.019531,0.061043,-0.967403,0.230009,4.660805,-15.480241,22.212088,,,,,,,,,,,,,,,,,,,,,,,,,,,,,,,,,,,,,,,,,,,,,,,,,,,,,,,,,,,,,,,,,,,,,,,,,,,,,,,,,,,,,,,,,,,,,,,,,,,,,
1738754183.132180,1738754183.132625,49.000000,0.000000,4318.974121,4344.358887,4252.051270,4296.794922,4347.436035,4357.820313,4361.538574,4550.000000,4536.282227,4556.282227,4495.128418,5664.871582,4305.000000,4257.436035,0.000000,4.000000,79.000000,,,,0.000000,0.000000,0.000000,0.000000,0.000000,0.000000,0.000000,0.000000,0.000000,0.000000,0.000000,0.000000,0.000000,0.000000,0.000000,0.000000,,,,,,,,,,,,,,,,,,,,,,,,,,,,,,,,,,,,,,,,,,,,,,,,,,,,,,,,,,,,,,,,,,,,,,,,,,,,,,,,,,,,,,,,,,,,,,,,,,,,,,,,,,,,,,,,,,,,,,,,,,,,,,,,,
1738754183.139988,1738754183.140433,50.000000,0.000000,4322.307617,4346.410156,4250.897461,4299.230957,4349.358887,4358.589844,4361.538574,4549.615234,4538.846191,4558.205078,4496.794922,5659.102539,4312.692383,4258.974121,0.000000,4.000000,79.000000,,,,0.000000,0.000000,0.000000,0.000000,0.000000,0.000000,0.000000,0.000000,0.000000,0.000000,0.000000,0.000000,0.000000,0.000000,0.000000,0.000000,,,,,,,,,,,,,,,,,,,,,,,,,,,,,,,,,,,,,,,,,,,,,,,,,,,,,,,,,,,,,,,,,,,,,,,,,,,,,,,,,,,,,,,,,,,,,,,,,,,,,,,,,,,,,,,,,,,,,,,,,,,,,,,,,
1738754183.147796,1738754183.148141,51.000000,0.000000,4323.589844,4345.641113,4250.256348,4304.358887,4350.512695,4359.487305,4366.538574,4549.487305,4534.871582,4558.589844,4495.384766,5664.743652,4302.563965,4249.743652,0.000000,4.000000,79.000000,,,,0.000000,0.000000,0.000000,0.000000,0.000000,0.000000,0.000000,0.000000,0.000000,0.000000,0.000000,0.000000,0.000000,0.000000,0.000000,0.000000,,,,,,,,,,,,,,,,,,,,,,,,,,,,,,,,,,,,,,,,,,,,,,,,,,,,,,,,,,,,,,,,,,,,,,,,,,,,,,,,,,,,,,,,,,,,,,,,,,,,,,,,,,,,,,,,,,,,,,,,,,,,,,,,,
1738754183.155604,1738754183.155949,52.000000,0.000000,4316.025879,4347.820313,4249.487305,4297.307617,4349.487305,4361.922852,4363.205078,4544.615234,4538.077148,4560.384766,4497.179688,5662.307617,4312.179688,4255.897461,0.000000,4.000000,79.000000,,,,0.000000,0.000000,0.000000,0.000000,0.000000,0.000000,0.000000,0.000000,0.000000,0.000000,0.000000,0.000000,0.000000,0.000000,0.000000,0.000000,,,,,,,,,,,,,,,,,13.000000,0.000000,0.785271,-0.616333,-0.055664,0.019592,0.071786,-0.971798,0.238310,4.528058,-15.382217,22.274214,,,,,,,,,,,,,,,,,,,,,,,,,,,,,,,,,,,,,,,,,,,,,,,,,,,,,,,,,,,,,,,,,,,,,,,,,,,,,,,,,,,,,,,,,,,,,,,,,,,,,
1738754183.163412,1738754183.163657,53.000000,0.000000,4317.948730,4346.922852,4251.666504,4301.025879,4351.538574,4362.436035,4366.282227,4548.077148,4535.897461,4558.077148,4494.230957,5666.922852,4305.000000,4253.333496,0.000000,4.000000,79.000000,,,,0.000000,0.000000,0.000000,0.000000,0.000000,0.000000,0.000000,0.000000,0.000000,0.000000,0.000000,0.000000,0.000000,0.000000,0.000000,0.000000,,,,,,,,,,,,,,,,,,,,,,,,,,,,,,,,,,,,,,,,,,,,,,,,,,,,,,,,,,,,,,,,,,,,,,,,,,,,,,,,,,,,,,,,,,,,,,,,,,,,,,,,,,,,,,,,,,,,,,,,,,,,,,,,,
1738754183.171220,1738754183.171465,54.000000,0.000000,4319.487305,4346.666504,4251.025879,4303.205078,4352.563965,4358.974121,4362.179688,4547.179688,4532.307617,4556.282227,4493.974121,5663.333496,4305.769043,4252.179688,0.000000,4.000000,79.000000,,,,0.000000,0.000000,0.000000,0.000000,0.000000,0.000000,0.000000,0.000000,0.000000,0.000000,0.000000,0.000000,0.000000,0.000000,0.000000,0.000000,,,,,,,,,,,,,,,,,,,,,,,,,,,,,,,,,,,,,,,,,,,,,,,,,,,,,,,,,,,,,,,,,,,,,,,,,,,,,,,,,,,,,,,,,,,,,,,,,,,,,,,,,,,,,,,,,,,,,,,,,,,,,,,,,
1738754183.179028,1738754183.179173,55.000000,0.000000,4315.256348,4346.538574,4251.282227,4296.282227,4348.333496,4356.794922,4356.794922,4543.846191,4537.051270,4558.717773,4499.871582,5654.743652,4312.179688,4258.846191,0.000000,4.000000,79.000000,,,,0.000000,0.000000,0.000000,0.000000,0.000000,0.000000,0.000000,0.000000,0.000000,0.000000,0.000000,0.000000,0.000000,0.000000,0.000000,0.000000,,,,,,,,,,,,,,,,,,,,,,,,,,,,,,,,,,,,,,,,,,,,,,,,,,,,,,,,,,,,,,,,,,,,,,,,,,,,,,,,,,,,,,,,,,,,,,,,,,,,,,,,,,,,,,,,,,,,,,,,,,,,,,,,,
1738754183.186837,1738754183.186981,56.000000,0.000000,4317.820313,4345.641113,4255.256348,4299.871582,4348.077148,4358.205078,4364.487305,4547.692383,4537.948730,4557.307617,4498.974121,5663.589844,4297.948730,4254.102539,0.000000,4.000000,79.000000,,,,0.000000,0.000000,0.000000,0.000000,0.000000,0.000000,0.000000,0.000000,0.000000,0.000000,0.000000,0.000000,0.000000,0.000000,0.000000,0.000000,,,,,,,,,,,,,,,,,14.000000,0.000000,0.785267,-0.616333,-0.055725,0.019592,0.074228,-0.979612,0.240264,4.741919,-15.377329,22.296791,,,,,,,,,,,,,,,,,,,,,,,,,,,,,,,,,,,,,,,,,,,,,,,,,,,,,,,,,,,,,,,,,,,,,,,,,,,,,,,,,,,,,,,,,,,,,,,,,,,,,
1738754183.194645,1738754183.194689,57.000000,0.000000,4321.666504,4350.512695,4252.051270,4300.128418,4352.307617,4359.871582,4360.128418,4545.384766,4537.563965,4555.128418,4496.153809,5662.051270,4309.487305,4257.948730,0.000000,4.000000,79.000000,,,,0.000000,0.000000,0.000000,0.000000,0.000000,0.000000,0.000000,0.000000,0.000000,0.000000,0.000000,0.000000,0.000000,0.000000,0.000000,0.000000,,,,,,,,,,,,,,,,,,,,,,,,,,,,,,,,,,,,,,,,,,,,,,,,,,,,,,,,,,,,,,,,,,,,,,,,,,,,,,,,,,,,,,,,,,,,,,,,,,,,,,,,,,,,,,,,,,,,,,,,,,,,,,,,,
1738754183.202453,1738754183.202497,58.000000,0.000000,4323.717773,4349.230957,4250.256348,4300.641113,4351.025879,4357.948730,4359.743652,4547.948730,4535.897461,4555.256348,4494.487305,5662.563965,4307.051270,4255.256348,0.000000,4.000000,79.000000,,,,0.000000,0.000000,0.000000,0.000000,0.000000,0.000000,0.000000,0.000000,0.000000,0.000000,0.000000,0.000000,0.000000,0.000000,0.000000,0.000000,,,,,,,,,,,,,,,,,,,,,,,,,,,,,,,,,,,,,,,,,,,,,,,,,,,,,,,,,,,,,,,,,,,,,,,,,,,,,,,,,,,,,,,,,,,,,,,,,,,,,,,,,,,,,,,,,,,,,,,,,,,,,,,,,
1738754183.210261,1738754183.210205,59.000000,0.000000,4320.000000,4343.974121,4253.461426,4303.077148,4347.179688,4354.743652,4360.641113,4549.102539,4537.179688,4555.897461,4496.794922,5666.282227,4302.307617,4251.794922,0.000000,4.000000,79.000000,,,,0.000000,0.000000,0.000000,0.000000,0.000000,0.000000,0.000000,0.000000,0.000000,0.000000,0.000000,0.000000,0.000000,0.000000,0.000000,0.000000,,,,,,,,,,,,,,,,,,,,,,,,,,,,,,,,,,,,,,,,,,,,,,,,,,,,,,,,,,,,,,,,,,,,,,,,,,,,,,,,,,,,,,,,,,,,,,,,,,,,,,,,,,,,,,,,,,,,,,,,,,,,,,,,,
1738754183.218069,1738754183.218013,60.000000,0.000000,4317.563965,4345.128418,4252.436035,4301.794922,4348.461426,4357.820313,4356.538574,4544.230957,4538.077148,4556.666504,4496.922852,5664.871582,4313.846191,4256.922852,0.000000,4.000000,79.000000,,,,0.000000,0.000000,0.000000,0.000000,0.000000,0.000000,0.000000,0.000000,0.000000,0.000000,0.000000,0.000000,0.000000,0.000000,0.000000,0.000000,,,,,,,,,,,,,,,,,15.000000,0.000000,0.785321,-0.616272,-0.055664,0.019531,0.061531,-0.970333,0.238799,4.701060,-15.489595,22.283779,,,,,,,,,,,,,,,,,,,,,,,,,,,,,,,,,,,,,,,,,,,,,,,,,,,,,,,,,,,,,,,,,,,,,,,,,,,,,,,,,,,,,,,,,,,,,,,,,,,,,
1738754183.225877,1738754183.225721,61.000000,0.000000,4319.871582,4345.897461,4250.000000,4303.717773,4350.769043,4360.000000,4363.205078,4546.410156,4532.948730,4555.641113,4491.922852,5670.128418,4301.410156,4253.205078,0.000000,4.000000,79.000000,,,,0.000000,0.000000,0.000000,0.000000,0.000000,0.000000,0.000000,0.000000,0.000000,0.000000,0.000000,0.000000,0.000000,0.000000,0.000000,0.000000,,,,,,,,,,,,,,,,,,,,,,,,,,,,,,,,,,,,,,,,,,,,,,,,,,,,,,,,,,,,,,,,,,,,,,,,,,,,,,,,,,,,,,,,,,,,,,,,,,,,,,,,,,,,,,,,,,,,,,,,,,,,,,,,,
1738754183.233685,1738754183.233529,62.000000,0.000000,4316.666504,4346.922852,4250.384766,4297.948730,4348.077148,4355.897461,4360.256348,4542.948730,4536.410156,4556.153809,4494.871582,5659.615234,4307.563965,4254.230957,0.000000,4.000000,79.000000,,,,0.000000,0.000000,0.000000,0.000000,0.000000,0.000000,0.000000,0.000000,0.000000,0.000000,0.000000,0.000000,0.000000,0.000000,0.000000,0.000000,,,,,,,,,,,,,,,,,,,,,,,,,,,,,,,,,,,,,,,,,,,,,,,,,,,,,,,,,,,,0.019911,0.012770,0.007959,0.009807,0.017962,0.021190,0.024458,0.019804,0.017847,0.023172,0.016514,0.023676,0.013036,0.016690,0.024063,0.024497,0.007128,0.034560,0.020329,0.026571,0.035204,0.034527,0.019184,0.020444,0.022949,0.019161,0.069954,0.044225,0.039732,0.041736,0.026117,0.050294,0.018322,0.033256,0.020407,0.018033,0.016164,0.019705,0.023307,0.025799,0.020098,0.033534,0.025318,0.017120,0.030700,0.012472,0.025668,0.018813,0.019479,0.020991,0.009022,0.041153,0.021866,0.008562,0.013020,0.011959,0.035720,0.012506,0.020976,0.016210,0.018610,0.030867,0.028953,0.045043,0.037824,0.011870,0.032591,0.036143,0.020193,0.031249
1738754183.241493,1738754183.241237,63.000000,0.000000,4318.717773,4345.641113,4252.436035,4298.461426,4348.333496,4358.077148,4360.512695,4543.333496,4538.461426,4556.282227,4494.743652,5658.333496,4307.948730,4250.769043,0.000000,4.000000,79.000000,,,,0.000000,0.000000,0.000000,0.000000,0.000000,0.000000,0.000000,0.000000,0.000000,0.000000,0.000000,0.000000,0.000000,0.000000,0.000000,0.000000,,,,,,,,,,,,,,,,,,,,,,,,,,,,,,,,,,,,,,,,,,,,,,,,,,,,,,,,,,,,,,,,,,,,,,,,,,,,,,,,,,,,,,,,,,,,,,,,,,,,,,,,,,,,,,,,,,,,,,,,,,,,,,,,,
1738754183.249301,1738754183.249145,64.000000,0.000000,4323.589844,4347.948730,4250.128418,4301.666504,4352.692383,4364.230957,4366.794922,4547.692383,4535.256348,4554.871582,4494.487305,5667.051270,4300.384766,4254.102539,0.000000,4.000000,79.000000,,,,0.000000,0.000000,0.000000,0.000000,0.000000,0.000000,0.000000,0.000000,0.000000,0.000000,0.000000,0.000000,0.000000,0.000000,0.000000,0.000000,,,,,,,,,,,,,,,,,16.000000,0.000000,0.785318,-0.616272,-0.055725,0.019470,0.059089,-0.976682,0.237822,4.597621,-15.523970,22.305401,,,,,,,,,,,,,,,,,,,,,,,,,,,,,,,,,,,,,,,,,,,,,,,,,,,,,,,,,,,,,,,,,,,,,,,,,,,,,,,,,,,,,,,,,,,,,,,,,,,,,
1738754183.257110,1738754183.256953,65.000000,0.000000,4320.000000,4351.922852,4247.948730,4298.077148,4352.307617,4359.615234,4363.974121,4543.974121,4535.897461,4555.128418,4499.487305,5660.384766,4311.025879,4263.077148,0.000000,4.000000,79.000000,,,,0.000000,0.000000,0.000000,0.000000,0.000000,0.000000,0.000000,0.000000,0.000000,0.000000,0.000000,0.000000,0.000000,0.000000,0.000000,0.000000,,,,,,,,,,,,,,,,,,,,,,,,,,,,,,,,,,,,,,,,,,,,,,,,,,,,,,,,,,,,,,,,,,,,,,,,,,,,,,,,,,,,,,,,,,,,,,,,,,,,,,,,,,,,,,,,,,,,,,,,,,,,,,,,,
1738754183.264917,1738754183.264861,66.000000,0.000000,4318.717773,4345.256348,4252.820313,4303.589844,4349.358887,4352.436035,4364.615234,4548.205078,4533.717773,4552.820313,4494.487305,5663.717773,4298.461426,4249.743652,0.000000,4.000000,79.000000,,,,0.000000,0.000000,0.000000,0.000000,0.000000,0.000000,0.000000,0.000000,0.000000,0.000000,0.000000,0.000000,0.000000,0.000000,0.000000,0.000000,,,,,,,,,,,,,,,,,,,,,,,,,,,,,,,,,,,,,,,,,,,,,,,,,,,,,,,,,,,,,,,,,,,,,,,,,,,,,,,,,,,,,,,,,,,,,,,,,,,,,,,,,,,,,,,,,,,,,,,,,,,,,,,,,
1738754183.272726,1738754183.272670,67.000000,0.000000,4318.974121,4345.256348,4252.820313,4302.179688,4348.205078,4355.128418,4360.512695,4546.922852,4537.051270,4555.128418,4493.333496,5661.666504,4305.128418,4251.282227,0.000000,4.000000,79.000000,,,,0.000000,0.000000,0.000000,0.000000,0.000000,0.000000,0.000000,0.000000,0.000000,0.000000,0.000000,0.000000,0.000000,0.000000,0.000000,0.000000,,,,,,,,,,,,,,,,,,,,,,,,,,,,,,,,,,,,,,,,,,,,,,,,,,,,,,,,,,,,,,,,,,,,,,,,,,,,,,,,,,,,,,,,,,,,,,,,,,,,,,,,,,,,,,,,,,,,,,,,,,,,,,,,,
1738754183.280534,1738754183.280578,68.000000,0.000000,4319.102539,4349.871582,4252.436035,4299.615234,4350.256348,4361.282227,4362.563965,4542.820313,4537.179688,4558.589844,4498.333496,5660.897461,4311.282227,4259.102539,0.000000,4.000000,79.000000,,,,0.000000,0.000000,0.000000,0.000000,0.000000,0.000000,0.000000,0.000000,0.000000,0.000000,0.000000,0.000000,0.000000,0.000000,0.000000,0.000000,,,,,,,,,,,,,,,,,17.000000,0.000000,0.785324,-0.616272,-0.055664,0.019409,0.067391,-0.974728,0.241240,4.737859,-15.388239,22.208195,,,,,,,,,,,,,,,,,,,,,,,,,,,,,,,,,,,,,,,,,,,,,,,,,,,,,,,,,,,,,,,,,,,,,,,,,,,,,,,,,,,,,,,,,,,,,,,,,,,,,
1738754183.288342,1738754183.288386,69.000000,0.000000,4318.846191,4347.436035,4254.615234,4305.128418,4351.666504,4358.461426,4365.384766,4548.077148,4530.897461,4556.153809,4497.692383,5667.692383,4299.871582,4252.692383,0.000000,4.000000,79.000000,,,,0.000000,0.000000,0.000000,0.000000,0.000000,0.000000,0.000000,0.000000,0.000000,0.000000,0.000000,0.000000,0.000000,0.000000,0.000000,0.000000,,,,,,,,,,,,,,,,,,,,,,,,,,,,,,,,,,,,,,,,,,,,,,,,,,,,,,,,,,,,,,,,,,,,,,,,,,,,,,,,,,,,,,,,,,,,,,,,,,,,,,,,,,,,,,,,,,,,,,,,,,,,,,,,,
1738754183.296150,1738754183.296294,70.000000,0.000000,4317.051270,4346.794922,4251.153809,4302.436035,4349.102539,4351.410156,4356.025879,4547.563965,4534.102539,4554.102539,4496.538574,5661.922852,4313.205078,4255.512695,0.000000,4.000000,79.000000,,,,0.000000,0.000000,0.000000,0.000000,0.000000,0.000000,0.000000,0.000000,0.000000,0.000000,0.000000,0.000000,0.000000,0.000000,0.000000,0.000000,,,,,,,,,,,,,,,,,,,,,,,,,,,,,,,,,,,,,,,,,,,,,,,,,,,,,,,,,,,,,,,,,,,,,,,,,,,,,,,,,,,,,,,,,,,,,,,,,,,,,,,,,,,,,,,,,,,,,,,,,,,,,,,,,
1738754183.303958,1738754183.304102,71.000000,0.000000,4321.025879,4347.307617,4249.871582,4302.692383,4347.179688,4355.897461,4361.922852,4547.948730,4535.641113,4553.717773,4493.846191,5666.282227,4306.410156,4252.179688,0.000000,4.000000,79.000000,,,,0.000000,0.000000,0.000000,0.000000,0.000000,0.000000,0.000000,0.000000,0.000000,0.000000,0.000000,0.000000,0.000000,0.000000,0.000000,0.000000,,,,,,,,,,,,,,,,,,,,,,,,,,,,,,,,,,,,,,,,,,,,,,,,,,,,,,,,,,,,,,,,,,,,,,,,,,,,,,,,,,,,,,,,,,,,,,,,,,,,,,,,,,,,,,,,,,,,,,,,,,,,,,,,,
1738754183.311766,1738754183.312010,72.000000,0.000000,4319.743652,4348.333496,4252.436035,4301.153809,4348.461426,4361.282227,4364.487305,4544.230957,4536.794922,4556.666504,4496.922852,5665.384766,4305.897461,4252.692383,0.000000,4.000000,79.000000,,,,0.000000,0.000000,0.000000,0.000000,0.000000,0.000000,0.000000,0.000000,0.000000,0.000000,0.000000,0.000000,0.000000,0.000000,0.000000,0.000000,,,,,,,,,,,,,,,,,18.000000,0.000000,0.785324,-0.616272,-0.055664,0.019409,0.066903,-0.978147,0.231474,4.664073,-15.232749,22.204042,,,,,,,,,,,,,,,,,,,,,,,,,,,,,,,,,,,,,,,,,,,,,,,,,,,,,,,,,,,,,,,,,,,,,,,,,,,,,,,,,,,,,,,,,,,,,,,,,,,,,
1738754183.319574,1738754183.319818,73.000000,0.000000,4317.051270,4348.205078,4253.589844,4298.333496,4349.358887,4357.307617,4359.487305,4541.025879,4537.563965,4555.641113,4499.487305,5660.512695,4312.563965,4253.717773,0.000000,4.000000,79.000000,,,,0.000000,0.000000,0.000000,0.000000,0.000000,0.000000,0.000000,0.000000,0.000000,0.000000,0.000000,0.000000,0.000000,0.000000,0.000000,0.000000,,,,,,,,,,,,,,,,,,,,,,,,,,,,,,,,,,,,,,,,,,,,,,,,,,,,,,,,,,,,,,,,,,,,,,,,,,,,,,,,,,,,,,,,,,,,,,,,,,,,,,,,,,,,,,,,,,,,,,,,,,,,,,,,,
1738754183.327382,1738754183.327626,74.000000,0.000000,4321.666504,4346.410156,4251.794922,4299.871582,4350.128418,4355.641113,4363.205078,4547.692383,4533.589844,4552.820313,4495.641113,5665.769043,4302.692383,4247.948730,0.000000,4.000000,79.000000,,,,0.000000,0.000000,0.000000,0.000000,0.000000,0.000000,0.000000,0.000000,0.000000,0.000000,0.000000,0.000000,0.000000,0.000000,0.000000,0.000000,,,,,,,,,,,,,,,,,,,,,,,,,,,,,,,,,,,,,,,,,,,,,,,,,,,,,,,,,,,,,,,,,,,,,,,,,,,,,,,,,,,,,,,,,,,,,,,,,,,,,,,,,,,,,,,,,,,,,,,,,,,,,,,,,
1738754183.335190,1738754183.335434,75.000000,0.000000,4319.743652,4348.846191,4249.230957,4298.717773,4351.922852,4357.051270,4360.384766,4546.410156,4534.743652,4558.717773,4497.820313,5660.256348,4313.846191,4255.769043,0.000000,4.000000,79.000000,,,,0.000000,0.000000,0.000000,0.000000,0.000000,0.000000,0.000000,0.000000,0.000000,0.000000,0.000000,0.000000,0.000000,0.000000,0.000000,0.000000,,,,,,,,,,,,,,,,,,,,,,,,,,,,,,,,,,,,,,,,,,,,,,,,,,,,,,,,,,,,,,,,,,,,,,,,,,,,,,,,,,,,,,,,,,,,,,,,,,,,,,,,,,,,,,,,,,,,,,,,,,,,,,,,,
1738754183.342999,1738754183.343142,76.000000,0.000000,4318.333496,4347.948730,4251.282227,4303.461426,4350.897461,4355.641113,4362.948730,4547.051270,4534.871582,4559.743652,4496.025879,5665.256348,4305.641113,4252.563965,0.000000,4.000000,79.000000,,,,0.000000,0.000000,0.000000,0.000000,0.000000,0.000000,0.000000,0.000000,0.000000,0.000000,0.000000,0.000000,0.000000,0.000000,0.000000,0.000000,,,,,,,,,,,,,,,,,19.000000,0.000000,0.785231,-0.616394,-0.055603,0.019470,0.064461,-0.977170,0.239287,4.730999,-15.159473,22.150305,,,,,,,,,,,,,,,,,,,,,,,,,,,,,,,,,,,,,,,,,,,,,,,,,,,,,,,,,,,,,,,,,,,,,,,,,,,,,,,,,,,,,,,,,,,,,,,,,,,,,
1738754183.350807,1738754183.350950,77.000000,0.000000,4320.641113,4346.922852,4252.436035,4300.256348,4346.153809,4356.025879,4364.230957,4547.563965,4537.307617,4555.128418,4492.948730,5667.563965,4302.436035,4249.871582,0.000000,4.000000,79.000000,,,,0.000000,0.000000,0.000000,0.000000,0.000000,0.000000,0.000000,0.000000,0.000000,0.000000,0.000000,0.000000,0.000000,0.000000,0.000000,0.000000,,,,,,,,,,,,,,,,,,,,,,,,,,,,,,,,,,,,,,,,,,,,,,,,,,,,,,,,,,,,,,,,,,,,,,,,,,,,,,,,,,,,,,,,,,,,,,,,,,,,,,,,,,,,,,,,,,,,,,,,,,,,,,,,,
1738754183.358615,1738754183.358658,78.000000,0.000000,4320.256348,4347.436035,4253.589844,4293.974121,4346.538574,4360.384766,4363.589844,4543.461426,4538.461426,4555.769043,4495.256348,5660.641113,4311.666504,4255.128418,0.000000,4.000000,79.000000,,,,0.000000,0.000000,0.000000,0.000000,0.000000,0.000000,0.000000,0.000000,0.000000,0.000000,0.000000,0.000000,0.000000,0.000000,0.000000,0.000000,,,,,,,,,,,,,,,,,,,,,,,,,,,,,,,,,,,,,,,,,,,,,,,,,,,,,,,,,,,,0.018931,0.012290,0.008044,0.009378,0.018141,0.019099,0.018309,0.022328,0.019746,0.022244,0.016603,0.025213,0.009614,0.015957,0.023845,0.022979,0.009863,0.041196,0.021847,0.027350,0.032114,0.033914,0.021569,0.020813,0.022775,0.019846,0.071208,0.043698,0.035398,0.038988,0.021545,0.047695,0.022435,0.038475,0.026101,0.018207,0.018909,0.023904,0.024580,0.025037,0.020780,0.030111,0.023221,0.019310,0.026963,0.011027,0.017962,0.016278,0.020733,0.021376,0.011607,0.037334,0.019858,0.009119,0.013362,0.012822,0.033598,0.010584,0.022026,0.016043,0.019925,0.030757,0.034562,0.039228,0.039780,0.012269,0.031341,0.033672,0.020776,0.034223
1738754183.366423,1738754183.366566,79.000000,0.000000,4319.871582,4345.769043,4253.717773,4301.922852,4350.256348,4358.974121,4368.205078,4546.666504,4531.922852,4556.794922,4496.282227,5668.077148,4298.717773,4249.871582,0.000000,4.000000,79.000000,,,,0.000000,0.000000,0.000000,0.000000,0.000000,0.000000,0.000000,0.000000,0.000000,0.000000,0.000000,0.000000,0.000000,0.000000,0.000000,0.000000,,,,,,,,,,,,,,,,,,,,,,,,,,,,,,,,,,,,,,,,,,,,,,,,,,,,,,,,,,,,,,,,,,,,,,,,,,,,,,,,,,,,,,,,,,,,,,,,,,,,,,,,,,,,,,,,,,,,,,,,,,,,,,,,,
1738754183.374231,1738754183.374375,80.000000,0.000000,4317.948730,4348.717773,4249.102539,4302.563965,4349.487305,4351.666504,4359.743652,4544.615234,4534.487305,4556.922852,4499.871582,5664.487305,4310.897461,4253.333496,0.000000,4.000000,79.000000,,,,0.000000,0.000000,0.000000,0.000000,0.000000,0.000000,0.000000,0.000000,0.000000,0.000000,0.000000,0.000000,0.000000,0.000000,0.000000,0.000000,,,,,,,,,,,,,,,,,20.000000,0.000000,0.785270,-0.616333,-0.055725,0.019470,0.065926,-0.968868,0.234404,4.591232,-15.176860,22.101940,,,,,,,,,,,,,,,,,,,,,,,,,,,,,,,,,,,,,,,,,,,,,,,,,,,,,,,,,,,,,,,,,,,,,,,,,,,,,,,,,,,,,,,,,,,,,,,,,,,,,
1738754183.382039,1738754183.382283,81.000000,0.000000,4317.436035,4347.436035,4252.436035,4303.077148,4349.102539,4353.589844,4361.538574,4546.922852,4535.256348,4557.948730,4497.692383,5663.717773,4307.820313,4252.179688,0.000000,4.000000,79.000000,,,,0.000000,0.000000,0.000000,0.000000,0.000000,0.000000,0.000000,0.000000,0.000000,0.000000,0.000000,0.000000,0.000000,0.000000,0.000000,0.000000,,,,,,,,,,,,,,,,,,,,,,,,,,,,,,,,,,,,,,,,,,,,,,,,,,,,,,,,,,,,,,,,,,,,,,,,,,,,,,,,,,,,,,,,,,,,,,,,,,,,,,,,,,,,,,,,,,,,,,,,,,,,,,,,,
1738754183.389847,1738754183.390091,82.000000,0.000000,4315.512695,4345.897461,4255.769043,4301.666504,4350.000000,4360.512695,4369.358887,4549.230957,4531.922852,4559.358887,4497.436035,5667.692383,4297.820313,4250.897461,0.000000,4.000000,79.000000,,,,0.000000,0.000000,0.000000,0.000000,0.000000,0.000000,0.000000,0.000000,0.000000,0.000000,0.000000,0.000000,0.000000,0.000000,0.000000,0.000000,,,,,,,,,,,,,,,,,,,,,,,,,,,,,,,,,,,,,,,,,,,,,,,,,,,,,,,,,,,,,,,,,,,,,,,,,,,,,,,,,,,,,,,,,,,,,,,,,,,,,,,,,,,,,,,,,,,,,,,,,,,,,,,,,
1738754183.397655,1738754183.397999,83.000000,0.000000,4315.769043,4350.512695,4250.128418,4296.794922,4350.256348,4359.487305,4362.692383,4544.230957,4534.230957,4557.307617,4501.282227,5659.358887,4313.077148,4257.563965,0.000000,4.000000,79.000000,,,,0.000000,0.000000,0.000000,0.000000,0.000000,0.000000,0.000000,0.000000,0.000000,0.000000,0.000000,0.000000,0.000000,0.000000,0.000000,0.000000,,,,,,,,,,,,,,,,,,,,,,,,,,,,,,,,,,,,,,,,,,,,,,,,,,,,,,,,,,,,,,,,,,,,,,,,,,,,,,,,,,,,,,,,,,,,,,,,,,,,,,,,,,,,,,,,,,,,,,,,,,,,,,,,,
1738754183.405463,1738754183.405808,84.000000,0.000000,4321.794922,4347.436035,4248.846191,4303.589844,4350.256348,4355.769043,4361.538574,4551.025879,4532.179688,4553.717773,4495.769043,5662.051270,4304.743652,4252.820313,0.000000,4.000000,79.000000,,,,0.000000,0.000000,0.000000,0.000000,0.000000,0.000000,0.000000,0.000000,0.000000,0.000000,0.000000,0.000000,0.000000,0.000000,0.000000,0.000000,,,,,,,,,,,,,,,,,21.000000,0.000000,0.785219,-0.616394,-0.055786,0.019409,0.064461,-0.975705,0.237334,4.698776,-15.075841,21.941746,,,,,,,,,,,,,,,,,,,,,,,,,,,,,,,,,,,,,,,,,,,,,,,,,,,,,,,,,,,,,,,,,,,,,,,,,,,,,,,,,,,,,,,,,,,,,,,,,,,,,
1738754183.413272,1738754183.413616,85.000000,0.000000,4320.512695,4347.563965,4252.563965,4299.487305,4349.230957,4355.641113,4361.410156,4549.487305,4534.615234,4557.179688,4494.487305,5660.256348,4307.179688,4256.025879,0.000000,4.000000,79.000000,,,,0.000000,0.000000,0.000000,0.000000,0.000000,0.000000,0.000000,0.000000,0.000000,0.000000,0.000000,0.000000,0.000000,0.000000,0.000000,0.000000,,,,,,,,,,,,,,,,,,,,,,,,,,,,,,,,,,,,,,,,,,,,,,,,,,,,,,,,,,,,,,,,,,,,,,,,,,,,,,,,,,,,,,,,,,,,,,,,,,,,,,,,,,,,,,,,,,,,,,,,,,,,,,,,,
1738754183.421080,1738754183.421324,86.000000,0.000000,4319.358887,4349.487305,4254.487305,4294.358887,4348.461426,4358.717773,4365.512695,4544.358887,4536.794922,4559.102539,4494.487305,5660.256348,4305.641113,4256.282227,0.000000,4.000000,79.000000,,,,0.000000,0.000000,0.000000,0.000000,0.000000,0.000000,0.000000,0.000000,0.000000,0.000000,0.000000,0.000000,0.000000,0.000000,0.000000,0.000000,,,,,,,,,,,,,,,,,,,,,,,,,,,,,,,,,,,,,,,,,,,,,,,,,,,,,,,,,,,,,,,,,,,,,,,,,,,,,,,,,,,,,,,,,,,,,,,,,,,,,,,,,,,,,,,,,,,,,,,,,,,,,,,,,
1738754183.428888,1738754183.429232,87.000000,0.000000,4321.025879,4345.769043,4251.922852,4298.589844,4349.743652,4360.000000,4363.974121,4546.794922,4534.615234,4555.128418,4494.358887,5665.897461,4297.692383,4251.025879,0.000000,4.000000,79.000000,,,,0.000000,0.000000,0.000000,0.000000,0.000000,0.000000,0.000000,0.000000,0.000000,0.000000,0.000000,0.000000,0.000000,0.000000,0.000000,0.000000,,,,,,,,,,,,,,,,,,,,,,,,,,,,,,,,,,,,,,,,,,,,,,,,,,,,,,,,,,,,,,,,,,,,,,,,,,,,,,,,,,,,,,,,,,,,,,,,,,,,,,,,,,,,,,,,,,,,,,,,,,,,,,,,,
1738754183.436696,1738754183.437040,88.000000,0.000000,4318.589844,4347.307617,4250.641113,4297.692383,4351.282227,4357.179688,4355.384766,4544.102539,4538.077148,4555.256348,4498.461426,5658.333496,4312.563965,4256.666504,0.000000,4.000000,79.000000,,,,0.000000,0.000000,0.000000,0.000000,0.000000,0.000000,0.000000,0.000000,0.000000,0.000000,0.000000,0.000000,0.000000,0.000000,0.000000,0.000000,,,,,,,,,,,,,,,,,22.000000,0.000000,0.785272,-0.616333,-0.055725,0.019409,0.060554,-0.972775,0.233915,4.728898,-15.151589,22.030905,,,,,,,,,,,,,,,,,,,,,,,,,,,,,,,,,,,,,,,,,,,,,,,,,,,,,,,,,,,,,,,,,,,,,,,,,,,,,,,,,,,,,,,,,,,,,,,,,,,,,
1738754183.444504,1738754183.444948,89.000000,0.000000,4319.358887,4347.179688,4254.102539,4304.102539,4349.615234,4355.641113,4362.307617,4546.410156,4535.512695,4553.846191,4494.230957,5661.794922,4304.487305,4252.948730,0.000000,4.000000,79.000000,,,,0.000000,0.000000,0.000000,0.000000,0.000000,0.000000,0.000000,0.000000,0.000000,0.000000,0.000000,0.000000,0.000000,0.000000,0.000000,0.000000,,,,,,,,,,,,,,,,,,,,,,,,,,,,,,,,,,,,,,,,,,,,,,,,,,,,,,,,,,,,,,,,,,,,,,,,,,,,,,,,,,,,,,,,,,,,,,,,,,,,,,,,,,,,,,,,,,,,,,,,,,,,,,,,,
1738754183.452312,1738754183.452756,90.000000,0.000000,4319.615234,4343.846191,4252.948730,4305.384766,4347.948730,4356.282227,4362.820313,4544.871582,4535.512695,4554.230957,4495.128418,5662.179688,4306.666504,4255.512695,0.000000,4.000000,79.000000,,,,0.000000,0.000000,0.000000,0.000000,0.000000,0.000000,0.000000,0.000000,0.000000,0.000000,0.000000,0.000000,0.000000,0.000000,0.000000,0.000000,,,,,,,,,,,,,,,,,,,,,,,,,,,,,,,,,,,,,,,,,,,,,,,,,,,,,,,,,,,,,,,,,,,,,,,,,,,,,,,,,,,,,,,,,,,,,,,,,,,,,,,,,,,,,,,,,,,,,,,,,,,,,,,,,
1738754183.460120,1738754183.460665,91.000000,0.000000,4319.358887,4343.974121,4250.128418,4300.897461,4351.153809,4357.692383,4359.871582,4545.512695,4537.436035,4556.538574,4498.717773,5660.128418,4312.307617,4256.666504,0.000000,4.000000,79.000000,,,,0.000000,0.000000,0.000000,0.000000,0.000000,0.000000,0.000000,0.000000,0.000000,0.000000,0.000000,0.000000,0.000000,0.000000,0.000000,0.000000,,,,,,,,,,,,,,,,,,,,,,,,,,,,,,,,,,,,,,,,,,,,,,,,,,,,,,,,,,,,,,,,,,,,,,,,,,,,,,,,,,,,,,,,,,,,,,,,,,,,,,,,,,,,,,,,,,,,,,,,,,,,,,,,,
1738754183.467928,1738754183.468473,92.000000,0.000000,4321.153809,4345.769043,4250.641113,4302.051270,4351.794922,4357.179688,4363.205078,4549.743652,4532.307617,4556.538574,4494.102539,5665.256348,4302.051270,4249.358887,0.000000,4.000000,79.000000,,,,0.000000,0.000000,0.000000,0.000000,0.000000,0.000000,0.000000,0.000000,0.000000,0.000000,0.000000,0.000000,0.000000,0.000000,0.000000,0.000000,,,,,,,,,,,,,,,,,23.000000,0.000000,0.785272,-0.616333,-0.055725,0.019409,0.072763,-0.972775,0.245147,4.756009,-15.119764,21.911148,,,,,,,,,,,,,,,,,,,,,,,,,,,,,,,,,,,,,,,,,,,,,,,,,,,,,,,,,,,,,,,,,,,,,,,,,,,,,,,,,,,,,,,,,,,,,,,,,,,,,
1738754183.475736,1738754183.476381,93.000000,0.000000,4318.589844,4348.461426,4249.871582,4299.230957,4347.563965,4357.051270,4361.282227,4544.102539,4535.128418,4559.102539,4493.846191,5659.358887,4311.666504,4257.563965,0.000000,4.000000,79.000000,,,,0.000000,0.000000,0.000000,0.000000,0.000000,0.000000,0.000000,0.000000,0.000000,0.000000,0.000000,0.000000,0.000000,0.000000,0.000000,0.000000,,,,,,,,,,,,,,,,,,,,,,,,,,,,,,,,,,,,,,,,,,,,,,,,,,,,,,,,,,,,,,,,,,,,,,,,,,,,,,,,,,,,,,,,,,,,,,,,,,,,,,,,,,,,,,,,,,,,,,,,,,,,,,,,,
1738754183.483544,1738754183.484189,94.000000,0.000000,4318.717773,4345.512695,4250.000000,4302.436035,4348.077148,4359.230957,4364.615234,4546.538574,4536.666504,4558.974121,4495.256348,5665.000000,4303.589844,4257.179688,0.000000,4.000000,79.000000,,,,0.000000,0.000000,0.000000,0.000000,0.000000,0.000000,0.000000,0.000000,0.000000,0.000000,0.000000,0.000000,0.000000,0.000000,0.000000,0.000000,1.000000,0.000000,0.000000,0.000000,0.000000,0.000000,0.000000,0.000000,0.000000,0.000000,0.000000,0.000000,0.000000,0.000000,0.000000,0.000000,,,,,,,,,,,,,,,,,,,,,,,,,,,,,,,,,,,,,,,,,,,,0.018297,0.014216,0.008233,0.009715,0.018859,0.018858,0.013727,0.025496,0.022981,0.021340,0.016890,0.026766,0.006711,0.014777,0.023896,0.021735,0.014772,0.046221,0.022430,0.028178,0.029003,0.031909,0.025892,0.020444,0.022585,0.020333,0.067537,0.043090,0.031868,0.037140,0.018434,0.041195,0.029897,0.043837,0.034840,0.017847,0.021702,0.027504,0.025722,0.025250,0.024283,0.025300,0.020390,0.021098,0.024725,0.010240,0.013176,0.013890,0.021355,0.021426,0.014135,0.031994,0.018888,0.009568,0.013362,0.014879,0.030631,0.008298,0.023402,0.017266,0.021940,0.029235,0.043065,0.036539,0.042122,0.013983,0.028166,0.030994,0.021339,0.037385
1738754183.491352,1738754183.492097,95.000000,0.000000,4318.461426,4344.615234,4250.769043,4300.641113,4350.000000,4358.077148,4361.666504,4548.077148,4535.641113,4558.077148,4496.922852,5666.153809,4305.769043,4256.153809,0.000000,4.000000,79.000000,,,,0.000000,0.000000,0.000000,0.000000,0.000000,0.000000,0.000000,0.000000,0.000000,0.000000,0.000000,0.000000,0.000000,0.000000,0.000000,0.000000,,,,,,,,,,,,,,,,,,,,,,,,,,,,,,,,,,,,,,,,,,,,,,,,,,,,,,,,,,,,,,,,,,,,,,,,,,,,,,,,,,,,,,,,,,,,,,,,,,,,,,,,,,,,,,,,,,,,,,,,,,,,,,,,,
1738754183.499161,1738754183.499905,96.000000,0.000000,4317.692383,4346.025879,4252.948730,4296.025879,4347.307617,4357.436035,4360.256348,4544.102539,4536.282227,4559.102539,4498.974121,5659.615234,4313.717773,4256.153809,0.000000,4.000000,79.000000,,,,0.000000,0.000000,0.000000,0.000000,0.000000,0.000000,0.000000,0.000000,0.000000,0.000000,0.000000,0.000000,0.000000,0.000000,0.000000,0.000000,,,,,,,,,,,,,,,,,24.000000,0.000000,0.785219,-0.616394,-0.055786,0.019409,0.066414,-0.967892,0.233427,4.847074,-15.074454,21.936699,,,,,,,,,,,,,,,,,,,,,,,,,,,,,,,,,,,,,,,,,,,,,,,,,,,,,,,,,,,,,,,,,,,,,,,,,,,,,,,,,,,,,,,,,,,,,,,,,,,,,
1738754183.506969,1738754183.507813,97.000000,0.000000,4320.769043,4343.846191,4253.717773,4301.282227,4347.692383,4362.051270,4365.256348,4546.922852,4533.589844,4556.282227,4498.333496,5667.051270,4300.256348,4247.563965,0.000000,4.000000,79.000000,,,,0.000000,0.000000,0.000000,0.000000,0.000000,0.000000,0.000000,0.000000,0.000000,0.000000,0.000000,0.000000,0.000000,0.000000,0.000000,0.000000,,,,,,,,,,,,,,,,,,,,,,,,,,,,,,,,,,,,,,,,,,,,,,,,,,,,,,,,,,,,,,,,,,,,,,,,,,,,,,,,,,,,,,,,,,,,,,,,,,,,,,,,,,,,,,,,,,,,,,,,,,,,,,,,,
1738754183.514777,1738754183.515621,98.000000,0.000000,4318.974121,4346.410156,4248.717773,4299.743652,4350.512695,4362.820313,4355.384766,4543.589844,4536.410156,4555.000000,4498.974121,5662.307617,4315.897461,4256.153809,0.000000,4.000000,79.000000,,,,0.000000,0.000000,0.000000,0.000000,0.000000,0.000000,0.000000,0.000000,0.000000,0.000000,0.000000,0.000000,0.000000,0.000000,0.000000,0.000000,,,,,,,,,,,,,,,,,,,,,,,,,,,,,,,,,,,,,,,,,,,,,,,,,,,,,,,,,,,,,,,,,,,,,,,,,,,,,,,,,,,,,,,,,,,,,,,,,,,,,,,,,,,,,,,,,,,,,,,,,,,,,,,,,
1738754183.522585,1738754183.523529,99.000000,0.000000,4319.871582,4346.410156,4250.384766,4300.512695,4348.461426,4357.051270,4358.974121,4545.512695,4536.153809,4554.871582,4495.897461,5664.358887,4312.948730,4253.333496,0.000000,4.000000,79.000000,,,,0.000000,0.000000,0.000000,0.000000,0.000000,0.000000,0.000000,0.000000,0.000000,0.000000,0.000000,0.000000,0.000000,0.000000,0.000000,0.000000,,,,,,,,,,,,,,,,,,,,,,,,,,,,,,,,,,,,,,,,,,,,,,,,,,,,,,,,,,,,,,,,,,,,,,,,,,,,,,,,,,,,,,,,,,,,,,,,,,,,,,,,,,,,,,,,,,,,,,,,,,,,,,,,,
1738754183.530393,1738754183.531337,100.000000,0.000000,4322.179688,4345.384766,4252.436035,4299.743652,4347.948730,4354.743652,4365.256348,4549.358887,4533.717773,4555.512695,4495.897461,5667.563965,4303.077148,4248.205078,0.000000,4.000000,79.000000,,,,0.000000,0.000000,0.000000,0.000000,0.000000,0.000000,0.000000,0.000000,0.000000,0.000000,0.000000,0.000000,0.000000,0.000000,0.000000,0.000000,,,,,,,,,,,,,,,,,25.000000,0.000000,0.785257,-0.616333,-0.055908,0.019470,0.062019,-0.976193,0.234892,4.929033,-15.083675,21.926363,,,,,,,,,,,,,,,,,,,,,,,,,,,,,,,,,,,,,,,,,,,,,,,,,,,,,,,,,,,,,,,,,,,,,,,,,,,,,,,,,,,,,,,,,,,,,,,,,,,,,
1738754183.538201,1738754183.539045,101.000000,0.000000,4321.410156,4347.563965,4249.743652,4297.307617,4352.307617,4359.487305,4357.307617,4545.897461,4536.025879,4555.769043,4498.589844,5657.948730,4315.128418,4256.794922,0.000000,4.000000,79.000000,,,,0.000000,0.000000,0.000000,0.000000,0.000000,0.000000,0.000000,0.000000,0.000000,0.000000,0.000000,0.000000,0.000000,0.000000,0.000000,0.000000,,,,,,,,,,,,,,,,,,,,,,,,,,,,,,,,,,,,,,,,,,,,,,,,,,,,,,,,,,,,,,,,,,,,,,,,,,,,,,,,,,,,,,,,,,,,,,,,,,,,,,,,,,,,,,,,,,,,,,,,,,,,,,,,,
1738754183.546009,1738754183.546853,102.000000,0.000000,4321.538574,4347.051270,4251.153809,4305.641113,4350.641113,4361.410156,4361.153809,4547.051270,4534.102539,4555.512695,4494.743652,5665.641113,4303.717773,4250.641113,0.000000,4.000000,79.000000,,,,0.000000,0.000000,0.000000,0.000000,0.000000,0.000000,0.000000,0.000000,0.000000,0.000000,0.000000,0.000000,0.000000,0.000000,0.000000,0.000000,,,,,,,,,,,,,,,,,,,,,,,,,,,,,,,,,,,,,,,,,,,,,,,,,,,,,,,,,,,,,,,,,,,,,,,,,,,,,,,,,,,,,,,,,,,,,,,,,,,,,,,,,,,,,,,,,,,,,,,,,,,,,,,,,
1738754183.553817,1738754183.554561,103.000000,0.000000,4318.077148,4350.256348,4252.563965,4301.153809,4345.897461,4358.205078,4361.666504,4543.589844,4535.769043,4558.205078,4497.051270,5666.666504,4308.717773,4252.820313,0.000000,4.000000,79.000000,,,,0.000000,0.000000,0.000000,0.000000,0.000000,0.000000,0.000000,0.000000,0.000000,0.000000,0.000000,0.000000,0.000000,0.000000,0.000000,0.000000,,,,,,,,,,,,,,,,,,,,,,,,,,,,,,,,,,,,,,,,,,,,,,,,,,,,,,,,,,,,,,,,,,,,,,,,,,,,,,,,,,,,,,,,,,,,,,,,,,,,,,,,,,,,,,,,,,,,,,,,,,,,,,,,,
1738754183.561625,1738754183.562369,104.000000,0.000000,4319.615234,4349.230957,4252.307617,4300.256348,4349.615234,4356.794922,4363.333496,4545.000000,4536.794922,4557.179688,4498.589844,5662.563965,4310.128418,4256.153809,0.000000,4.000000,79.000000,,,,0.000000,0.000000,0.000000,0.000000,0.000000,0.000000,0.000000,0.000000,0.000000,0.000000,0.000000,0.000000,0.000000,0.000000,0.000000,0.000000,,,,,,,,,,,,,,,,,26.000000,0.000000,0.785260,-0.616333,-0.055847,0.019531,0.065926,-0.984495,0.235869,4.836130,-14.991975,22.083727,,,,,,,,,,,,,,,,,,,,,,,,,,,,,,,,,,,,,,,,,,,,,,,,,,,,,,,,,,,,,,,,,,,,,,,,,,,,,,,,,,,,,,,,,,,,,,,,,,,,,
1738754183.569434,1738754183.570077,105.000000,0.000000,4320.769043,4345.000000,4249.871582,4307.820313,4350.256348,4356.538574,4366.410156,4549.102539,4535.384766,4555.256348,4496.666504,5664.230957,4303.205078,4251.794922,0.000000,4.000000,79.000000,,,,0.000000,0.000000,0.000000,0.000000,0.000000,0.000000,0.000000,0.000000,0.000000,0.000000,0.000000,0.000000,0.000000,0.000000,0.000000,0.000000,,,,,,,,,,,,,,,,,,,,,,,,,,,,,,,,,,,,,,,,,,,,,,,,,,,,,,,,,,,,,,,,,,,,,,,,,,,,,,,,,,,,,,,,,,,,,,,,,,,,,,,,,,,,,,,,,,,,,,,,,,,,,,,,,
1738754183.577242,1738754183.577885,106.000000,0.000000,4317.692383,4347.051270,4247.563965,4300.512695,4344.358887,4358.077148,4359.487305,4544.615234,4537.179688,4556.538574,4497.563965,5660.897461,4314.615234,4253.974121,0.000000,4.000000,79.000000,,,,0.000000,0.000000,0.000000,0.000000,0.000000,0.000000,0.000000,0.000000,0.000000,0.000000,0.000000,0.000000,0.000000,0.000000,0.000000,0.000000,,,,,,,,,,,,,,,,,,,,,,,,,,,,,,,,,,,,,,,,,,,,,,,,,,,,,,,,,,,,,,,,,,,,,,,,,,,,,,,,,,,,,,,,,,,,,,,,,,,,,,,,,,,,,,,,,,,,,,,,,,,,,,,,,
1738754183.585050,1738754183.585593,107.000000,0.000000,4320.769043,4346.666504,4251.538574,4298.461426,4347.948730,4361.666504,4363.717773,4548.461426,4533.205078,4553.205078,4493.461426,5665.641113,4306.666504,4251.410156,0.000000,4.000000,79.000000,,,,0.000000,0.000000,0.000000,0.000000,0.000000,0.000000,0.000000,0.000000,0.000000,0.000000,0.000000,0.000000,0.000000,0.000000,0.000000,0.000000,,,,,,,,,,,,,,,,,,,,,,,,,,,,,,,,,,,,,,,,,,,,,,,,,,,,,,,,,,,,,,,,,,,,,,,,,,,,,,,,,,,,,,,,,,,,,,,,,,,,,,,,,,,,,,,,,,,,,,,,,,,,,,,,,
1738754183.592858,1738754183.593401,108.000000,0.000000,4320.384766,4347.436035,4252.692383,4300.256348,4353.974121,4358.846191,4363.077148,4547.436035,4534.230957,4553.205078,4495.128418,5661.153809,4313.589844,4257.948730,0.000000,4.000000,79.000000,,,,0.000000,0.000000,0.000000,0.000000,0.000000,0.000000,0.000000,0.000000,0.000000,0.000000,0.000000,0.000000,0.000000,0.000000,0.000000,0.000000,,,,,,,,,,,,,,,,,27.000000,0.000000,0.785267,-0.616333,-0.055725,0.019592,0.069833,-0.965938,0.234892,4.852517,-15.076111,22.075354,,,,,,,,,,,,,,,,,,,,,,,,,,,,,,,,,,,,,,,,,,,,,,,,,,,,,,,,,,,,,,,,,,,,,,,,,,,,,,,,,,,,,,,,,,,,,,,,,,,,,
1738754183.600666,1738754183.601109,109.000000,0.000000,4319.871582,4348.461426,4250.256348,4301.025879,4352.179688,4354.487305,4361.025879,4546.153809,4537.051270,4555.769043,4497.692383,5662.179688,4315.769043,4257.948730,0.000000,4.000000,79.000000,,,,0.000000,0.000000,0.000000,0.000000,0.000000,0.000000,0.000000,0.000000,0.000000,0.000000,0.000000,0.000000,0.000000,0.000000,0.000000,0.000000,,,,,,,,,,,,,,,,,,,,,,,,,,,,,,,,,,,,,,,,,,,,,,,,,,,,,,,,,,,,,,,,,,,,,,,,,,,,,,,,,,,,,,,,,,,,,,,,,,,,,,,,,,,,,,,,,,,,,,,,,,,,,,,,,
1738754183.608474,1738754183.608917,110.000000,0.000000,4321.666504,4345.384766,4251.794922,4300.897461,4350.897461,4358.077148,4365.512695,4548.461426,4533.974121,4554.615234,4496.025879,5667.820313,4303.333496,4250.384766,0.000000,4.000000,79.000000,,,,0.000000,0.000000,0.000000,0.000000,0.000000,0.000000,0.000000,0.000000,0.000000,0.000000,0.000000,0.000000,0.000000,0.000000,0.000000,0.000000,,,,,,,,,,,,,,,,,,,,,,,,,,,,,,,,,,,,,,,,,,,,,,,,,,,,,,,,,,,,0.017618,0.018216,0.008343,0.011226,0.020133,0.019110,0.011210,0.028390,0.027202,0.021093,0.017524,0.027780,0.005263,0.013346,0.024188,0.020731,0.022452,0.048790,0.022224,0.029020,0.026989,0.029032,0.031995,0.020062,0.022493,0.020786,0.061842,0.044377,0.030655,0.037468,0.017289,0.034835,0.040073,0.047718,0.044648,0.017077,0.023597,0.029962,0.026916,0.026695,0.029253,0.021394,0.017094,0.021864,0.023819,0.011082,0.011063,0.012836,0.021346,0.021245,0.015868,0.026630,0.019945,0.009978,0.013411,0.018378,0.028466,0.007248,0.025452,0.019801,0.024332,0.026645,0.053238,0.035788,0.043851,0.015830,0.023904,0.029499,0.021418,0.040529
1738754183.616282,1738754183.616625,111.000000,0.000000,4318.205078,4346.794922,4252.307617,4298.205078,4350.641113,4360.769043,4360.769043,4542.563965,4535.769043,4557.051270,4497.820313,5654.615234,4316.282227,4258.846191,0.000000,4.000000,79.000000,,,,0.000000,0.000000,0.000000,0.000000,0.000000,0.000000,0.000000,0.000000,0.000000,0.000000,0.000000,0.000000,0.000000,0.000000,0.000000,0.000000,,,,,,,,,,,,,,,,,,,,,,,,,,,,,,,,,,,,,,,,,,,,,,,,,,,,,,,,,,,,,,,,,,,,,,,,,,,,,,,,,,,,,,,,,,,,,,,,,,,,,,,,,,,,,,,,,,,,,,,,,,,,,,,,,
1738754183.624090,1738754183.624533,112.000000,0.000000,4318.974121,4346.666504,4250.641113,4305.128418,4349.487305,4358.205078,4363.974121,4547.820313,4534.102539,4556.538574,4496.282227,5660.897461,4306.282227,4254.230957,0.000000,4.000000,79.000000,,,,0.000000,0.000000,0.000000,0.000000,0.000000,0.000000,0.000000,0.000000,0.000000,0.000000,0.000000,0.000000,0.000000,0.000000,0.000000,0.000000,,,,,,,,,,,,,,,,,28.000000,0.000000,0.785315,-0.616272,-0.055725,0.019592,0.059578,-0.971798,0.230985,4.850599,-15.085166,22.001152,,,,,,,,,,,,,,,,,,,,,,,,,,,,,,,,,,,,,,,,,,,,,,,,,,,,,,,,,,,,,,,,,,,,,,,,,,,,,,,,,,,,,,,,,,,,,,,,,,,,,
1738754183.631898,1738754183.632342,113.000000,0.000000,4320.256348,4345.769043,4248.461426,4301.153809,4349.615234,4356.282227,4363.846191,4549.743652,4535.512695,4554.358887,4498.205078,5666.538574,4307.179688,4252.051270,0.000000,4.000000,79.000000,,,,0.000000,0.000000,0.000000,0.000000,0.000000,0.000000,0.000000,0.000000,0.000000,0.000000,0.000000,0.000000,0.000000,0.000000,0.000000,0.000000,,,,,,,,,,,,,,,,,,,,,,,,,,,,,,,,,,,,,,,,,,,,,,,,,,,,,,,,,,,,,,,,,,,,,,,,,,,,,,,,,,,,,,,,,,,,,,,,,,,,,,,,,,,,,,,,,,,,,,,,,,,,,,,,,
1738754183.639706,1738754183.640250,114.000000,0.000000,4319.871582,4347.051270,4251.410156,4297.436035,4350.256348,4357.563965,4361.282227,4543.974121,4539.358887,4555.128418,4498.846191,5659.358887,4315.641113,4258.461426,0.000000,4.000000,79.000000,,,,0.000000,0.000000,0.000000,0.000000,0.000000,0.000000,0.000000,0.000000,0.000000,0.000000,0.000000,0.000000,0.000000,0.000000,0.000000,0.000000,,,,,,,,,,,,,,,,,,,,,,,,,,,,,,,,,,,,,,,,,,,,,,,,,,,,,,,,,,,,,,,,,,,,,,,,,,,,,,,,,,,,,,,,,,,,,,,,,,,,,,,,,,,,,,,,,,,,,,,,,,,,,,,,,
1738754183.647514,1738754183.648058,115.000000,0.000000,4319.871582,4346.282227,4255.897461,4306.025879,4350.512695,4360.000000,4366.666504,4546.922852,4535.769043,4555.000000,4494.743652,5664.358887,4302.436035,4253.461426,0.000000,4.000000,79.000000,,,,0.000000,0.000000,0.000000,0.000000,0.000000,0.000000,0.000000,0.000000,0.000000,0.000000,0.000000,0.000000,0.000000,0.000000,0.000000,0.000000,,,,,,,,,,,,,,,,,,,,,,,,,,,,,,,,,,,,,,,,,,,,,,,,,,,,,,,,,,,,,,,,,,,,,,,,,,,,,,,,,,,,,,,,,,,,,,,,,,,,,,,,,,,,,,,,,,,,,,,,,,,,,,,,,
1738754183.655323,1738754183.655966,116.000000,0.000000,4316.282227,4347.563965,4252.563965,4302.436035,4349.358887,4358.589844,4361.410156,4546.153809,4537.563965,4555.897461,4497.692383,5660.641113,4315.769043,4256.538574,0.000000,4.000000,79.000000,,,,0.000000,0.000000,0.000000,0.000000,0.000000,0.000000,0.000000,0.000000,0.000000,0.000000,0.000000,0.000000,0.000000,0.000000,0.000000,0.000000,,,,,,,,,,,,,,,,,29.000000,0.000000,0.785263,-0.616333,-0.055786,0.019592,0.069344,-0.974728,0.235869,4.798872,-15.126650,21.934370,,,,,,,,,,,,,,,,,,,,,,,,,,,,,,,,,,,,,,,,,,,,,,,,,,,,,,,,,,,,,,,,,,,,,,,,,,,,,,,,,,,,,,,,,,,,,,,,,,,,,
1738754183.663131,1738754183.663774,117.000000,0.000000,4319.358887,4345.512695,4250.256348,4301.282227,4348.974121,4357.820313,4363.846191,4547.563965,4537.436035,4555.384766,4496.538574,5662.563965,4310.000000,4254.487305,0.000000,4.000000,79.000000,,,,0.000000,0.000000,0.000000,0.000000,0.000000,0.000000,0.000000,0.000000,0.000000,0.000000,0.000000,0.000000,0.000000,0.000000,0.000000,0.000000,,,,,,,,,,,,,,,,,,,,,,,,,,,,,,,,,,,,,,,,,,,,,,,,,,,,,,,,,,,,,,,,,,,,,,,,,,,,,,,,,,,,,,,,,,,,,,,,,,,,,,,,,,,,,,,,,,,,,,,,,,,,,,,,,
1738754183.670939,1738754183.671682,118.000000,0.000000,4322.051270,4345.256348,4250.000000,4301.282227,4351.410156,4357.051270,4365.641113,4545.512695,4537.436035,4555.256348,4494.487305,5665.641113,4303.205078,4252.307617,0.000000,4.000000,79.000000,,,,0.000000,0.000000,0.000000,0.000000,0.000000,0.000000,0.000000,0.000000,0.000000,0.000000,0.000000,0.000000,0.000000,0.000000,0.000000,0.000000,,,,,,,,,,,,,,,,,,,,,,,,,,,,,,,,,,,,,,,,,,,,,,,,,,,,,,,,,,,,,,,,,,,,,,,,,,,,,,,,,,,,,,,,,,,,,,,,,,,,,,,,,,,,,,,,,,,,,,,,,,,,,,,,,
1738754183.678747,1738754183.679491,119.000000,0.000000,4319.743652,4347.051270,4251.794922,4297.948730,4352.051270,4356.666504,4361.153809,4541.153809,4537.436035,4556.153809,4496.410156,5661.153809,4315.512695,4256.794922,0.000000,4.000000,79.000000,,,,0.000000,0.000000,0.000000,0.000000,0.000000,0.000000,0.000000,0.000000,0.000000,0.000000,0.000000,0.000000,0.000000,0.000000,0.000000,0.000000,,,,,,,,,,,,,,,,,,,,,,,,,,,,,,,,,,,,,,,,,,,,,,,,,,,,,,,,,,,,,,,,,,,,,,,,,,,,,,,,,,,,,,,,,,,,,,,,,,,,,,,,,,,,,,,,,,,,,,,,,,,,,,,,,
1738754183.686555,1738754183.687399,120.000000,0.000000,4321.538574,4344.743652,4254.102539,4302.948730,4350.128418,4358.333496,4366.282227,4547.820313,4531.282227,4555.512695,4494.615234,5666.025879,4306.922852,4253.333496,0.000000,4.000000,79.000000,,,,0.000000,0.000000,0.000000,0.000000,0.000000,0.000000,0.000000,0.000000,0.000000,0.000000,0.000000,0.000000,0.000000,0.000000,0.000000,0.000000,,,,,,,,,,,,,,,,,30.000000,0.000000,0.785222,-0.616394,-0.055664,0.019653,0.071298,-0.981077,0.227567,4.752318,-15.030651,22.007599,,,,,,,,,,,,,,,,,,,,,,,,,,,,,,,,,,,,,,,,,,,,,,,,,,,,,,,,,,,,,,,,,,,,,,,,,,,,,,,,,,,,,,,,,,,,,,,,,,,,,
1738754183.694363,1738754183.695207,121.000000,0.000000,4320.384766,4346.153809,4249.102539,4299.743652,4350.000000,4357.307617,4362.692383,4546.153809,4536.282227,4556.153809,4498.974121,5662.179688,4314.487305,4258.333496,0.000000,4.000000,79.000000,,,,0.000000,0.000000,0.000000,0.000000,0.000000,0.000000,0.000000,0.000000,0.000000,0.000000,0.000000,0.000000,0.000000,0.000000,0.000000,0.000000,,,,,,,,,,,,,,,,,,,,,,,,,,,,,,,,,,,,,,,,,,,,,,,,,,,,,,,,,,,,,,,,,,,,,,,,,,,,,,,,,,,,,,,,,,,,,,,,,,,,,,,,,,,,,,,,,,,,,,,,,,,,,,,,,
1738754183.702171,1738754183.703115,122.000000,0.000000,4319.102539,4346.025879,4249.230957,4299.230957,4350.256348,4357.179688,4363.333496,4546.666504,4538.333496,4553.717773,4497.307617,5664.102539,4309.487305,4255.641113,0.000000,4.000000,79.000000,,,,0.000000,0.000000,0.000000,0.000000,0.000000,0.000000,0.000000,0.000000,0.000000,0.000000,0.000000,0.000000,0.000000,0.000000,0.000000,0.000000,,,,,,,,,,,,,,,,,,,,,,,,,,,,,,,,,,,,,,,,,,,,,,,,,,,,,,,,,,,,,,,,,,,,,,,,,,,,,,,,,,,,,,,,,,,,,,,,,,,,,,,,,,,,,,,,,,,,,,,,,,,,,,,,,
1738754183.709979,1738754183.710923,123.000000,0.000000,4320.128418,4346.666504,4253.333496,4301.025879,4347.179688,4359.615234,4365.384766,4551.025879,4532.563965,4553.846191,4493.589844,5665.641113,4302.179688,4251.794922,0.000000,4.000000,79.000000,,,,0.000000,0.000000,0.000000,0.000000,0.000000,0.000000,0.000000,0.000000,0.000000,0.000000,0.000000,0.000000,0.000000,0.000000,0.000000,0.000000,,,,,,,,,,,,,,,,,,,,,,,,,,,,,,,,,,,,,,,,,,,,,,,,,,,,,,,,,,,,,,,,,,,,,,,,,,,,,,,,,,,,,,,,,,,,,,,,,,,,,,,,,,,,,,,,,,,,,,,,,,,,,,,,,
1738754183.717787,1738754183.718631,124.000000,0.000000,4319.743652,4350.384766,4250.769043,4296.025879,4347.307617,4360.512695,4360.512695,4546.666504,4534.358887,4556.153809,4497.692383,5658.461426,4315.128418,4258.461426,0.000000,4.000000,79.000000,,,,0.000000,0.000000,0.000000,0.000000,0.000000,0.000000,0.000000,0.000000,0.000000,0.000000,0.000000,0.000000,0.000000,0.000000,0.000000,0.000000,,,,,,,,,,,,,,,,,31.000000,0.000000,0.785319,-0.616272,-0.055664,0.019592,0.066903,-0.973752,0.233915,4.560420,-14.927587,22.140173,,,,,,,,,,,,,,,,,,,,,,,,,,,,,,,,,,,,,,,,,,,,,,,,,,,,,,,,,,,,,,,,,,,,,,,,,,,,,,,,,,,,,,,,,,,,,,,,,,,,,
1738754183.725596,1738754183.726439,125.000000,0.000000,4321.794922,4345.641113,4251.794922,4301.666504,4350.897461,4358.461426,4363.846191,4547.820313,4535.512695,4553.717773,4494.871582,5668.717773,4305.000000,4254.871582,0.000000,4.000000,79.000000,,,,0.000000,0.000000,0.000000,0.000000,0.000000,0.000000,0.000000,0.000000,0.000000,0.000000,0.000000,0.000000,0.000000,0.000000,0.000000,0.000000,,,,,,,,,,,,,,,,,,,,,,,,,,,,,,,,,,,,,,,,,,,,,,,,,,,,,,,,,,,,,,,,,,,,,,,,,,,,,,,,,,,,,,,,,,,,,,,,,,,,,,,,,,,,,,,,,,,,,,,,,,,,,,,,,
1738754183.733404,1738754183.734147,126.000000,0.000000,4321.794922,4347.051270,4253.589844,4301.410156,4348.846191,4357.179688,4358.846191,4546.666504,4536.153809,4555.000000,4494.615234,5666.153809,4311.922852,4260.000000,0.000000,4.000000,79.000000,,,,0.000000,0.000000,0.000000,0.000000,0.000000,0.000000,0.000000,0.000000,0.000000,0.000000,0.000000,0.000000,0.000000,0.000000,0.000000,0.000000,,,,,,,,,,,,,,,,,,,,,,,,,,,,,,,,,,,,,,,,,,,,,,,,,,,,,,,,,,,,0.016532,0.023358,0.008636,0.014120,0.021687,0.019382,0.010355,0.030101,0.031425,0.021690,0.018543,0.027611,0.005586,0.011969,0.024874,0.019569,0.032491,0.048601,0.021851,0.030023,0.026479,0.025924,0.039019,0.020351,0.022663,0.021102,0.057238,0.047899,0.031728,0.040930,0.017550,0.032596,0.050472,0.048801,0.053270,0.016341,0.024116,0.031555,0.028161,0.028858,0.033655,0.020092,0.013989,0.021412,0.023634,0.013967,0.010781,0.013834,0.020773,0.020949,0.016693,0.023314,0.023413,0.010562,0.014072,0.023464,0.028170,0.008882,0.028350,0.023013,0.027430,0.023963,0.062931,0.034928,0.044034,0.017424,0.019515,0.029900,0.020838,0.043350
1738754183.741212,1738754183.741955,127.000000,0.000000,4322.179688,4352.692383,4251.410156,4298.846191,4346.153809,4359.102539,4359.358887,4546.538574,4535.641113,4557.563965,4496.153809,5659.871582,4311.025879,4258.846191,79.000000,4.000000,79.000000,,,,0.000000,0.000000,0.000000,0.000000,0.000000,0.000000,0.000000,0.000000,0.000000,0.000000,0.000000,0.000000,0.000000,0.000000,0.000000,0.000000,,,,,,,,,,,,,,,,,,,,,,,,,,,,,,,,,,,,,,,,,,,,,,,,,,,,,,,,,,,,,,,,,,,,,,,,,,,,,,,,,,,,,,,,,,,,,,,,,,,,,,,,,,,,,,,,,,,,,,,,,,,,,,,,,
