title:bread1, start timestamp:1738754857.525616, stop timestamp:1738754858.564093, headset type:EPOCX, headset serial:E50208A5, headset firmware:720, channels:168, sampling rate:eeg_128;mot_32;pm_0.1;pow_8, samples:134       , version:2.2, 
Timestamp,OriginalTimestamp,EEG.Counter,EEG.Interpolated,EEG.AF3,EEG.F7,EEG.F3,EEG.FC5,EEG.T7,EEG.P7,EEG.O1,EEG.O2,EEG.P8,EEG.T8,EEG.FC6,EEG.F4,EEG.F8,EEG.AF4,EEG.RawCq,EEG.Battery,EEG.BatteryPercent,MarkerIndex,MarkerType,MarkerValueInt,EEG.MarkerHardware,CQ.AF3,CQ.F7,CQ.F3,CQ.FC5,CQ.T7,CQ.P7,CQ.O1,CQ.O2,CQ.P8,CQ.T8,CQ.FC6,CQ.F4,CQ.F8,CQ.AF4,CQ.Overall,EQ.SampleRateQuality,EQ.OVERALL,EQ.AF3,EQ.F7,EQ.F3,EQ.FC5,EQ.T7,EQ.P7,EQ.O1,EQ.O2,EQ.P8,EQ.T8,EQ.FC6,EQ.F4,EQ.F8,EQ.AF4,MOT.CounterMems,MOT.InterpolatedMems,MOT.Q0,MOT.Q1,MOT.Q2,MOT.Q3,MOT.AccX,MOT.AccY,MOT.AccZ,MOT.MagX,MOT.MagY,MOT.MagZ,PM.Attention.IsActive,PM.Attention.Scaled,PM.Attention.Raw,PM.Attention.Min,PM.Attention.Max,PM.Engagement.IsActive,PM.Engagement.Scaled,PM.Engagement.Raw,PM.Engagement.Min,PM.Engagement.Max,PM.Excitement.IsActive,PM.Excitement.Scaled,PM.Excitement.Raw,PM.Excitement.Min,PM.Excitement.Max,PM.LongTermExcitement,PM.Stress.IsActive,PM.Stress.Scaled,PM.Stress.Raw,PM.Stress.Min,PM.Stress.Max,PM.Relaxation.IsActive,PM.Relaxation.Scaled,PM.Relaxation.Raw,PM.Relaxation.Min,PM.Relaxation.Max,PM.Interest.IsActive,PM.Interest.Scaled,PM.Interest.Raw,PM.Interest.Min,PM.Interest.Max,POW.AF3.Theta,POW.AF3.Alpha,POW.AF3.BetaL,POW.AF3.BetaH,POW.AF3.Gamma,POW.F7.Theta,POW.F7.Alpha,POW.F7.BetaL,POW.F7.BetaH,POW.F7.Gamma,POW.F3.Theta,POW.F3.Alpha,POW.F3.BetaL,POW.F3.BetaH,POW.F3.Gamma,POW.FC5.Theta,POW.FC5.Alpha,POW.FC5.BetaL,POW.FC5.BetaH,POW.FC5.Gamma,POW.T7.Theta,POW.T7.Alpha,POW.T7.BetaL,POW.T7.BetaH,POW.T7.Gamma,POW.P7.Theta,POW.P7.Alpha,POW.P7.BetaL,POW.P7.BetaH,POW.P7.Gamma,POW.O1.Theta,POW.O1.Alpha,POW.O1.BetaL,POW.O1.BetaH,POW.O1.Gamma,POW.O2.Theta,POW.O2.Alpha,POW.O2.BetaL,POW.O2.BetaH,POW.O2.Gamma,POW.P8.Theta,POW.P8.Alpha,POW.P8.BetaL,POW.P8.BetaH,POW.P8.Gamma,POW.T8.Theta,POW.T8.Alpha,POW.T8.BetaL,POW.T8.BetaH,POW.T8.Gamma,POW.FC6.Theta,POW.FC6.Alpha,POW.FC6.BetaL,POW.FC6.BetaH,POW.FC6.Gamma,POW.F4.Theta,POW.F4.Alpha,POW.F4.BetaL,POW.F4.BetaH,POW.F4.Gamma,POW.F8.Theta,POW.F8.Alpha,POW.F8.BetaL,POW.F8.BetaH,POW.F8.Gamma,POW.AF4.Theta,POW.AF4.Alpha,POW.AF4.BetaL,POW.AF4.BetaH,POW.AF4.Gamma
1738754857.525616,1738754857.525999,20.000000,0.000000,4320.769043,4352.307617,4254.230957,4298.974121,4348.461426,4359.743652,4362.307617,4548.974121,4537.307617,4560.897461,4495.769043,5660.512695,4309.102539,4256.794922,0.000000,4.000000,77.000000,,,,0.000000,0.000000,0.000000,0.000000,0.000000,0.000000,0.000000,0.000000,0.000000,0.000000,0.000000,0.000000,0.000000,0.000000,0.000000,0.000000,,,,,,,,,,,,,,,,,5.000000,0.000000,0.785155,-0.615784,-0.060120,0.026978,0.062019,-0.972287,0.243194,4.205689,-15.069169,23.107254,,,,,,,,,,,,,,,,,,,,,,,,,,,,,,,,,,,,,,,,,,,,,,,,,,,,,,,,,,,,,,,,,,,,,,,,,,,,,,,,,,,,,,,,,,,,,,,,,,,,,
1738754857.533424,1738754857.533707,21.000000,0.000000,4323.077148,4351.922852,4257.179688,4300.897461,4348.461426,4362.307617,4363.846191,4548.717773,4539.102539,4560.000000,4497.563965,5659.102539,4309.230957,4258.333496,0.000000,4.000000,77.000000,,,,0.000000,0.000000,0.000000,0.000000,0.000000,0.000000,0.000000,0.000000,0.000000,0.000000,0.000000,0.000000,0.000000,0.000000,0.000000,0.000000,,,,,,,,,,,,,,,,,,,,,,,,,,,,,,,,,,,,,,,,,,,,,,,,,,,,,,,,,,,,,,,,,,,,,,,,,,,,,,,,,,,,,,,,,,,,,,,,,,,,,,,,,,,,,,,,,,,,,,,,,,,,,,,,,
1738754857.541232,1738754857.541515,22.000000,0.000000,4322.820313,4352.051270,4255.384766,4302.307617,4349.871582,4364.230957,4365.512695,4548.333496,4536.666504,4559.871582,4495.769043,5663.077148,4308.974121,4257.307617,0.000000,4.000000,77.000000,,,,0.000000,0.000000,0.000000,0.000000,0.000000,0.000000,0.000000,0.000000,0.000000,0.000000,0.000000,0.000000,0.000000,0.000000,0.000000,0.000000,,,,,,,,,,,,,,,,,,,,,,,,,,,,,,,,,,,,,,,,,,,,,,,,,,,,,,,,,,,,,,,,,,,,,,,,,,,,,,,,,,,,,,,,,,,,,,,,,,,,,,,,,,,,,,,,,,,,,,,,,,,,,,,,,
1738754857.549040,1738754857.549223,23.000000,0.000000,4320.000000,4352.179688,4253.846191,4300.641113,4351.153809,4359.743652,4362.563965,4549.230957,4536.794922,4558.717773,4494.230957,5663.846191,4312.051270,4255.769043,0.000000,4.000000,77.000000,,,,0.000000,0.000000,0.000000,0.000000,0.000000,0.000000,0.000000,0.000000,0.000000,0.000000,0.000000,0.000000,0.000000,0.000000,0.000000,0.000000,,,,,,,,,,,,,,,,,,,,,,,,,,,,,,,,,,,,,,,,,,,,,,,,,,,,,,,,,,,,,,,,,,,,,,,,,,,,,,,,,,,,,,,,,,,,,,,,,,,,,,,,,,,,,,,,,,,,,,,,,,,,,,,,,
1738754857.556848,1738754857.557031,24.000000,0.000000,4321.282227,4349.230957,4253.717773,4299.615234,4350.769043,4358.717773,4363.589844,4549.871582,4540.641113,4557.179688,4497.179688,5663.589844,4309.102539,4254.615234,0.000000,4.000000,77.000000,,,,0.000000,0.000000,0.000000,0.000000,0.000000,0.000000,0.000000,0.000000,0.000000,0.000000,0.000000,0.000000,0.000000,0.000000,0.000000,0.000000,,,,,,,,,,,,,,,,,6.000000,0.000000,0.785155,-0.615784,-0.060120,0.026978,0.056159,-0.978147,0.241729,4.185120,-15.078918,23.013195,,,,,,,,,,,,,,,,,,,,,,,,,,,,,,,,,,,,,,,,,,,,,,,,,,,,,,,,,,,,,,,,,,,,,,,,,,,,,,,,,,,,,,,,,,,,,,,,,,,,,
1738754857.564656,1738754857.564739,25.000000,0.000000,4324.487305,4348.077148,4255.384766,4302.307617,4350.128418,4362.307617,4366.538574,4550.000000,4541.666504,4556.794922,4500.641113,5663.717773,4306.922852,4256.922852,0.000000,4.000000,77.000000,,,,0.000000,0.000000,0.000000,0.000000,0.000000,0.000000,0.000000,0.000000,0.000000,0.000000,0.000000,0.000000,0.000000,0.000000,0.000000,0.000000,,,,,,,,,,,,,,,,,,,,,,,,,,,,,,,,,,,,,,,,,,,,,,,,,,,,,,,,,,,,,,,,,,,,,,,,,,,,,,,,,,,,,,,,,,,,,,,,,,,,,,,,,,,,,,,,,,,,,,,,,,,,,,,,,
1738754857.572465,1738754857.572647,26.000000,0.000000,4323.717773,4349.230957,4258.717773,4304.102539,4351.410156,4361.282227,4365.769043,4548.974121,4539.487305,4556.666504,4497.051270,5663.333496,4312.179688,4257.820313,0.000000,4.000000,77.000000,,,,0.000000,0.000000,0.000000,0.000000,0.000000,0.000000,0.000000,0.000000,0.000000,0.000000,0.000000,0.000000,0.000000,0.000000,0.000000,0.000000,,,,,,,,,,,,,,,,,,,,,,,,,,,,,,,,,,,,,,,,,,,,,,,,,,,,,,,,,,,,,,,,,,,,,,,,,,,,,,,,,,,,,,,,,,,,,,,,,,,,,,,,,,,,,,,,,,,,,,,,,,,,,,,,,
1738754857.580273,1738754857.580455,27.000000,0.000000,4322.307617,4348.846191,4255.769043,4303.077148,4352.436035,4357.307617,4366.794922,4549.487305,4538.333496,4557.563965,4492.307617,5665.897461,4309.871582,4253.974121,0.000000,4.000000,77.000000,,,,0.000000,0.000000,0.000000,0.000000,0.000000,0.000000,0.000000,0.000000,0.000000,0.000000,0.000000,0.000000,0.000000,0.000000,0.000000,0.000000,,,,,,,,,,,,,,,,,,,,,,,,,,,,,,,,,,,,,,,,,,,,,,,,,,,,,,,,,,,,,,,,,,,,,,,,,,,,,,,,,,,,,,,,,,,,,,,,,,,,,,,,,,,,,,,,,,,,,,,,,,,,,,,,,
1738754857.588081,1738754857.588263,28.000000,0.000000,4323.589844,4349.358887,4248.846191,4300.641113,4353.077148,4358.461426,4367.307617,4550.384766,4537.307617,4560.256348,4496.794922,5663.717773,4308.205078,4256.153809,0.000000,4.000000,77.000000,,,,0.000000,0.000000,0.000000,0.000000,0.000000,0.000000,0.000000,0.000000,0.000000,0.000000,0.000000,0.000000,0.000000,0.000000,0.000000,0.000000,,,,,,,,,,,,,,,,,7.000000,0.000000,0.785151,-0.615784,-0.060120,0.027100,0.055183,-0.972287,0.245635,4.216608,-15.021027,22.878542,,,,,,,,,,,,,,,,,,,,,,,,,,,,,,,,,,,,,,,,,,,,,,,,,,,,,,,,,,,,,,,,,,,,,,,,,,,,,,,,,,,,,,,,,,,,,,,,,,,,,
1738754857.595889,1738754857.595971,29.000000,0.000000,4324.230957,4349.743652,4251.794922,4301.410156,4353.974121,4361.025879,4364.487305,4548.974121,4535.384766,4558.846191,4499.615234,5661.538574,4309.487305,4259.615234,0.000000,4.000000,77.000000,,,,0.000000,0.000000,0.000000,0.000000,0.000000,0.000000,0.000000,0.000000,0.000000,0.000000,0.000000,0.000000,0.000000,0.000000,0.000000,0.000000,,,,,,,,,,,,,,,,,,,,,,,,,,,,,,,,,,,,,,,,,,,,,,,,,,,,,,,,,,,,,,,,,,,,,,,,,,,,,,,,,,,,,,,,,,,,,,,,,,,,,,,,,,,,,,,,,,,,,,,,,,,,,,,,,
1738754857.603697,1738754857.603880,30.000000,0.000000,4323.717773,4349.615234,4255.000000,4303.589844,4351.794922,4361.410156,4364.102539,4548.589844,4539.102539,4556.794922,4496.153809,5664.615234,4307.948730,4256.025879,0.000000,4.000000,77.000000,,,,0.000000,0.000000,0.000000,0.000000,0.000000,0.000000,0.000000,0.000000,0.000000,0.000000,0.000000,0.000000,0.000000,0.000000,0.000000,0.000000,1.000000,0.000000,0.000000,0.000000,0.000000,0.000000,0.000000,0.000000,0.000000,0.000000,0.000000,0.000000,0.000000,0.000000,0.000000,0.000000,,,,,,,,,,,,,,,,,,,,,,,,,,,,,,,,,,,,,,,,,,,,0.032673,0.022555,0.018618,0.026232,0.022715,0.042069,0.012901,0.014221,0.025900,0.023330,0.035837,0.017276,0.022724,0.025395,0.026352,0.055823,0.015685,0.020877,0.015282,0.013661,0.038672,0.045341,0.038393,0.026716,0.034814,0.009743,0.013435,0.017042,0.022288,0.024421,0.056502,0.043377,0.021567,0.023424,0.033908,0.020660,0.026109,0.006349,0.021918,0.035039,0.017043,0.032052,0.020252,0.009727,0.016863,0.015878,0.034304,0.022412,0.022857,0.026806,0.041635,0.021064,0.038901,0.021813,0.034318,0.030942,0.017343,0.027156,0.015629,0.032159,0.031306,0.027744,0.057279,0.042634,0.037468,0.050539,0.046491,0.059199,0.029589,0.025349
1738754857.611505,1738754857.611688,31.000000,0.000000,4323.846191,4349.487305,4252.436035,4301.666504,4351.794922,4361.410156,4364.230957,4549.487305,4541.538574,4557.436035,4497.436035,5664.871582,4310.641113,4255.512695,0.000000,4.000000,77.000000,,,,0.000000,0.000000,0.000000,0.000000,0.000000,0.000000,0.000000,0.000000,0.000000,0.000000,0.000000,0.000000,0.000000,0.000000,0.000000,0.000000,,,,,,,,,,,,,,,,,,,,,,,,,,,,,,,,,,,,,,,,,,,,,,,,,,,,,,,,,,,,,,,,,,,,,,,,,,,,,,,,,,,,,,,,,,,,,,,,,,,,,,,,,,,,,,,,,,,,,,,,,,,,,,,,,
1738754857.619313,1738754857.619596,32.000000,0.000000,4322.820313,4348.461426,4252.948730,4300.128418,4352.820313,4360.897461,4362.436035,4548.461426,4536.922852,4558.077148,4501.410156,5665.000000,4310.897461,4256.666504,0.000000,4.000000,77.000000,,,,0.000000,0.000000,0.000000,0.000000,0.000000,0.000000,0.000000,0.000000,0.000000,0.000000,0.000000,0.000000,0.000000,0.000000,0.000000,0.000000,,,,,,,,,,,,,,,,,8.000000,0.000000,0.785144,-0.615784,-0.060181,0.027161,0.057136,-0.971310,0.225125,4.078280,-15.102258,22.840689,,,,,,,,,,,,,,,,,,,,,,,,,,,,,,,,,,,,,,,,,,,,,,,,,,,,,,,,,,,,,,,,,,,,,,,,,,,,,,,,,,,,,,,,,,,,,,,,,,,,,
1738754857.627121,1738754857.627404,33.000000,0.000000,4321.922852,4349.102539,4252.820313,4299.743652,4351.282227,4359.102539,4364.487305,4548.846191,4537.436035,4560.000000,4498.974121,5665.000000,4310.256348,4257.307617,0.000000,4.000000,77.000000,,,,0.000000,0.000000,0.000000,0.000000,0.000000,0.000000,0.000000,0.000000,0.000000,0.000000,0.000000,0.000000,0.000000,0.000000,0.000000,0.000000,,,,,,,,,,,,,,,,,,,,,,,,,,,,,,,,,,,,,,,,,,,,,,,,,,,,,,,,,,,,,,,,,,,,,,,,,,,,,,,,,,,,,,,,,,,,,,,,,,,,,,,,,,,,,,,,,,,,,,,,,,,,,,,,,
1738754857.634929,1738754857.635312,34.000000,0.000000,4322.436035,4351.666504,4252.051270,4302.820313,4352.948730,4359.743652,4368.589844,4552.948730,4541.025879,4562.820313,4494.871582,5663.974121,4309.871582,4260.384766,0.000000,4.000000,77.000000,,,,0.000000,0.000000,0.000000,0.000000,0.000000,0.000000,0.000000,0.000000,0.000000,0.000000,0.000000,0.000000,0.000000,0.000000,0.000000,0.000000,,,,,,,,,,,,,,,,,,,,,,,,,,,,,,,,,,,,,,,,,,,,,,,,,,,,,,,,,,,,,,,,,,,,,,,,,,,,,,,,,,,,,,,,,,,,,,,,,,,,,,,,,,,,,,,,,,,,,,,,,,,,,,,,,
1738754857.642738,1738754857.643120,35.000000,0.000000,4320.641113,4351.282227,4254.871582,4304.487305,4354.230957,4361.153809,4365.769043,4552.307617,4540.000000,4562.179688,4496.922852,5665.000000,4307.307617,4257.820313,0.000000,4.000000,77.000000,,,,0.000000,0.000000,0.000000,0.000000,0.000000,0.000000,0.000000,0.000000,0.000000,0.000000,0.000000,0.000000,0.000000,0.000000,0.000000,0.000000,,,,,,,,,,,,,,,,,,,,,,,,,,,,,,,,,,,,,,,,,,,,,,,,,,,,,,,,,,,,,,,,,,,,,,,,,,,,,,,,,,,,,,,,,,,,,,,,,,,,,,,,,,,,,,,,,,,,,,,,,,,,,,,,,
1738754857.650545,1738754857.651028,36.000000,0.000000,4319.230957,4350.128418,4255.897461,4301.922852,4350.641113,4360.897461,4361.410156,4547.820313,4539.871582,4558.717773,4499.615234,5662.948730,4309.743652,4253.589844,0.000000,4.000000,77.000000,,,,0.000000,0.000000,0.000000,0.000000,0.000000,0.000000,0.000000,0.000000,0.000000,0.000000,0.000000,0.000000,0.000000,0.000000,0.000000,0.000000,,,,,,,,,,,,,,,,,9.000000,0.000000,0.785182,-0.615723,-0.060303,0.027161,0.058113,-0.965938,0.240264,4.187119,-15.108699,22.773287,,,,,,,,,,,,,,,,,,,,,,,,,,,,,,,,,,,,,,,,,,,,,,,,,,,,,,,,,,,,,,,,,,,,,,,,,,,,,,,,,,,,,,,,,,,,,,,,,,,,,
1738754857.658354,1738754857.658837,37.000000,0.000000,4322.179688,4351.025879,4254.615234,4303.333496,4350.897461,4361.282227,4365.128418,4549.230957,4540.512695,4558.717773,4497.692383,5662.948730,4310.256348,4255.512695,0.000000,4.000000,77.000000,,,,0.000000,0.000000,0.000000,0.000000,0.000000,0.000000,0.000000,0.000000,0.000000,0.000000,0.000000,0.000000,0.000000,0.000000,0.000000,0.000000,,,,,,,,,,,,,,,,,,,,,,,,,,,,,,,,,,,,,,,,,,,,,,,,,,,,,,,,,,,,,,,,,,,,,,,,,,,,,,,,,,,,,,,,,,,,,,,,,,,,,,,,,,,,,,,,,,,,,,,,,,,,,,,,,
1738754857.666162,1738754857.666745,38.000000,0.000000,4322.692383,4350.641113,4256.282227,4303.974121,4355.256348,4360.769043,4365.769043,4552.051270,4541.410156,4558.717773,4495.128418,5666.282227,4309.487305,4258.077148,0.000000,4.000000,77.000000,,,,0.000000,0.000000,0.000000,0.000000,0.000000,0.000000,0.000000,0.000000,0.000000,0.000000,0.000000,0.000000,0.000000,0.000000,0.000000,0.000000,,,,,,,,,,,,,,,,,,,,,,,,,,,,,,,,,,,,,,,,,,,,,,,,,,,,,,,,,,,,,,,,,,,,,,,,,,,,,,,,,,,,,,,,,,,,,,,,,,,,,,,,,,,,,,,,,,,,,,,,,,,,,,,,,
1738754857.673970,1738754857.674553,39.000000,0.000000,4320.641113,4349.102539,4257.051270,4298.077148,4353.333496,4360.769043,4362.820313,4550.384766,4542.436035,4557.051270,4496.025879,5664.871582,4310.641113,4254.743652,0.000000,4.000000,77.000000,,,,0.000000,0.000000,0.000000,0.000000,0.000000,0.000000,0.000000,0.000000,0.000000,0.000000,0.000000,0.000000,0.000000,0.000000,0.000000,0.000000,,,,,,,,,,,,,,,,,,,,,,,,,,,,,,,,,,,,,,,,,,,,,,,,,,,,,,,,,,,,,,,,,,,,,,,,,,,,,,,,,,,,,,,,,,,,,,,,,,,,,,,,,,,,,,,,,,,,,,,,,,,,,,,,,
1738754857.681778,1738754857.682461,40.000000,0.000000,4321.153809,4350.256348,4253.846191,4295.000000,4350.512695,4364.102539,4365.512695,4549.871582,4540.000000,4558.461426,4496.025879,5663.333496,4311.410156,4252.820313,0.000000,4.000000,77.000000,,,,0.000000,0.000000,0.000000,0.000000,0.000000,0.000000,0.000000,0.000000,0.000000,0.000000,0.000000,0.000000,0.000000,0.000000,0.000000,0.000000,,,,,,,,,,,,,,,,,10.000000,0.000000,0.785233,-0.615662,-0.060242,0.027222,0.065438,-0.968380,0.238310,4.201740,-15.197828,22.845957,,,,,,,,,,,,,,,,,,,,,,,,,,,,,,,,,,,,,,,,,,,,,,,,,,,,,,,,,,,,,,,,,,,,,,,,,,,,,,,,,,,,,,,,,,,,,,,,,,,,,
1738754857.689586,1738754857.690369,41.000000,0.000000,4321.410156,4350.512695,4252.692383,4300.384766,4350.769043,4364.615234,4365.769043,4551.410156,4538.333496,4560.128418,4495.256348,5663.846191,4312.563965,4256.794922,0.000000,4.000000,77.000000,,,,0.000000,0.000000,0.000000,0.000000,0.000000,0.000000,0.000000,0.000000,0.000000,0.000000,0.000000,0.000000,0.000000,0.000000,0.000000,0.000000,,,,,,,,,,,,,,,,,,,,,,,,,,,,,,,,,,,,,,,,,,,,,,,,,,,,,,,,,,,,,,,,,,,,,,,,,,,,,,,,,,,,,,,,,,,,,,,,,,,,,,,,,,,,,,,,,,,,,,,,,,,,,,,,,
1738754857.697394,1738754857.698177,42.000000,0.000000,4323.205078,4348.333496,4256.153809,4305.641113,4350.769043,4360.897461,4364.743652,4550.000000,4537.692383,4559.615234,4495.897461,5665.256348,4309.871582,4256.025879,0.000000,4.000000,77.000000,,,,0.000000,0.000000,0.000000,0.000000,0.000000,0.000000,0.000000,0.000000,0.000000,0.000000,0.000000,0.000000,0.000000,0.000000,0.000000,0.000000,,,,,,,,,,,,,,,,,,,,,,,,,,,,,,,,,,,,,,,,,,,,,,,,,,,,,,,,,,,,,,,,,,,,,,,,,,,,,,,,,,,,,,,,,,,,,,,,,,,,,,,,,,,,,,,,,,,,,,,,,,,,,,,,,
1738754857.705202,1738754857.705986,43.000000,0.000000,4323.589844,4348.589844,4254.743652,4303.974121,4350.512695,4358.974121,4364.871582,4548.461426,4536.410156,4557.820313,4495.384766,5665.128418,4309.102539,4254.487305,0.000000,4.000000,77.000000,,,,0.000000,0.000000,0.000000,0.000000,0.000000,0.000000,0.000000,0.000000,0.000000,0.000000,0.000000,0.000000,0.000000,0.000000,0.000000,0.000000,,,,,,,,,,,,,,,,,,,,,,,,,,,,,,,,,,,,,,,,,,,,,,,,,,,,,,,,,,,,,,,,,,,,,,,,,,,,,,,,,,,,,,,,,,,,,,,,,,,,,,,,,,,,,,,,,,,,,,,,,,,,,,,,,
1738754857.713010,1738754857.713694,44.000000,0.000000,4320.769043,4347.948730,4251.282227,4301.538574,4351.153809,4360.897461,4364.615234,4549.743652,4538.717773,4558.717773,4497.563965,5663.846191,4311.922852,4256.153809,0.000000,4.000000,77.000000,,,,0.000000,0.000000,0.000000,0.000000,0.000000,0.000000,0.000000,0.000000,0.000000,0.000000,0.000000,0.000000,0.000000,0.000000,0.000000,0.000000,,,,,,,,,,,,,,,,,11.000000,0.000000,0.785326,-0.615540,-0.060242,0.027283,0.065438,-0.962031,0.238799,4.131567,-15.144712,22.778028,,,,,,,,,,,,,,,,,,,,,,,,,,,,,,,,,,,,,,,,,,,,,,,,,,,,,,,,,,,,,,,,,,,,,,,,,,,,,,,,,,,,,,,,,,,,,,,,,,,,,
1738754857.720818,1738754857.721502,45.000000,0.000000,4319.487305,4346.922852,4252.692383,4304.615234,4350.512695,4360.000000,4367.051270,4550.256348,4540.128418,4560.384766,4498.461426,5665.128418,4312.948730,4255.641113,0.000000,4.000000,77.000000,,,,0.000000,0.000000,0.000000,0.000000,0.000000,0.000000,0.000000,0.000000,0.000000,0.000000,0.000000,0.000000,0.000000,0.000000,0.000000,0.000000,,,,,,,,,,,,,,,,,,,,,,,,,,,,,,,,,,,,,,,,,,,,,,,,,,,,,,,,,,,,,,,,,,,,,,,,,,,,,,,,,,,,,,,,,,,,,,,,,,,,,,,,,,,,,,,,,,,,,,,,,,,,,,,,,
1738754857.728627,1738754857.729210,46.000000,0.000000,4319.615234,4351.666504,4253.974121,4305.769043,4348.846191,4357.563965,4368.846191,4547.948730,4537.948730,4558.589844,4496.025879,5663.461426,4311.410156,4255.897461,0.000000,4.000000,77.000000,,,,0.000000,0.000000,0.000000,0.000000,0.000000,0.000000,0.000000,0.000000,0.000000,0.000000,0.000000,0.000000,0.000000,0.000000,0.000000,0.000000,,,,,,,,,,,,,,,,,,,,,,,,,,,,,,,,,,,,,,,,,,,,,,,,,,,,,,,,,,,,0.030986,0.024288,0.020482,0.025075,0.022995,0.044528,0.011568,0.015289,0.028263,0.024191,0.039886,0.017591,0.024527,0.026485,0.031536,0.053665,0.019026,0.018672,0.013643,0.015920,0.041281,0.047389,0.042844,0.026793,0.032702,0.010705,0.012878,0.017615,0.020751,0.027890,0.045402,0.045359,0.022080,0.026234,0.033578,0.022649,0.027142,0.008554,0.022658,0.034608,0.013823,0.032679,0.018300,0.010997,0.017871,0.020949,0.039462,0.027735,0.025448,0.022913,0.036137,0.021010,0.037445,0.023085,0.033543,0.028060,0.016276,0.027663,0.014136,0.032417,0.026114,0.031281,0.069072,0.048896,0.040202,0.050995,0.043025,0.054952,0.026032,0.026676
1738754857.736435,1738754857.737018,47.000000,0.000000,4320.000000,4352.692383,4254.743652,4302.179688,4352.179688,4360.256348,4367.692383,4548.974121,4538.846191,4556.922852,4495.384766,5662.051270,4309.743652,4253.717773,0.000000,4.000000,77.000000,,,,0.000000,0.000000,0.000000,0.000000,0.000000,0.000000,0.000000,0.000000,0.000000,0.000000,0.000000,0.000000,0.000000,0.000000,0.000000,0.000000,,,,,,,,,,,,,,,,,,,,,,,,,,,,,,,,,,,,,,,,,,,,,,,,,,,,,,,,,,,,,,,,,,,,,,,,,,,,,,,,,,,,,,,,,,,,,,,,,,,,,,,,,,,,,,,,,,,,,,,,,,,,,,,,,
1738754857.744243,1738754857.744726,48.000000,0.000000,4320.769043,4348.461426,4256.025879,4302.307617,4355.384766,4363.589844,4365.897461,4551.025879,4540.128418,4559.871582,4497.051270,5663.974121,4313.205078,4252.436035,0.000000,4.000000,77.000000,,,,0.000000,0.000000,0.000000,0.000000,0.000000,0.000000,0.000000,0.000000,0.000000,0.000000,0.000000,0.000000,0.000000,0.000000,0.000000,0.000000,,,,,,,,,,,,,,,,,12.000000,0.000000,0.785376,-0.615479,-0.060242,0.027222,0.063484,-0.972775,0.236845,4.018410,-15.230241,22.716892,,,,,,,,,,,,,,,,,,,,,,,,,,,,,,,,,,,,,,,,,,,,,,,,,,,,,,,,,,,,,,,,,,,,,,,,,,,,,,,,,,,,,,,,,,,,,,,,,,,,,
1738754857.752051,1738754857.752534,49.000000,0.000000,4321.538574,4349.743652,4256.794922,4303.589844,4352.051270,4362.436035,4366.025879,4549.743652,4540.000000,4560.512695,4498.077148,5665.256348,4315.384766,4257.692383,0.000000,4.000000,77.000000,,,,0.000000,0.000000,0.000000,0.000000,0.000000,0.000000,0.000000,0.000000,0.000000,0.000000,0.000000,0.000000,0.000000,0.000000,0.000000,0.000000,,,,,,,,,,,,,,,,,,,,,,,,,,,,,,,,,,,,,,,,,,,,,,,,,,,,,,,,,,,,,,,,,,,,,,,,,,,,,,,,,,,,,,,,,,,,,,,,,,,,,,,,,,,,,,,,,,,,,,,,,,,,,,,,,
1738754857.759859,1738754857.760242,50.000000,0.000000,4321.282227,4352.179688,4253.846191,4304.102539,4350.512695,4362.051270,4366.282227,4549.615234,4539.615234,4556.922852,4497.563965,5666.410156,4310.384766,4260.128418,0.000000,4.000000,77.000000,,,,0.000000,0.000000,0.000000,0.000000,0.000000,0.000000,0.000000,0.000000,0.000000,0.000000,0.000000,0.000000,0.000000,0.000000,0.000000,0.000000,,,,,,,,,,,,,,,,,,,,,,,,,,,,,,,,,,,,,,,,,,,,,,,,,,,,,,,,,,,,,,,,,,,,,,,,,,,,,,,,,,,,,,,,,,,,,,,,,,,,,,,,,,,,,,,,,,,,,,,,,,,,,,,,,
1738754857.767667,1738754857.768050,51.000000,0.000000,4321.153809,4349.615234,4250.256348,4301.666504,4352.948730,4362.307617,4365.256348,4549.358887,4537.820313,4558.717773,4497.051270,5665.769043,4312.563965,4259.871582,0.000000,4.000000,77.000000,,,,0.000000,0.000000,0.000000,0.000000,0.000000,0.000000,0.000000,0.000000,0.000000,0.000000,0.000000,0.000000,0.000000,0.000000,0.000000,0.000000,,,,,,,,,,,,,,,,,,,,,,,,,,,,,,,,,,,,,,,,,,,,,,,,,,,,,,,,,,,,,,,,,,,,,,,,,,,,,,,,,,,,,,,,,,,,,,,,,,,,,,,,,,,,,,,,,,,,,,,,,,,,,,,,,
1738754857.775475,1738754857.775758,52.000000,0.000000,4321.794922,4349.230957,4252.179688,4300.256348,4351.666504,4360.641113,4366.025879,4550.897461,4537.179688,4561.025879,4495.769043,5662.179688,4317.179688,4258.717773,0.000000,4.000000,77.000000,,,,0.000000,0.000000,0.000000,0.000000,0.000000,0.000000,0.000000,0.000000,0.000000,0.000000,0.000000,0.000000,0.000000,0.000000,0.000000,0.000000,,,,,,,,,,,,,,,,,13.000000,0.000000,0.785474,-0.615356,-0.060242,0.027161,0.066903,-0.979123,0.234892,4.066569,-15.190551,22.811869,,,,,,,,,,,,,,,,,,,,,,,,,,,,,,,,,,,,,,,,,,,,,,,,,,,,,,,,,,,,,,,,,,,,,,,,,,,,,,,,,,,,,,,,,,,,,,,,,,,,,
1738754857.783283,1738754857.783566,53.000000,0.000000,4322.692383,4350.897461,4254.615234,4303.077148,4350.000000,4359.487305,4367.307617,4552.436035,4539.871582,4558.333496,4496.794922,5660.641113,4311.025879,4255.897461,0.000000,4.000000,77.000000,,,,0.000000,0.000000,0.000000,0.000000,0.000000,0.000000,0.000000,0.000000,0.000000,0.000000,0.000000,0.000000,0.000000,0.000000,0.000000,0.000000,,,,,,,,,,,,,,,,,,,,,,,,,,,,,,,,,,,,,,,,,,,,,,,,,,,,,,,,,,,,,,,,,,,,,,,,,,,,,,,,,,,,,,,,,,,,,,,,,,,,,,,,,,,,,,,,,,,,,,,,,,,,,,,,,
1738754857.791091,1738754857.791274,54.000000,0.000000,4323.461426,4350.384766,4253.077148,4302.563965,4351.282227,4360.512695,4366.794922,4549.102539,4542.692383,4558.846191,4499.487305,5662.436035,4308.333496,4255.512695,0.000000,4.000000,77.000000,,,,0.000000,0.000000,0.000000,0.000000,0.000000,0.000000,0.000000,0.000000,0.000000,0.000000,0.000000,0.000000,0.000000,0.000000,0.000000,0.000000,,,,,,,,,,,,,,,,,,,,,,,,,,,,,,,,,,,,,,,,,,,,,,,,,,,,,,,,,,,,,,,,,,,,,,,,,,,,,,,,,,,,,,,,,,,,,,,,,,,,,,,,,,,,,,,,,,,,,,,,,,,,,,,,,
1738754857.798900,1738754857.799182,55.000000,0.000000,4322.820313,4348.717773,4252.948730,4303.077148,4351.538574,4362.948730,4367.307617,4548.333496,4540.641113,4560.384766,4497.179688,5662.563965,4311.410156,4257.436035,0.000000,4.000000,77.000000,,,,0.000000,0.000000,0.000000,0.000000,0.000000,0.000000,0.000000,0.000000,0.000000,0.000000,0.000000,0.000000,0.000000,0.000000,0.000000,0.000000,,,,,,,,,,,,,,,,,,,,,,,,,,,,,,,,,,,,,,,,,,,,,,,,,,,,,,,,,,,,,,,,,,,,,,,,,,,,,,,,,,,,,,,,,,,,,,,,,,,,,,,,,,,,,,,,,,,,,,,,,,,,,,,,,
1738754857.806708,1738754857.806990,56.000000,0.000000,4320.641113,4349.358887,4254.102539,4302.820313,4353.333496,4362.692383,4368.077148,4551.922852,4538.589844,4559.615234,4496.410156,5662.307617,4314.230957,4257.307617,0.000000,4.000000,77.000000,,,,0.000000,0.000000,0.000000,0.000000,0.000000,0.000000,0.000000,0.000000,0.000000,0.000000,0.000000,0.000000,0.000000,0.000000,0.000000,0.000000,,,,,,,,,,,,,,,,,14.000000,0.000000,0.785474,-0.615356,-0.060303,0.027039,0.050787,-0.975705,0.231962,4.059912,-15.188162,22.880682,,,,,,,,,,,,,,,,,,,,,,,,,,,,,,,,,,,,,,,,,,,,,,,,,,,,,,,,,,,,,,,,,,,,,,,,,,,,,,,,,,,,,,,,,,,,,,,,,,,,,
1738754857.814516,1738754857.814898,57.000000,0.000000,4321.025879,4351.666504,4252.820313,4300.769043,4354.230957,4359.230957,4367.051270,4553.077148,4539.743652,4559.102539,4499.358887,5665.128418,4312.563965,4254.743652,0.000000,4.000000,77.000000,,,,0.000000,0.000000,0.000000,0.000000,0.000000,0.000000,0.000000,0.000000,0.000000,0.000000,0.000000,0.000000,0.000000,0.000000,0.000000,0.000000,,,,,,,,,,,,,,,,,,,,,,,,,,,,,,,,,,,,,,,,,,,,,,,,,,,,,,,,,,,,,,,,,,,,,,,,,,,,,,,,,,,,,,,,,,,,,,,,,,,,,,,,,,,,,,,,,,,,,,,,,,,,,,,,,
1738754857.822324,1738754857.822707,58.000000,0.000000,4322.692383,4349.487305,4253.589844,4303.974121,4349.743652,4359.615234,4365.384766,4551.410156,4540.128418,4558.717773,4496.922852,5665.128418,4307.436035,4254.102539,0.000000,4.000000,77.000000,,,,0.000000,0.000000,0.000000,0.000000,0.000000,0.000000,0.000000,0.000000,0.000000,0.000000,0.000000,0.000000,0.000000,0.000000,0.000000,0.000000,,,,,,,,,,,,,,,,,,,,,,,,,,,,,,,,,,,,,,,,,,,,,,,,,,,,,,,,,,,,,,,,,,,,,,,,,,,,,,,,,,,,,,,,,,,,,,,,,,,,,,,,,,,,,,,,,,,,,,,,,,,,,,,,,
1738754857.830132,1738754857.830615,59.000000,0.000000,4321.025879,4346.538574,4252.948730,4306.538574,4348.717773,4361.922852,4363.974121,4550.641113,4540.000000,4559.487305,4492.692383,5662.436035,4311.794922,4254.743652,0.000000,4.000000,77.000000,,,,0.000000,0.000000,0.000000,0.000000,0.000000,0.000000,0.000000,0.000000,0.000000,0.000000,0.000000,0.000000,0.000000,0.000000,0.000000,0.000000,,,,,,,,,,,,,,,,,,,,,,,,,,,,,,,,,,,,,,,,,,,,,,,,,,,,,,,,,,,,,,,,,,,,,,,,,,,,,,,,,,,,,,,,,,,,,,,,,,,,,,,,,,,,,,,,,,,,,,,,,,,,,,,,,
1738754857.837940,1738754857.838423,60.000000,0.000000,4319.871582,4348.589844,4250.128418,4302.948730,4353.717773,4359.743652,4367.948730,4552.563965,4540.769043,4558.077148,4493.205078,5665.769043,4312.948730,4255.128418,0.000000,4.000000,77.000000,,,,0.000000,0.000000,0.000000,0.000000,0.000000,0.000000,0.000000,0.000000,0.000000,0.000000,0.000000,0.000000,0.000000,0.000000,0.000000,0.000000,,,,,,,,,,,,,,,,,15.000000,0.000000,0.785485,-0.615356,-0.060242,0.026855,0.055183,-0.981565,0.240264,4.053921,-15.186012,23.059280,,,,,,,,,,,,,,,,,,,,,,,,,,,,,,,,,,,,,,,,,,,,,,,,,,,,,,,,,,,,,,,,,,,,,,,,,,,,,,,,,,,,,,,,,,,,,,,,,,,,,
1738754857.845748,1738754857.846331,61.000000,0.000000,4321.153809,4350.128418,4252.692383,4299.102539,4353.974121,4358.846191,4368.717773,4552.436035,4541.153809,4555.641113,4497.179688,5667.179688,4307.563965,4259.230957,0.000000,4.000000,77.000000,,,,0.000000,0.000000,0.000000,0.000000,0.000000,0.000000,0.000000,0.000000,0.000000,0.000000,0.000000,0.000000,0.000000,0.000000,0.000000,0.000000,,,,,,,,,,,,,,,,,,,,,,,,,,,,,,,,,,,,,,,,,,,,,,,,,,,,,,,,,,,,,,,,,,,,,,,,,,,,,,,,,,,,,,,,,,,,,,,,,,,,,,,,,,,,,,,,,,,,,,,,,,,,,,,,,
1738754857.853556,1738754857.854139,62.000000,0.000000,4320.256348,4348.974121,4254.743652,4301.282227,4351.922852,4361.153809,4363.205078,4549.615234,4539.743652,4557.436035,4497.820313,5663.717773,4307.051270,4258.717773,0.000000,4.000000,77.000000,,,,0.000000,0.000000,0.000000,0.000000,0.000000,0.000000,0.000000,0.000000,0.000000,0.000000,0.000000,0.000000,0.000000,0.000000,0.000000,0.000000,,,,,,,,,,,,,,,,,,,,,,,,,,,,,,,,,,,,,,,,,,,,,,,,,,,,,,,,,,,,0.030803,0.025977,0.020567,0.022429,0.022790,0.045838,0.010633,0.015423,0.028497,0.024557,0.047354,0.016457,0.024134,0.028393,0.036487,0.049991,0.022314,0.016753,0.012572,0.018542,0.042940,0.049205,0.045079,0.026722,0.030179,0.011194,0.012143,0.017157,0.018297,0.030113,0.036907,0.047030,0.022592,0.032286,0.032185,0.026874,0.027200,0.013562,0.022566,0.034308,0.012756,0.033787,0.016345,0.011686,0.019973,0.025771,0.042689,0.030810,0.026747,0.018985,0.028676,0.020153,0.032168,0.024397,0.032394,0.024002,0.015647,0.028137,0.012941,0.033416,0.023685,0.032703,0.076514,0.054227,0.042540,0.050696,0.038067,0.046157,0.022912,0.028222
1738754857.861364,1738754857.862047,63.000000,0.000000,4320.512695,4350.384766,4251.538574,4302.563965,4353.974121,4360.641113,4364.871582,4550.512695,4539.358887,4558.974121,4494.358887,5666.025879,4308.846191,4251.666504,0.000000,4.000000,77.000000,,,,0.000000,0.000000,0.000000,0.000000,0.000000,0.000000,0.000000,0.000000,0.000000,0.000000,0.000000,0.000000,0.000000,0.000000,0.000000,0.000000,,,,,,,,,,,,,,,,,,,,,,,,,,,,,,,,,,,,,,,,,,,,,,,,,,,,,,,,,,,,,,,,,,,,,,,,,,,,,,,,,,,,,,,,,,,,,,,,,,,,,,,,,,,,,,,,,,,,,,,,,,,,,,,,,
1738754857.869172,1738754857.869855,64.000000,0.000000,4324.743652,4351.282227,4251.282227,4299.615234,4354.230957,4360.897461,4366.666504,4552.051270,4539.743652,4558.333496,4496.666504,5666.153809,4310.000000,4254.102539,0.000000,4.000000,77.000000,,,,0.000000,0.000000,0.000000,0.000000,0.000000,0.000000,0.000000,0.000000,0.000000,0.000000,0.000000,0.000000,0.000000,0.000000,0.000000,0.000000,,,,,,,,,,,,,,,,,16.000000,0.000000,0.785487,-0.615356,-0.060242,0.026794,0.060066,-0.963008,0.231962,4.081862,-15.184078,23.136686,,,,,,,,,,,,,,,,,,,,,,,,,,,,,,,,,,,,,,,,,,,,,,,,,,,,,,,,,,,,,,,,,,,,,,,,,,,,,,,,,,,,,,,,,,,,,,,,,,,,,
1738754857.876980,1738754857.877664,65.000000,0.000000,4326.666504,4348.589844,4253.205078,4300.641113,4351.538574,4362.820313,4364.358887,4551.922852,4536.282227,4558.974121,4499.871582,5662.179688,4306.666504,4258.205078,0.000000,4.000000,77.000000,,,,0.000000,0.000000,0.000000,0.000000,0.000000,0.000000,0.000000,0.000000,0.000000,0.000000,0.000000,0.000000,0.000000,0.000000,0.000000,0.000000,,,,,,,,,,,,,,,,,,,,,,,,,,,,,,,,,,,,,,,,,,,,,,,,,,,,,,,,,,,,,,,,,,,,,,,,,,,,,,,,,,,,,,,,,,,,,,,,,,,,,,,,,,,,,,,,,,,,,,,,,,,,,,,,,
1738754857.884789,1738754857.885472,66.000000,0.000000,4322.948730,4348.717773,4252.307617,4302.563965,4349.615234,4361.666504,4364.487305,4550.000000,4535.384766,4560.512695,4497.563965,5660.769043,4306.794922,4254.871582,0.000000,4.000000,77.000000,,,,0.000000,0.000000,0.000000,0.000000,0.000000,0.000000,0.000000,0.000000,0.000000,0.000000,0.000000,0.000000,0.000000,0.000000,0.000000,0.000000,,,,,,,,,,,,,,,,,,,,,,,,,,,,,,,,,,,,,,,,,,,,,,,,,,,,,,,,,,,,,,,,,,,,,,,,,,,,,,,,,,,,,,,,,,,,,,,,,,,,,,,,,,,,,,,,,,,,,,,,,,,,,,,,,
1738754857.892597,1738754857.893180,67.000000,0.000000,4321.282227,4351.282227,4251.410156,4302.179688,4348.205078,4358.717773,4364.230957,4547.051270,4538.333496,4560.384766,4496.666504,5661.410156,4310.769043,4255.897461,0.000000,4.000000,77.000000,,,,0.000000,0.000000,0.000000,0.000000,0.000000,0.000000,0.000000,0.000000,0.000000,0.000000,0.000000,0.000000,0.000000,0.000000,0.000000,0.000000,,,,,,,,,,,,,,,,,,,,,,,,,,,,,,,,,,,,,,,,,,,,,,,,,,,,,,,,,,,,,,,,,,,,,,,,,,,,,,,,,,,,,,,,,,,,,,,,,,,,,,,,,,,,,,,,,,,,,,,,,,,,,,,,,
1738754857.900405,1738754857.900988,68.000000,0.000000,4322.179688,4350.000000,4254.102539,4302.948730,4348.717773,4358.846191,4363.205078,4548.333496,4538.333496,4560.128418,4499.102539,5663.846191,4309.871582,4256.922852,0.000000,4.000000,77.000000,,,,0.000000,0.000000,0.000000,0.000000,0.000000,0.000000,0.000000,0.000000,0.000000,0.000000,0.000000,0.000000,0.000000,0.000000,0.000000,0.000000,,,,,,,,,,,,,,,,,17.000000,0.000000,0.785491,-0.615356,-0.060242,0.026672,0.062019,-0.982542,0.249054,4.240343,-15.182337,23.123018,,,,,,,,,,,,,,,,,,,,,,,,,,,,,,,,,,,,,,,,,,,,,,,,,,,,,,,,,,,,,,,,,,,,,,,,,,,,,,,,,,,,,,,,,,,,,,,,,,,,,
1738754857.908213,1738754857.908696,69.000000,0.000000,4320.384766,4348.974121,4256.538574,4303.205078,4351.538574,4359.230957,4363.846191,4549.358887,4538.333496,4560.384766,4496.410156,5664.102539,4308.974121,4252.179688,0.000000,4.000000,77.000000,,,,0.000000,0.000000,0.000000,0.000000,0.000000,0.000000,0.000000,0.000000,0.000000,0.000000,0.000000,0.000000,0.000000,0.000000,0.000000,0.000000,,,,,,,,,,,,,,,,,,,,,,,,,,,,,,,,,,,,,,,,,,,,,,,,,,,,,,,,,,,,,,,,,,,,,,,,,,,,,,,,,,,,,,,,,,,,,,,,,,,,,,,,,,,,,,,,,,,,,,,,,,,,,,,,,
1738754857.916021,1738754857.916504,70.000000,0.000000,4320.769043,4351.025879,4254.615234,4303.077148,4352.948730,4360.512695,4364.230957,4547.948730,4538.589844,4559.230957,4490.256348,5662.436035,4308.461426,4251.538574,0.000000,4.000000,77.000000,,,,0.000000,0.000000,0.000000,0.000000,0.000000,0.000000,0.000000,0.000000,0.000000,0.000000,0.000000,0.000000,0.000000,0.000000,0.000000,0.000000,,,,,,,,,,,,,,,,,,,,,,,,,,,,,,,,,,,,,,,,,,,,,,,,,,,,,,,,,,,,,,,,,,,,,,,,,,,,,,,,,,,,,,,,,,,,,,,,,,,,,,,,,,,,,,,,,,,,,,,,,,,,,,,,,
1738754857.923829,1738754857.924212,71.000000,0.000000,4324.358887,4349.743652,4251.025879,4302.820313,4353.333496,4360.897461,4362.692383,4548.333496,4537.179688,4559.230957,4493.077148,5663.461426,4311.025879,4256.410156,0.000000,4.000000,77.000000,,,,0.000000,0.000000,0.000000,0.000000,0.000000,0.000000,0.000000,0.000000,0.000000,0.000000,0.000000,0.000000,0.000000,0.000000,0.000000,0.000000,,,,,,,,,,,,,,,,,,,,,,,,,,,,,,,,,,,,,,,,,,,,,,,,,,,,,,,,,,,,,,,,,,,,,,,,,,,,,,,,,,,,,,,,,,,,,,,,,,,,,,,,,,,,,,,,,,,,,,,,,,,,,,,,,
1738754857.931637,1738754857.932020,72.000000,0.000000,4324.230957,4347.692383,4250.897461,4302.436035,4352.948730,4359.358887,4364.230957,4550.384766,4537.436035,4560.512695,4498.717773,5664.487305,4314.487305,4256.153809,0.000000,4.000000,77.000000,,,,0.000000,0.000000,0.000000,0.000000,0.000000,0.000000,0.000000,0.000000,0.000000,0.000000,0.000000,0.000000,0.000000,0.000000,0.000000,0.000000,,,,,,,,,,,,,,,,,18.000000,0.000000,0.785491,-0.615356,-0.060242,0.026672,0.064461,-0.980100,0.231474,4.099641,-15.330770,23.260715,,,,,,,,,,,,,,,,,,,,,,,,,,,,,,,,,,,,,,,,,,,,,,,,,,,,,,,,,,,,,,,,,,,,,,,,,,,,,,,,,,,,,,,,,,,,,,,,,,,,,
1738754857.939445,1738754857.939728,73.000000,0.000000,4321.922852,4349.230957,4254.358887,4302.563965,4351.538574,4360.512695,4367.948730,4551.025879,4539.487305,4559.487305,4497.436035,5663.205078,4310.641113,4253.077148,0.000000,4.000000,77.000000,,,,0.000000,0.000000,0.000000,0.000000,0.000000,0.000000,0.000000,0.000000,0.000000,0.000000,0.000000,0.000000,0.000000,0.000000,0.000000,0.000000,,,,,,,,,,,,,,,,,,,,,,,,,,,,,,,,,,,,,,,,,,,,,,,,,,,,,,,,,,,,,,,,,,,,,,,,,,,,,,,,,,,,,,,,,,,,,,,,,,,,,,,,,,,,,,,,,,,,,,,,,,,,,,,,,
1738754857.947253,1738754857.947536,74.000000,0.000000,4318.974121,4350.384766,4256.282227,4302.436035,4350.641113,4361.025879,4366.922852,4549.615234,4541.025879,4558.077148,4494.871582,5662.051270,4310.256348,4255.128418,0.000000,4.000000,77.000000,,,,0.000000,0.000000,0.000000,0.000000,0.000000,0.000000,0.000000,0.000000,0.000000,0.000000,0.000000,0.000000,0.000000,0.000000,0.000000,0.000000,,,,,,,,,,,,,,,,,,,,,,,,,,,,,,,,,,,,,,,,,,,,,,,,,,,,,,,,,,,,,,,,,,,,,,,,,,,,,,,,,,,,,,,,,,,,,,,,,,,,,,,,,,,,,,,,,,,,,,,,,,,,,,,,,
1738754857.955062,1738754857.955244,75.000000,0.000000,4318.461426,4351.410156,4254.230957,4300.384766,4350.641113,4359.743652,4364.743652,4551.153809,4540.256348,4560.256348,4494.615234,5664.358887,4313.077148,4255.897461,0.000000,4.000000,77.000000,,,,0.000000,0.000000,0.000000,0.000000,0.000000,0.000000,0.000000,0.000000,0.000000,0.000000,0.000000,0.000000,0.000000,0.000000,0.000000,0.000000,,,,,,,,,,,,,,,,,,,,,,,,,,,,,,,,,,,,,,,,,,,,,,,,,,,,,,,,,,,,,,,,,,,,,,,,,,,,,,,,,,,,,,,,,,,,,,,,,,,,,,,,,,,,,,,,,,,,,,,,,,,,,,,,,
1738754857.962870,1738754857.963052,76.000000,0.000000,4321.794922,4353.205078,4253.077148,4300.384766,4350.641113,4360.128418,4364.615234,4553.205078,4539.871582,4562.820313,4496.025879,5666.025879,4310.769043,4253.589844,0.000000,4.000000,77.000000,,,,0.000000,0.000000,0.000000,0.000000,0.000000,0.000000,0.000000,0.000000,0.000000,0.000000,0.000000,0.000000,0.000000,0.000000,0.000000,0.000000,,,,,,,,,,,,,,,,,19.000000,0.000000,0.785443,-0.615417,-0.060242,0.026672,0.057136,-0.964473,0.236845,4.023011,-15.331026,23.217978,,,,,,,,,,,,,,,,,,,,,,,,,,,,,,,,,,,,,,,,,,,,,,,,,,,,,,,,,,,,,,,,,,,,,,,,,,,,,,,,,,,,,,,,,,,,,,,,,,,,,
1738754857.970678,1738754857.970760,77.000000,0.000000,4322.948730,4350.769043,4255.000000,4302.820313,4351.025879,4358.974121,4364.230957,4550.128418,4542.692383,4561.282227,4496.922852,5663.461426,4310.769043,4255.512695,0.000000,4.000000,77.000000,,,,0.000000,0.000000,0.000000,0.000000,0.000000,0.000000,0.000000,0.000000,0.000000,0.000000,0.000000,0.000000,0.000000,0.000000,0.000000,0.000000,,,,,,,,,,,,,,,,,,,,,,,,,,,,,,,,,,,,,,,,,,,,,,,,,,,,,,,,,,,,,,,,,,,,,,,,,,,,,,,,,,,,,,,,,,,,,,,,,,,,,,,,,,,,,,,,,,,,,,,,,,,,,,,,,
1738754857.978486,1738754857.978568,78.000000,0.000000,4322.820313,4348.461426,4255.384766,4304.230957,4352.179688,4356.922852,4362.948730,4549.743652,4540.897461,4558.717773,4495.897461,5664.358887,4313.077148,4256.282227,0.000000,4.000000,77.000000,,,,0.000000,0.000000,0.000000,0.000000,0.000000,0.000000,0.000000,0.000000,0.000000,0.000000,0.000000,0.000000,0.000000,0.000000,0.000000,0.000000,,,,,,,,,,,,,,,,,,,,,,,,,,,,,,,,,,,,,,,,,,,,,,,,,,,,,,,,,,,,0.033216,0.026692,0.018646,0.018757,0.022287,0.045345,0.010430,0.014420,0.026890,0.023929,0.055696,0.014724,0.021749,0.030747,0.040152,0.046414,0.024320,0.016269,0.012171,0.020985,0.042790,0.050970,0.045060,0.026755,0.027773,0.011320,0.011808,0.016389,0.015570,0.030635,0.032114,0.048488,0.022542,0.040193,0.030123,0.034000,0.027210,0.021418,0.022073,0.033979,0.013032,0.035918,0.015083,0.011999,0.022851,0.029851,0.043558,0.030759,0.026707,0.015842,0.021964,0.018432,0.024600,0.025701,0.030789,0.019015,0.016128,0.028672,0.012278,0.035460,0.023673,0.032151,0.078019,0.056514,0.043609,0.050700,0.032299,0.036057,0.020819,0.029725
1738754857.986294,1738754857.986276,79.000000,0.000000,4324.615234,4350.512695,4250.000000,4303.589844,4351.538574,4358.077148,4360.897461,4552.692383,4538.974121,4560.000000,4496.153809,5665.000000,4313.974121,4253.205078,0.000000,4.000000,77.000000,,,,0.000000,0.000000,0.000000,0.000000,0.000000,0.000000,0.000000,0.000000,0.000000,0.000000,0.000000,0.000000,0.000000,0.000000,0.000000,0.000000,,,,,,,,,,,,,,,,,,,,,,,,,,,,,,,,,,,,,,,,,,,,,,,,,,,,,,,,,,,,,,,,,,,,,,,,,,,,,,,,,,,,,,,,,,,,,,,,,,,,,,,,,,,,,,,,,,,,,,,,,,,,,,,,,
1738754857.994102,1738754857.994084,80.000000,0.000000,4322.307617,4351.153809,4248.717773,4302.179688,4348.333496,4359.230957,4365.512695,4551.282227,4541.153809,4560.512695,4496.410156,5661.794922,4311.922852,4254.487305,0.000000,4.000000,77.000000,,,,0.000000,0.000000,0.000000,0.000000,0.000000,0.000000,0.000000,0.000000,0.000000,0.000000,0.000000,0.000000,0.000000,0.000000,0.000000,0.000000,,,,,,,,,,,,,,,,,20.000000,0.000000,0.785443,-0.615417,-0.060242,0.026672,0.055671,-0.973263,0.232450,4.120709,-15.381257,23.229513,,,,,,,,,,,,,,,,,,,,,,,,,,,,,,,,,,,,,,,,,,,,,,,,,,,,,,,,,,,,,,,,,,,,,,,,,,,,,,,,,,,,,,,,,,,,,,,,,,,,,
1738754858.001910,1738754858.001792,81.000000,0.000000,4318.717773,4348.846191,4253.589844,4302.307617,4348.974121,4358.205078,4370.128418,4549.358887,4539.230957,4558.461426,4495.897461,5661.922852,4308.974121,4256.025879,0.000000,4.000000,77.000000,,,,0.000000,0.000000,0.000000,0.000000,0.000000,0.000000,0.000000,0.000000,0.000000,0.000000,0.000000,0.000000,0.000000,0.000000,0.000000,0.000000,,,,,,,,,,,,,,,,,,,,,,,,,,,,,,,,,,,,,,,,,,,,,,,,,,,,,,,,,,,,,,,,,,,,,,,,,,,,,,,,,,,,,,,,,,,,,,,,,,,,,,,,,,,,,,,,,,,,,,,,,,,,,,,,,
1738754858.009718,1738754858.009700,82.000000,0.000000,4321.666504,4350.128418,4253.974121,4303.974121,4351.282227,4359.102539,4365.384766,4550.000000,4537.051270,4558.333496,4496.922852,5665.641113,4310.384766,4252.820313,0.000000,4.000000,77.000000,,,,0.000000,0.000000,0.000000,0.000000,0.000000,0.000000,0.000000,0.000000,0.000000,0.000000,0.000000,0.000000,0.000000,0.000000,0.000000,0.000000,,,,,,,,,,,,,,,,,,,,,,,,,,,,,,,,,,,,,,,,,,,,,,,,,,,,,,,,,,,,,,,,,,,,,,,,,,,,,,,,,,,,,,,,,,,,,,,,,,,,,,,,,,,,,,,,,,,,,,,,,,,,,,,,,
1738754858.017526,1738754858.017509,83.000000,0.000000,4326.025879,4350.641113,4253.974121,4305.000000,4349.871582,4359.871582,4362.436035,4550.128418,4538.461426,4558.077148,4498.461426,5668.077148,4309.230957,4252.563965,0.000000,4.000000,77.000000,,,,0.000000,0.000000,0.000000,0.000000,0.000000,0.000000,0.000000,0.000000,0.000000,0.000000,0.000000,0.000000,0.000000,0.000000,0.000000,0.000000,,,,,,,,,,,,,,,,,,,,,,,,,,,,,,,,,,,,,,,,,,,,,,,,,,,,,,,,,,,,,,,,,,,,,,,,,,,,,,,,,,,,,,,,,,,,,,,,,,,,,,,,,,,,,,,,,,,,,,,,,,,,,,,,,
1738754858.025334,1738754858.025417,84.000000,0.000000,4322.051270,4348.205078,4256.794922,4304.102539,4347.563965,4358.077148,4364.102539,4549.743652,4540.769043,4557.307617,4496.922852,5662.948730,4309.615234,4258.205078,0.000000,4.000000,77.000000,,,,0.000000,0.000000,0.000000,0.000000,0.000000,0.000000,0.000000,0.000000,0.000000,0.000000,0.000000,0.000000,0.000000,0.000000,0.000000,0.000000,,,,,,,,,,,,,,,,,21.000000,0.000000,0.785395,-0.615479,-0.060242,0.026672,0.061043,-0.977170,0.231474,4.108639,-15.493131,23.089895,,,,,,,,,,,,,,,,,,,,,,,,,,,,,,,,,,,,,,,,,,,,,,,,,,,,,,,,,,,,,,,,,,,,,,,,,,,,,,,,,,,,,,,,,,,,,,,,,,,,,
1738754858.033142,1738754858.033225,85.000000,0.000000,4317.820313,4347.820313,4256.410156,4303.205078,4348.717773,4358.077148,4363.077148,4551.153809,4540.000000,4560.897461,4496.025879,5659.615234,4312.948730,4258.461426,0.000000,4.000000,77.000000,,,,0.000000,0.000000,0.000000,0.000000,0.000000,0.000000,0.000000,0.000000,0.000000,0.000000,0.000000,0.000000,0.000000,0.000000,0.000000,0.000000,,,,,,,,,,,,,,,,,,,,,,,,,,,,,,,,,,,,,,,,,,,,,,,,,,,,,,,,,,,,,,,,,,,,,,,,,,,,,,,,,,,,,,,,,,,,,,,,,,,,,,,,,,,,,,,,,,,,,,,,,,,,,,,,,
1738754858.040951,1738754858.041133,86.000000,0.000000,4322.436035,4347.692383,4253.333496,4302.563965,4351.153809,4360.512695,4361.153809,4551.922852,4537.436035,4562.820313,4497.179688,5665.641113,4310.769043,4255.512695,0.000000,4.000000,77.000000,,,,0.000000,0.000000,0.000000,0.000000,0.000000,0.000000,0.000000,0.000000,0.000000,0.000000,0.000000,0.000000,0.000000,0.000000,0.000000,0.000000,,,,,,,,,,,,,,,,,,,,,,,,,,,,,,,,,,,,,,,,,,,,,,,,,,,,,,,,,,,,,,,,,,,,,,,,,,,,,,,,,,,,,,,,,,,,,,,,,,,,,,,,,,,,,,,,,,,,,,,,,,,,,,,,,
1738754858.048759,1738754858.048941,87.000000,0.000000,4324.871582,4348.846191,4251.410156,4300.256348,4351.153809,4360.641113,4360.769043,4551.922852,4537.692383,4560.256348,4496.538574,5668.205078,4311.922852,4257.051270,0.000000,4.000000,77.000000,,,,0.000000,0.000000,0.000000,0.000000,0.000000,0.000000,0.000000,0.000000,0.000000,0.000000,0.000000,0.000000,0.000000,0.000000,0.000000,0.000000,,,,,,,,,,,,,,,,,,,,,,,,,,,,,,,,,,,,,,,,,,,,,,,,,,,,,,,,,,,,,,,,,,,,,,,,,,,,,,,,,,,,,,,,,,,,,,,,,,,,,,,,,,,,,,,,,,,,,,,,,,,,,,,,,
1738754858.056567,1738754858.056849,88.000000,0.000000,4321.922852,4350.256348,4251.538574,4303.461426,4350.000000,4357.948730,4364.102539,4553.333496,4540.256348,4559.230957,4495.897461,5665.641113,4309.743652,4254.230957,0.000000,4.000000,77.000000,,,,0.000000,0.000000,0.000000,0.000000,0.000000,0.000000,0.000000,0.000000,0.000000,0.000000,0.000000,0.000000,0.000000,0.000000,0.000000,0.000000,,,,,,,,,,,,,,,,,22.000000,0.000000,0.785397,-0.615479,-0.060242,0.026611,0.058601,-0.966427,0.242705,4.214441,-15.327151,23.080906,,,,,,,,,,,,,,,,,,,,,,,,,,,,,,,,,,,,,,,,,,,,,,,,,,,,,,,,,,,,,,,,,,,,,,,,,,,,,,,,,,,,,,,,,,,,,,,,,,,,,
1738754858.064375,1738754858.064657,89.000000,0.000000,4322.179688,4349.102539,4254.358887,4306.025879,4349.230957,4357.179688,4367.436035,4551.794922,4539.743652,4559.871582,4497.051270,5664.358887,4307.563965,4251.922852,0.000000,4.000000,77.000000,,,,0.000000,0.000000,0.000000,0.000000,0.000000,0.000000,0.000000,0.000000,0.000000,0.000000,0.000000,0.000000,0.000000,0.000000,0.000000,0.000000,,,,,,,,,,,,,,,,,,,,,,,,,,,,,,,,,,,,,,,,,,,,,,,,,,,,,,,,,,,,,,,,,,,,,,,,,,,,,,,,,,,,,,,,,,,,,,,,,,,,,,,,,,,,,,,,,,,,,,,,,,,,,,,,,
1738754858.072183,1738754858.072566,90.000000,0.000000,4323.974121,4347.948730,4256.410156,4301.282227,4353.333496,4358.974121,4365.641113,4549.230957,4536.794922,4559.487305,4498.589844,5664.743652,4314.743652,4254.743652,0.000000,4.000000,77.000000,,,,0.000000,0.000000,0.000000,0.000000,0.000000,0.000000,0.000000,0.000000,0.000000,0.000000,0.000000,0.000000,0.000000,0.000000,0.000000,0.000000,,,,,,,,,,,,,,,,,,,,,,,,,,,,,,,,,,,,,,,,,,,,,,,,,,,,,,,,,,,,,,,,,,,,,,,,,,,,,,,,,,,,,,,,,,,,,,,,,,,,,,,,,,,,,,,,,,,,,,,,,,,,,,,,,
1738754858.079991,1738754858.080374,91.000000,0.000000,4323.846191,4352.436035,4255.000000,4301.410156,4353.974121,4360.512695,4364.358887,4551.538574,4536.794922,4559.871582,4498.461426,5666.538574,4312.692383,4253.461426,0.000000,4.000000,77.000000,,,,0.000000,0.000000,0.000000,0.000000,0.000000,0.000000,0.000000,0.000000,0.000000,0.000000,0.000000,0.000000,0.000000,0.000000,0.000000,0.000000,,,,,,,,,,,,,,,,,,,,,,,,,,,,,,,,,,,,,,,,,,,,,,,,,,,,,,,,,,,,,,,,,,,,,,,,,,,,,,,,,,,,,,,,,,,,,,,,,,,,,,,,,,,,,,,,,,,,,,,,,,,,,,,,,
1738754858.087799,1738754858.088282,92.000000,0.000000,4323.461426,4355.384766,4252.948730,4305.512695,4348.717773,4360.897461,4366.666504,4552.051270,4538.077148,4560.384766,4497.563965,5664.871582,4310.384766,4254.615234,0.000000,4.000000,77.000000,,,,0.000000,0.000000,0.000000,0.000000,0.000000,0.000000,0.000000,0.000000,0.000000,0.000000,0.000000,0.000000,0.000000,0.000000,0.000000,0.000000,,,,,,,,,,,,,,,,,23.000000,0.000000,0.785400,-0.615479,-0.060181,0.026672,0.057136,-0.965450,0.237334,4.292997,-15.377769,23.106148,,,,,,,,,,,,,,,,,,,,,,,,,,,,,,,,,,,,,,,,,,,,,,,,,,,,,,,,,,,,,,,,,,,,,,,,,,,,,,,,,,,,,,,,,,,,,,,,,,,,,
1738754858.095607,1738754858.096090,93.000000,0.000000,4323.205078,4348.205078,4253.589844,4303.717773,4350.641113,4360.897461,4367.179688,4549.871582,4538.461426,4558.717773,4495.512695,5662.948730,4313.077148,4256.794922,0.000000,4.000000,77.000000,,,,0.000000,0.000000,0.000000,0.000000,0.000000,0.000000,0.000000,0.000000,0.000000,0.000000,0.000000,0.000000,0.000000,0.000000,0.000000,0.000000,,,,,,,,,,,,,,,,,,,,,,,,,,,,,,,,,,,,,,,,,,,,,,,,,,,,,,,,,,,,,,,,,,,,,,,,,,,,,,,,,,,,,,,,,,,,,,,,,,,,,,,,,,,,,,,,,,,,,,,,,,,,,,,,,
1738754858.103415,1738754858.103798,94.000000,0.000000,4321.794922,4344.358887,4256.282227,4299.487305,4354.871582,4361.538574,4362.948730,4550.000000,4538.077148,4558.846191,4493.461426,5663.205078,4312.307617,4253.846191,0.000000,4.000000,77.000000,,,,0.000000,0.000000,0.000000,0.000000,0.000000,0.000000,0.000000,0.000000,0.000000,0.000000,0.000000,0.000000,0.000000,0.000000,0.000000,0.000000,1.000000,0.000000,0.000000,0.000000,0.000000,0.000000,0.000000,0.000000,0.000000,0.000000,0.000000,0.000000,0.000000,0.000000,0.000000,0.000000,,,,,,,,,,,,,,,,,,,,,,,,,,,,,,,,,,,,,,,,,,,,0.038139,0.026672,0.015009,0.014971,0.021653,0.042988,0.011372,0.012654,0.024190,0.022360,0.061659,0.013518,0.018538,0.032730,0.041922,0.043760,0.024876,0.018107,0.012766,0.022988,0.040660,0.052593,0.043703,0.027124,0.025922,0.011348,0.012430,0.016455,0.013350,0.029649,0.030154,0.048961,0.021701,0.047718,0.028073,0.043378,0.027659,0.030752,0.021569,0.033368,0.014156,0.039061,0.014643,0.012381,0.025897,0.032932,0.042333,0.027734,0.025679,0.013831,0.018343,0.016356,0.017091,0.026740,0.028976,0.013813,0.018081,0.029168,0.012236,0.038042,0.025773,0.030416,0.073504,0.054341,0.043390,0.051033,0.026528,0.028038,0.020124,0.030939
1738754858.111224,1738754858.111606,95.000000,0.000000,4320.000000,4348.846191,4256.794922,4300.897461,4350.128418,4360.128418,4363.461426,4549.487305,4537.307617,4559.871582,4497.051270,5662.436035,4312.563965,4255.128418,0.000000,4.000000,77.000000,,,,0.000000,0.000000,0.000000,0.000000,0.000000,0.000000,0.000000,0.000000,0.000000,0.000000,0.000000,0.000000,0.000000,0.000000,0.000000,0.000000,,,,,,,,,,,,,,,,,,,,,,,,,,,,,,,,,,,,,,,,,,,,,,,,,,,,,,,,,,,,,,,,,,,,,,,,,,,,,,,,,,,,,,,,,,,,,,,,,,,,,,,,,,,,,,,,,,,,,,,,,,,,,,,,,
1738754858.119032,1738754858.119314,96.000000,0.000000,4320.384766,4349.487305,4252.692383,4304.871582,4347.051270,4358.974121,4366.794922,4548.717773,4537.179688,4559.230957,4499.615234,5662.563965,4310.641113,4258.461426,0.000000,4.000000,77.000000,,,,0.000000,0.000000,0.000000,0.000000,0.000000,0.000000,0.000000,0.000000,0.000000,0.000000,0.000000,0.000000,0.000000,0.000000,0.000000,0.000000,,,,,,,,,,,,,,,,,24.000000,0.000000,0.785352,-0.615540,-0.060181,0.026672,0.051764,-0.976193,0.242705,4.363698,-15.323326,23.045534,,,,,,,,,,,,,,,,,,,,,,,,,,,,,,,,,,,,,,,,,,,,,,,,,,,,,,,,,,,,,,,,,,,,,,,,,,,,,,,,,,,,,,,,,,,,,,,,,,,,,
1738754858.126840,1738754858.127222,97.000000,0.000000,4322.051270,4346.922852,4249.615234,4302.820313,4350.512695,4360.256348,4361.666504,4549.102539,4539.743652,4558.974121,4496.922852,5661.922852,4311.282227,4257.692383,0.000000,4.000000,77.000000,,,,0.000000,0.000000,0.000000,0.000000,0.000000,0.000000,0.000000,0.000000,0.000000,0.000000,0.000000,0.000000,0.000000,0.000000,0.000000,0.000000,,,,,,,,,,,,,,,,,,,,,,,,,,,,,,,,,,,,,,,,,,,,,,,,,,,,,,,,,,,,,,,,,,,,,,,,,,,,,,,,,,,,,,,,,,,,,,,,,,,,,,,,,,,,,,,,,,,,,,,,,,,,,,,,,
1738754858.134648,1738754858.135031,98.000000,0.000000,4325.128418,4348.461426,4253.717773,4300.128418,4352.307617,4360.384766,4362.051270,4549.743652,4542.436035,4558.589844,4494.743652,5662.051270,4313.461426,4256.538574,0.000000,4.000000,77.000000,,,,0.000000,0.000000,0.000000,0.000000,0.000000,0.000000,0.000000,0.000000,0.000000,0.000000,0.000000,0.000000,0.000000,0.000000,0.000000,0.000000,,,,,,,,,,,,,,,,,,,,,,,,,,,,,,,,,,,,,,,,,,,,,,,,,,,,,,,,,,,,,,,,,,,,,,,,,,,,,,,,,,,,,,,,,,,,,,,,,,,,,,,,,,,,,,,,,,,,,,,,,,,,,,,,,
1738754858.142456,1738754858.142939,99.000000,0.000000,4324.230957,4350.512695,4258.333496,4299.615234,4350.897461,4360.128418,4369.487305,4550.256348,4539.487305,4556.538574,4498.205078,5665.256348,4312.051270,4257.051270,0.000000,4.000000,77.000000,,,,0.000000,0.000000,0.000000,0.000000,0.000000,0.000000,0.000000,0.000000,0.000000,0.000000,0.000000,0.000000,0.000000,0.000000,0.000000,0.000000,,,,,,,,,,,,,,,,,,,,,,,,,,,,,,,,,,,,,,,,,,,,,,,,,,,,,,,,,,,,,,,,,,,,,,,,,,,,,,,,,,,,,,,,,,,,,,,,,,,,,,,,,,,,,,,,,,,,,,,,,,,,,,,,,
1738754858.150264,1738754858.150747,100.000000,0.000000,4319.358887,4349.358887,4257.307617,4299.615234,4350.384766,4360.128418,4365.769043,4550.128418,4536.282227,4557.307617,4499.871582,5663.077148,4311.666504,4259.230957,0.000000,4.000000,77.000000,,,,0.000000,0.000000,0.000000,0.000000,0.000000,0.000000,0.000000,0.000000,0.000000,0.000000,0.000000,0.000000,0.000000,0.000000,0.000000,0.000000,,,,,,,,,,,,,,,,,25.000000,0.000000,0.785400,-0.615479,-0.060181,0.026672,0.062019,-0.976193,0.239287,4.277328,-15.257660,22.957647,,,,,,,,,,,,,,,,,,,,,,,,,,,,,,,,,,,,,,,,,,,,,,,,,,,,,,,,,,,,,,,,,,,,,,,,,,,,,,,,,,,,,,,,,,,,,,,,,,,,,
1738754858.158072,1738754858.158655,101.000000,0.000000,4320.512695,4349.102539,4256.282227,4301.922852,4352.307617,4360.000000,4358.333496,4550.769043,4537.436035,4560.000000,4495.128418,5660.128418,4311.794922,4257.307617,0.000000,4.000000,77.000000,,,,0.000000,0.000000,0.000000,0.000000,0.000000,0.000000,0.000000,0.000000,0.000000,0.000000,0.000000,0.000000,0.000000,0.000000,0.000000,0.000000,,,,,,,,,,,,,,,,,,,,,,,,,,,,,,,,,,,,,,,,,,,,,,,,,,,,,,,,,,,,,,,,,,,,,,,,,,,,,,,,,,,,,,,,,,,,,,,,,,,,,,,,,,,,,,,,,,,,,,,,,,,,,,,,,
1738754858.165880,1738754858.166463,102.000000,0.000000,4322.179688,4350.256348,4254.615234,4301.922852,4354.743652,4360.000000,4361.538574,4550.769043,4540.256348,4560.384766,4495.512695,5662.820313,4311.538574,4255.128418,0.000000,4.000000,77.000000,,,,0.000000,0.000000,0.000000,0.000000,0.000000,0.000000,0.000000,0.000000,0.000000,0.000000,0.000000,0.000000,0.000000,0.000000,0.000000,0.000000,,,,,,,,,,,,,,,,,,,,,,,,,,,,,,,,,,,,,,,,,,,,,,,,,,,,,,,,,,,,,,,,,,,,,,,,,,,,,,,,,,,,,,,,,,,,,,,,,,,,,,,,,,,,,,,,,,,,,,,,,,,,,,,,,
1738754858.173688,1738754858.174371,103.000000,0.000000,4319.871582,4348.974121,4253.333496,4302.179688,4351.922852,4361.282227,4367.436035,4550.512695,4541.025879,4559.871582,4498.461426,5664.358887,4308.589844,4256.025879,0.000000,4.000000,77.000000,,,,0.000000,0.000000,0.000000,0.000000,0.000000,0.000000,0.000000,0.000000,0.000000,0.000000,0.000000,0.000000,0.000000,0.000000,0.000000,0.000000,,,,,,,,,,,,,,,,,,,,,,,,,,,,,,,,,,,,,,,,,,,,,,,,,,,,,,,,,,,,,,,,,,,,,,,,,,,,,,,,,,,,,,,,,,,,,,,,,,,,,,,,,,,,,,,,,,,,,,,,,,,,,,,,,
1738754858.181496,1738754858.182179,104.000000,0.000000,4320.897461,4348.333496,4256.282227,4304.358887,4348.077148,4360.384766,4367.563965,4551.410156,4539.743652,4558.205078,4496.153809,5665.256348,4306.153809,4257.051270,0.000000,4.000000,77.000000,,,,0.000000,0.000000,0.000000,0.000000,0.000000,0.000000,0.000000,0.000000,0.000000,0.000000,0.000000,0.000000,0.000000,0.000000,0.000000,0.000000,,,,,,,,,,,,,,,,,26.000000,0.000000,0.785354,-0.615540,-0.060181,0.026611,0.050299,-0.971310,0.233427,4.382928,-15.181894,23.111883,,,,,,,,,,,,,,,,,,,,,,,,,,,,,,,,,,,,,,,,,,,,,,,,,,,,,,,,,,,,,,,,,,,,,,,,,,,,,,,,,,,,,,,,,,,,,,,,,,,,,
1738754858.189304,1738754858.189988,105.000000,0.000000,4324.615234,4351.025879,4258.589844,4303.461426,4351.538574,4359.871582,4364.743652,4550.128418,4540.897461,4558.077148,4496.666504,5665.512695,4309.487305,4259.230957,0.000000,4.000000,77.000000,,,,0.000000,0.000000,0.000000,0.000000,0.000000,0.000000,0.000000,0.000000,0.000000,0.000000,0.000000,0.000000,0.000000,0.000000,0.000000,0.000000,,,,,,,,,,,,,,,,,,,,,,,,,,,,,,,,,,,,,,,,,,,,,,,,,,,,,,,,,,,,,,,,,,,,,,,,,,,,,,,,,,,,,,,,,,,,,,,,,,,,,,,,,,,,,,,,,,,,,,,,,,,,,,,,,
1738754858.197113,1738754858.197696,106.000000,0.000000,4324.230957,4350.512695,4256.025879,4302.436035,4355.641113,4362.307617,4366.538574,4549.487305,4539.743652,4559.102539,4497.948730,5667.051270,4311.025879,4258.717773,0.000000,4.000000,77.000000,,,,0.000000,0.000000,0.000000,0.000000,0.000000,0.000000,0.000000,0.000000,0.000000,0.000000,0.000000,0.000000,0.000000,0.000000,0.000000,0.000000,,,,,,,,,,,,,,,,,,,,,,,,,,,,,,,,,,,,,,,,,,,,,,,,,,,,,,,,,,,,,,,,,,,,,,,,,,,,,,,,,,,,,,,,,,,,,,,,,,,,,,,,,,,,,,,,,,,,,,,,,,,,,,,,,
1738754858.204921,1738754858.205604,107.000000,0.000000,4321.538574,4346.666504,4252.051270,4301.025879,4353.205078,4360.769043,4367.307617,4550.128418,4536.410156,4558.077148,4497.692383,5666.153809,4311.922852,4256.922852,0.000000,4.000000,77.000000,,,,0.000000,0.000000,0.000000,0.000000,0.000000,0.000000,0.000000,0.000000,0.000000,0.000000,0.000000,0.000000,0.000000,0.000000,0.000000,0.000000,,,,,,,,,,,,,,,,,,,,,,,,,,,,,,,,,,,,,,,,,,,,,,,,,,,,,,,,,,,,,,,,,,,,,,,,,,,,,,,,,,,,,,,,,,,,,,,,,,,,,,,,,,,,,,,,,,,,,,,,,,,,,,,,,
1738754858.212729,1738754858.213412,108.000000,0.000000,4321.794922,4347.563965,4253.333496,4300.769043,4350.769043,4360.128418,4364.358887,4550.897461,4537.179688,4557.563965,4498.077148,5662.692383,4313.461426,4256.794922,0.000000,4.000000,77.000000,,,,0.000000,0.000000,0.000000,0.000000,0.000000,0.000000,0.000000,0.000000,0.000000,0.000000,0.000000,0.000000,0.000000,0.000000,0.000000,0.000000,,,,,,,,,,,,,,,,,27.000000,0.000000,0.785349,-0.615540,-0.060242,0.026611,0.061531,-0.971310,0.240752,4.427969,-14.997038,23.017361,,,,,,,,,,,,,,,,,,,,,,,,,,,,,,,,,,,,,,,,,,,,,,,,,,,,,,,,,,,,,,,,,,,,,,,,,,,,,,,,,,,,,,,,,,,,,,,,,,,,,
1738754858.220537,1738754858.221320,109.000000,0.000000,4322.179688,4351.282227,4257.563965,4303.974121,4351.410156,4363.205078,4365.256348,4551.922852,4540.769043,4557.820313,4496.666504,5662.948730,4311.538574,4258.717773,0.000000,4.000000,77.000000,,,,0.000000,0.000000,0.000000,0.000000,0.000000,0.000000,0.000000,0.000000,0.000000,0.000000,0.000000,0.000000,0.000000,0.000000,0.000000,0.000000,,,,,,,,,,,,,,,,,,,,,,,,,,,,,,,,,,,,,,,,,,,,,,,,,,,,,,,,,,,,,,,,,,,,,,,,,,,,,,,,,,,,,,,,,,,,,,,,,,,,,,,,,,,,,,,,,,,,,,,,,,,,,,,,,
1738754858.228345,1738754858.229128,110.000000,0.000000,4320.384766,4351.666504,4256.666504,4303.717773,4351.153809,4361.922852,4366.153809,4549.615234,4541.538574,4557.948730,4497.820313,5662.051270,4313.461426,4259.615234,0.000000,4.000000,77.000000,,,,0.000000,0.000000,0.000000,0.000000,0.000000,0.000000,0.000000,0.000000,0.000000,0.000000,0.000000,0.000000,0.000000,0.000000,0.000000,0.000000,,,,,,,,,,,,,,,,,,,,,,,,,,,,,,,,,,,,,,,,,,,,,,,,,,,,,,,,,,,,0.044220,0.026807,0.010767,0.012511,0.021037,0.039070,0.013599,0.010719,0.021341,0.020362,0.062743,0.013856,0.015961,0.033691,0.041747,0.041461,0.024754,0.021972,0.014588,0.024588,0.037062,0.053793,0.042008,0.027812,0.024782,0.011538,0.014078,0.018179,0.012152,0.027824,0.029801,0.046930,0.020469,0.052431,0.026669,0.053062,0.028779,0.039302,0.021169,0.032311,0.016286,0.042169,0.014826,0.013274,0.028352,0.034785,0.039728,0.023099,0.024071,0.012869,0.018709,0.014863,0.012017,0.027207,0.027653,0.009387,0.021461,0.029383,0.012815,0.040028,0.029830,0.028011,0.064452,0.047786,0.042472,0.050885,0.021809,0.024332,0.020946,0.031796
1738754858.236153,1738754858.237037,111.000000,0.000000,4319.615234,4347.948730,4251.794922,4299.615234,4350.256348,4359.871582,4365.000000,4548.461426,4537.820313,4558.846191,4500.384766,5663.333496,4311.538574,4254.871582,0.000000,4.000000,77.000000,,,,0.000000,0.000000,0.000000,0.000000,0.000000,0.000000,0.000000,0.000000,0.000000,0.000000,0.000000,0.000000,0.000000,0.000000,0.000000,0.000000,,,,,,,,,,,,,,,,,,,,,,,,,,,,,,,,,,,,,,,,,,,,,,,,,,,,,,,,,,,,,,,,,,,,,,,,,,,,,,,,,,,,,,,,,,,,,,,,,,,,,,,,,,,,,,,,,,,,,,,,,,,,,,,,,
1738754858.243961,1738754858.244845,112.000000,0.000000,4321.025879,4347.948730,4249.615234,4300.769043,4351.025879,4361.153809,4366.153809,4551.538574,4536.666504,4559.487305,4497.051270,5666.538574,4308.846191,4254.102539,0.000000,4.000000,77.000000,,,,0.000000,0.000000,0.000000,0.000000,0.000000,0.000000,0.000000,0.000000,0.000000,0.000000,0.000000,0.000000,0.000000,0.000000,0.000000,0.000000,,,,,,,,,,,,,,,,,28.000000,0.000000,0.785354,-0.615540,-0.060181,0.026611,0.062996,-0.973263,0.232450,4.401839,-15.030667,22.915625,,,,,,,,,,,,,,,,,,,,,,,,,,,,,,,,,,,,,,,,,,,,,,,,,,,,,,,,,,,,,,,,,,,,,,,,,,,,,,,,,,,,,,,,,,,,,,,,,,,,,
1738754858.251769,1738754858.252753,113.000000,0.000000,4321.794922,4352.948730,4252.436035,4302.692383,4351.794922,4361.153809,4367.051270,4552.179688,4540.256348,4556.410156,4493.589844,5666.025879,4312.948730,4258.589844,0.000000,4.000000,77.000000,,,,0.000000,0.000000,0.000000,0.000000,0.000000,0.000000,0.000000,0.000000,0.000000,0.000000,0.000000,0.000000,0.000000,0.000000,0.000000,0.000000,,,,,,,,,,,,,,,,,,,,,,,,,,,,,,,,,,,,,,,,,,,,,,,,,,,,,,,,,,,,,,,,,,,,,,,,,,,,,,,,,,,,,,,,,,,,,,,,,,,,,,,,,,,,,,,,,,,,,,,,,,,,,,,,,
1738754858.259577,1738754858.260561,114.000000,0.000000,4320.769043,4353.717773,4254.358887,4302.692383,4350.512695,4360.512695,4364.487305,4549.487305,4541.410156,4555.256348,4494.871582,5665.641113,4314.358887,4257.051270,0.000000,4.000000,77.000000,,,,0.000000,0.000000,0.000000,0.000000,0.000000,0.000000,0.000000,0.000000,0.000000,0.000000,0.000000,0.000000,0.000000,0.000000,0.000000,0.000000,,,,,,,,,,,,,,,,,,,,,,,,,,,,,,,,,,,,,,,,,,,,,,,,,,,,,,,,,,,,,,,,,,,,,,,,,,,,,,,,,,,,,,,,,,,,,,,,,,,,,,,,,,,,,,,,,,,,,,,,,,,,,,,,,
1738754858.267385,1738754858.268369,115.000000,0.000000,4319.743652,4349.230957,4251.666504,4303.461426,4349.871582,4361.153809,4364.615234,4548.461426,4538.589844,4558.974121,4497.179688,5664.358887,4314.615234,4255.000000,0.000000,4.000000,77.000000,,,,0.000000,0.000000,0.000000,0.000000,0.000000,0.000000,0.000000,0.000000,0.000000,0.000000,0.000000,0.000000,0.000000,0.000000,0.000000,0.000000,,,,,,,,,,,,,,,,,,,,,,,,,,,,,,,,,,,,,,,,,,,,,,,,,,,,,,,,,,,,,,,,,,,,,,,,,,,,,,,,,,,,,,,,,,,,,,,,,,,,,,,,,,,,,,,,,,,,,,,,,,,,,,,,,
1738754858.275194,1738754858.276277,116.000000,0.000000,4321.025879,4348.717773,4252.563965,4302.948730,4351.025879,4359.743652,4367.051270,4551.025879,4537.436035,4559.871582,4497.692383,5662.179688,4310.769043,4258.846191,0.000000,4.000000,77.000000,,,,0.000000,0.000000,0.000000,0.000000,0.000000,0.000000,0.000000,0.000000,0.000000,0.000000,0.000000,0.000000,0.000000,0.000000,0.000000,0.000000,,,,,,,,,,,,,,,,,29.000000,0.000000,0.785357,-0.615540,-0.060120,0.026672,0.052741,-0.968868,0.246612,4.444988,-15.044268,22.724062,,,,,,,,,,,,,,,,,,,,,,,,,,,,,,,,,,,,,,,,,,,,,,,,,,,,,,,,,,,,,,,,,,,,,,,,,,,,,,,,,,,,,,,,,,,,,,,,,,,,,
1738754858.283002,1738754858.284086,117.000000,0.000000,4322.820313,4351.410156,4257.051270,4301.666504,4351.538574,4357.051270,4366.794922,4550.512695,4539.358887,4560.641113,4497.948730,5662.051270,4307.436035,4261.153809,0.000000,4.000000,77.000000,,,,0.000000,0.000000,0.000000,0.000000,0.000000,0.000000,0.000000,0.000000,0.000000,0.000000,0.000000,0.000000,0.000000,0.000000,0.000000,0.000000,,,,,,,,,,,,,,,,,,,,,,,,,,,,,,,,,,,,,,,,,,,,,,,,,,,,,,,,,,,,,,,,,,,,,,,,,,,,,,,,,,,,,,,,,,,,,,,,,,,,,,,,,,,,,,,,,,,,,,,,,,,,,,,,,
1738754858.290810,1738754858.291894,118.000000,0.000000,4323.077148,4350.512695,4254.871582,4301.282227,4349.358887,4357.436035,4365.897461,4546.666504,4539.487305,4562.179688,4498.461426,5664.102539,4312.436035,4257.820313,0.000000,4.000000,77.000000,,,,0.000000,0.000000,0.000000,0.000000,0.000000,0.000000,0.000000,0.000000,0.000000,0.000000,0.000000,0.000000,0.000000,0.000000,0.000000,0.000000,,,,,,,,,,,,,,,,,,,,,,,,,,,,,,,,,,,,,,,,,,,,,,,,,,,,,,,,,,,,,,,,,,,,,,,,,,,,,,,,,,,,,,,,,,,,,,,,,,,,,,,,,,,,,,,,,,,,,,,,,,,,,,,,,
1738754858.298618,1738754858.299602,119.000000,0.000000,4323.077148,4347.436035,4252.692383,4303.205078,4350.128418,4359.487305,4366.153809,4547.179688,4537.820313,4558.717773,4496.666504,5664.358887,4312.051270,4253.589844,0.000000,4.000000,77.000000,,,,0.000000,0.000000,0.000000,0.000000,0.000000,0.000000,0.000000,0.000000,0.000000,0.000000,0.000000,0.000000,0.000000,0.000000,0.000000,0.000000,,,,,,,,,,,,,,,,,,,,,,,,,,,,,,,,,,,,,,,,,,,,,,,,,,,,,,,,,,,,,,,,,,,,,,,,,,,,,,,,,,,,,,,,,,,,,,,,,,,,,,,,,,,,,,,,,,,,,,,,,,,,,,,,,
1738754858.306426,1738754858.307410,120.000000,0.000000,4322.820313,4348.461426,4255.769043,4300.897461,4353.077148,4359.871582,4365.769043,4548.717773,4539.358887,4557.948730,4496.922852,5663.589844,4309.487305,4254.743652,0.000000,4.000000,77.000000,,,,0.000000,0.000000,0.000000,0.000000,0.000000,0.000000,0.000000,0.000000,0.000000,0.000000,0.000000,0.000000,0.000000,0.000000,0.000000,0.000000,,,,,,,,,,,,,,,,,30.000000,0.000000,0.785357,-0.615540,-0.060120,0.026672,0.061531,-0.973263,0.232939,4.517156,-15.089841,22.751656,,,,,,,,,,,,,,,,,,,,,,,,,,,,,,,,,,,,,,,,,,,,,,,,,,,,,,,,,,,,,,,,,,,,,,,,,,,,,,,,,,,,,,,,,,,,,,,,,,,,,
1738754858.314234,1738754858.315118,121.000000,0.000000,4321.922852,4350.897461,4255.769043,4298.717773,4352.820313,4361.153809,4365.384766,4547.307617,4538.974121,4561.282227,4499.743652,5666.025879,4311.538574,4257.948730,0.000000,4.000000,77.000000,,,,0.000000,0.000000,0.000000,0.000000,0.000000,0.000000,0.000000,0.000000,0.000000,0.000000,0.000000,0.000000,0.000000,0.000000,0.000000,0.000000,,,,,,,,,,,,,,,,,,,,,,,,,,,,,,,,,,,,,,,,,,,,,,,,,,,,,,,,,,,,,,,,,,,,,,,,,,,,,,,,,,,,,,,,,,,,,,,,,,,,,,,,,,,,,,,,,,,,,,,,,,,,,,,,,
1738754858.322042,1738754858.322926,122.000000,0.000000,4320.641113,4350.256348,4252.692383,4303.846191,4350.384766,4362.563965,4366.538574,4549.358887,4536.153809,4560.128418,4498.333496,5665.641113,4309.358887,4257.692383,0.000000,4.000000,77.000000,,,,0.000000,0.000000,0.000000,0.000000,0.000000,0.000000,0.000000,0.000000,0.000000,0.000000,0.000000,0.000000,0.000000,0.000000,0.000000,0.000000,,,,,,,,,,,,,,,,,,,,,,,,,,,,,,,,,,,,,,,,,,,,,,,,,,,,,,,,,,,,,,,,,,,,,,,,,,,,,,,,,,,,,,,,,,,,,,,,,,,,,,,,,,,,,,,,,,,,,,,,,,,,,,,,,
1738754858.329850,1738754858.330634,123.000000,0.000000,4321.410156,4350.256348,4253.077148,4305.000000,4352.179688,4359.487305,4364.743652,4551.794922,4539.102539,4559.615234,4494.487305,5661.922852,4307.692383,4256.410156,0.000000,4.000000,77.000000,,,,0.000000,0.000000,0.000000,0.000000,0.000000,0.000000,0.000000,0.000000,0.000000,0.000000,0.000000,0.000000,0.000000,0.000000,0.000000,0.000000,,,,,,,,,,,,,,,,,,,,,,,,,,,,,,,,,,,,,,,,,,,,,,,,,,,,,,,,,,,,,,,,,,,,,,,,,,,,,,,,,,,,,,,,,,,,,,,,,,,,,,,,,,,,,,,,,,,,,,,,,,,,,,,,,
1738754858.337658,1738754858.338442,124.000000,0.000000,4323.974121,4350.769043,4254.102539,4303.846191,4355.641113,4357.563965,4362.948730,4548.717773,4539.358887,4560.897461,4495.128418,5663.205078,4309.487305,4255.000000,0.000000,4.000000,77.000000,,,,0.000000,0.000000,0.000000,0.000000,0.000000,0.000000,0.000000,0.000000,0.000000,0.000000,0.000000,0.000000,0.000000,0.000000,0.000000,0.000000,,,,,,,,,,,,,,,,,31.000000,0.000000,0.785348,-0.615540,-0.060181,0.026794,0.072763,-0.987914,0.232939,4.482107,-15.030856,22.926491,,,,,,,,,,,,,,,,,,,,,,,,,,,,,,,,,,,,,,,,,,,,,,,,,,,,,,,,,,,,,,,,,,,,,,,,,,,,,,,,,,,,,,,,,,,,,,,,,,,,,
1738754858.345467,1738754858.346150,125.000000,0.000000,4323.589844,4350.641113,4252.563965,4303.077148,4352.051270,4360.641113,4360.256348,4545.897461,4536.153809,4559.615234,4497.692383,5663.205078,4309.102539,4254.230957,0.000000,4.000000,77.000000,,,,0.000000,0.000000,0.000000,0.000000,0.000000,0.000000,0.000000,0.000000,0.000000,0.000000,0.000000,0.000000,0.000000,0.000000,0.000000,0.000000,,,,,,,,,,,,,,,,,,,,,,,,,,,,,,,,,,,,,,,,,,,,,,,,,,,,,,,,,,,,,,,,,,,,,,,,,,,,,,,,,,,,,,,,,,,,,,,,,,,,,,,,,,,,,,,,,,,,,,,,,,,,,,,,,
1738754858.353275,1738754858.353958,126.000000,0.000000,4321.025879,4351.794922,4251.410156,4302.051270,4345.769043,4363.717773,4358.077148,4548.461426,4537.307617,4559.102539,4496.538574,5659.615234,4308.077148,4253.205078,0.000000,4.000000,77.000000,,,,0.000000,0.000000,0.000000,0.000000,0.000000,0.000000,0.000000,0.000000,0.000000,0.000000,0.000000,0.000000,0.000000,0.000000,0.000000,0.000000,,,,,,,,,,,,,,,,,,,,,,,,,,,,,,,,,,,,,,,,,,,,,,,,,,,,,,,,,,,,0.049291,0.027792,0.007397,0.012650,0.020639,0.034095,0.016909,0.009238,0.019106,0.018725,0.058309,0.016061,0.015436,0.033916,0.040125,0.038548,0.025338,0.026378,0.017369,0.026003,0.033180,0.054104,0.040333,0.028506,0.024378,0.011870,0.016232,0.021562,0.012076,0.025857,0.030147,0.041855,0.020459,0.052844,0.026381,0.060433,0.030505,0.044406,0.020695,0.030771,0.020020,0.044025,0.015304,0.014740,0.029615,0.035288,0.036433,0.018669,0.022207,0.012678,0.021949,0.014740,0.010578,0.026865,0.027522,0.006659,0.025866,0.029111,0.014039,0.040413,0.035498,0.025051,0.053217,0.038500,0.041479,0.049402,0.019199,0.025103,0.023149,0.032413
1738754858.361083,1738754858.361666,127.000000,0.000000,4320.769043,4351.410156,4251.153809,4303.205078,4347.436035,4362.307617,4364.358887,4551.153809,4539.615234,4559.871582,4494.871582,5662.820313,4307.436035,4254.230957,77.000000,4.000000,77.000000,,,,0.000000,0.000000,0.000000,0.000000,0.000000,0.000000,0.000000,0.000000,0.000000,0.000000,0.000000,0.000000,0.000000,0.000000,0.000000,0.000000,,,,,,,,,,,,,,,,,,,,,,,,,,,,,,,,,,,,,,,,,,,,,,,,,,,,,,,,,,,,,,,,,,,,,,,,,,,,,,,,,,,,,,,,,,,,,,,,,,,,,,,,,,,,,,,,,,,,,,,,,,,,,,,,,
1738754858.368891,1738754858.369474,0.000000,0.000000,4322.563965,4348.846191,4251.666504,4303.589844,4351.922852,4360.897461,4367.436035,4548.589844,4539.871582,4560.769043,4496.794922,5666.538574,4308.205078,4257.692383,0.000000,4.000000,77.000000,,,,0.000000,0.000000,0.000000,0.000000,0.000000,0.000000,0.000000,0.000000,0.000000,0.000000,0.000000,0.000000,0.000000,0.000000,0.000000,0.000000,,,,,,,,,,,,,,,,,0.000000,0.000000,0.785348,-0.615540,-0.060181,0.026794,0.050299,-0.965938,0.234892,4.383896,-15.077771,22.933842,,,,,,,,,,,,,,,,,,,,,,,,,,,,,,,,,,,,,,,,,,,,,,,,,,,,,,,,,,,,,,,,,,,,,,,,,,,,,,,,,,,,,,,,,,,,,,,,,,,,,
1738754858.376699,1738754858.377182,1.000000,0.000000,4322.820313,4347.436035,4252.948730,4302.307617,4351.538574,4361.153809,4363.717773,4548.717773,4539.615234,4560.769043,4498.205078,5664.743652,4306.282227,4255.384766,0.000000,4.000000,77.000000,,,,0.000000,0.000000,0.000000,0.000000,0.000000,0.000000,0.000000,0.000000,0.000000,0.000000,0.000000,0.000000,0.000000,0.000000,0.000000,0.000000,,,,,,,,,,,,,,,,,,,,,,,,,,,,,,,,,,,,,,,,,,,,,,,,,,,,,,,,,,,,,,,,,,,,,,,,,,,,,,,,,,,,,,,,,,,,,,,,,,,,,,,,,,,,,,,,,,,,,,,,,,,,,,,,,
1738754858.384507,1738754858.385090,2.000000,0.000000,4320.897461,4348.846191,4253.589844,4302.436035,4349.743652,4360.512695,4361.282227,4550.897461,4539.102539,4560.769043,4496.922852,5664.102539,4309.358887,4252.436035,0.000000,4.000000,77.000000,,,,0.000000,0.000000,0.000000,0.000000,0.000000,0.000000,0.000000,0.000000,0.000000,0.000000,0.000000,0.000000,0.000000,0.000000,0.000000,0.000000,,,,,,,,,,,,,,,,,,,,,,,,,,,,,,,,,,,,,,,,,,,,,,,,,,,,,,,,,,,,,,,,,,,,,,,,,,,,,,,,,,,,,,,,,,,,,,,,,,,,,,,,,,,,,,,,,,,,,,,,,,,,,,,,,
1738754858.392315,1738754858.392898,3.000000,0.000000,4319.871582,4350.384766,4253.589844,4305.769043,4350.641113,4358.717773,4361.922852,4549.358887,4537.436035,4560.641113,4497.307617,5664.871582,4315.512695,4256.025879,0.000000,4.000000,77.000000,,,,0.000000,0.000000,0.000000,0.000000,0.000000,0.000000,0.000000,0.000000,0.000000,0.000000,0.000000,0.000000,0.000000,0.000000,0.000000,0.000000,,,,,,,,,,,,,,,,,,,,,,,,,,,,,,,,,,,,,,,,,,,,,,,,,,,,,,,,,,,,,,,,,,,,,,,,,,,,,,,,,,,,,,,,,,,,,,,,,,,,,,,,,,,,,,,,,,,,,,,,,,,,,,,,,
1738754858.400123,1738754858.400806,4.000000,0.000000,4323.077148,4350.769043,4253.333496,4305.897461,4352.820313,4358.974121,4364.230957,4550.128418,4538.333496,4560.897461,4497.820313,5665.384766,4310.641113,4257.563965,0.000000,4.000000,77.000000,,,,0.000000,0.000000,0.000000,0.000000,0.000000,0.000000,0.000000,0.000000,0.000000,0.000000,0.000000,0.000000,0.000000,0.000000,0.000000,0.000000,,,,,,,,,,,,,,,,,1.000000,0.000000,0.785398,-0.615479,-0.060120,0.026855,0.064461,-0.971310,0.231474,4.312173,-15.186661,22.973791,,,,,,,,,,,,,,,,,,,,,,,,,,,,,,,,,,,,,,,,,,,,,,,,,,,,,,,,,,,,,,,,,,,,,,,,,,,,,,,,,,,,,,,,,,,,,,,,,,,,,
1738754858.407931,1738754858.408615,5.000000,0.000000,4324.871582,4350.512695,4253.461426,4302.820313,4354.358887,4363.077148,4363.846191,4551.666504,4540.256348,4561.538574,4496.666504,5662.436035,4307.051270,4254.487305,0.000000,4.000000,77.000000,,,,0.000000,0.000000,0.000000,0.000000,0.000000,0.000000,0.000000,0.000000,0.000000,0.000000,0.000000,0.000000,0.000000,0.000000,0.000000,0.000000,,,,,,,,,,,,,,,,,,,,,,,,,,,,,,,,,,,,,,,,,,,,,,,,,,,,,,,,,,,,,,,,,,,,,,,,,,,,,,,,,,,,,,,,,,,,,,,,,,,,,,,,,,,,,,,,,,,,,,,,,,,,,,,,,
1738754858.415739,1738754858.416523,6.000000,0.000000,4323.077148,4351.025879,4253.589844,4304.102539,4353.717773,4362.307617,4363.333496,4550.897461,4539.487305,4561.153809,4497.307617,5661.538574,4308.974121,4252.307617,0.000000,4.000000,77.000000,,,,0.000000,0.000000,0.000000,0.000000,0.000000,0.000000,0.000000,0.000000,0.000000,0.000000,0.000000,0.000000,0.000000,0.000000,0.000000,0.000000,,,,,,,,,,,,,,,,,,,,,,,,,,,,,,,,,,,,,,,,,,,,,,,,,,,,,,,,,,,,,,,,,,,,,,,,,,,,,,,,,,,,,,,,,,,,,,,,,,,,,,,,,,,,,,,,,,,,,,,,,,,,,,,,,
1738754858.423547,1738754858.424331,7.000000,0.000000,4321.153809,4351.666504,4251.025879,4304.102539,4353.077148,4357.563965,4363.974121,4550.128418,4538.974121,4560.384766,4500.512695,5664.487305,4311.282227,4255.897461,0.000000,4.000000,77.000000,,,,0.000000,0.000000,0.000000,0.000000,0.000000,0.000000,0.000000,0.000000,0.000000,0.000000,0.000000,0.000000,0.000000,0.000000,0.000000,0.000000,,,,,,,,,,,,,,,,,,,,,,,,,,,,,,,,,,,,,,,,,,,,,,,,,,,,,,,,,,,,,,,,,,,,,,,,,,,,,,,,,,,,,,,,,,,,,,,,,,,,,,,,,,,,,,,,,,,,,,,,,,,,,,,,,
1738754858.431356,1738754858.432239,8.000000,0.000000,4321.410156,4352.307617,4249.743652,4300.769043,4353.461426,4358.461426,4361.666504,4550.256348,4540.128418,4561.538574,4499.871582,5664.358887,4312.820313,4260.512695,0.000000,4.000000,77.000000,,,,0.000000,0.000000,0.000000,0.000000,0.000000,0.000000,0.000000,0.000000,0.000000,0.000000,0.000000,0.000000,0.000000,0.000000,0.000000,0.000000,,,,,,,,,,,,,,,,,2.000000,0.000000,0.785400,-0.615479,-0.060120,0.026794,0.057624,-0.976682,0.237822,4.380956,-15.251328,22.926411,,,,,,,,,,,,,,,,,,,,,,,,,,,,,,,,,,,,,,,,,,,,,,,,,,,,,,,,,,,,,,,,,,,,,,,,,,,,,,,,,,,,,,,,,,,,,,,,,,,,,
1738754858.439164,1738754858.440047,9.000000,0.000000,4324.871582,4353.974121,4254.102539,4302.563965,4353.717773,4361.794922,4361.666504,4549.743652,4540.256348,4563.333496,4495.641113,5664.102539,4310.128418,4256.282227,0.000000,4.000000,77.000000,,,,0.000000,0.000000,0.000000,0.000000,0.000000,0.000000,0.000000,0.000000,0.000000,0.000000,0.000000,0.000000,0.000000,0.000000,0.000000,0.000000,,,,,,,,,,,,,,,,,,,,,,,,,,,,,,,,,,,,,,,,,,,,,,,,,,,,,,,,,,,,,,,,,,,,,,,,,,,,,,,,,,,,,,,,,,,,,,,,,,,,,,,,,,,,,,,,,,,,,,,,,,,,,,,,,
1738754858.446972,1738754858.447955,10.000000,0.000000,4324.871582,4351.922852,4255.512695,4306.410156,4351.153809,4360.769043,4364.615234,4546.666504,4539.230957,4560.897461,4496.282227,5665.128418,4310.128418,4250.769043,0.000000,4.000000,77.000000,,,,0.000000,0.000000,0.000000,0.000000,0.000000,0.000000,0.000000,0.000000,0.000000,0.000000,0.000000,0.000000,0.000000,0.000000,0.000000,0.000000,,,,,,,,,,,,,,,,,,,,,,,,,,,,,,,,,,,,,,,,,,,,,,,,,,,,,,,,,,,,,,,,,,,,,,,,,,,,,,,,,,,,,,,,,,,,,,,,,,,,,,,,,,,,,,,,,,,,,,,,,,,,,,,,,
1738754858.454780,1738754858.455764,11.000000,0.000000,4321.025879,4346.922852,4252.692383,4305.641113,4349.487305,4359.358887,4364.871582,4546.922852,4540.769043,4558.077148,4499.230957,5665.384766,4311.410156,4254.743652,0.000000,4.000000,77.000000,,,,0.000000,0.000000,0.000000,0.000000,0.000000,0.000000,0.000000,0.000000,0.000000,0.000000,0.000000,0.000000,0.000000,0.000000,0.000000,0.000000,,,,,,,,,,,,,,,,,,,,,,,,,,,,,,,,,,,,,,,,,,,,,,,,,,,,,,,,,,,,,,,,,,,,,,,,,,,,,,,,,,,,,,,,,,,,,,,,,,,,,,,,,,,,,,,,,,,,,,,,,,,,,,,,,
1738754858.462588,1738754858.463472,12.000000,0.000000,4320.256348,4347.307617,4253.205078,4303.461426,4351.025879,4360.128418,4363.077148,4550.641113,4540.384766,4559.743652,4500.384766,5664.358887,4310.128418,4258.461426,0.000000,4.000000,77.000000,,,,0.000000,0.000000,0.000000,0.000000,0.000000,0.000000,0.000000,0.000000,0.000000,0.000000,0.000000,0.000000,0.000000,0.000000,0.000000,0.000000,,,,,,,,,,,,,,,,,3.000000,0.000000,0.785392,-0.615479,-0.060181,0.026917,0.063973,-0.971798,0.236845,4.376194,-15.242862,22.817104,,,,,,,,,,,,,,,,,,,,,,,,,,,,,,,,,,,,,,,,,,,,,,,,,,,,,,,,,,,,,,,,,,,,,,,,,,,,,,,,,,,,,,,,,,,,,,,,,,,,,
1738754858.470396,1738754858.471280,13.000000,0.000000,4323.077148,4352.436035,4255.000000,4302.820313,4351.153809,4360.128418,4362.051270,4550.128418,4538.333496,4559.871582,4498.589844,5665.128418,4310.256348,4255.641113,0.000000,4.000000,77.000000,,,,0.000000,0.000000,0.000000,0.000000,0.000000,0.000000,0.000000,0.000000,0.000000,0.000000,0.000000,0.000000,0.000000,0.000000,0.000000,0.000000,,,,,,,,,,,,,,,,,,,,,,,,,,,,,,,,,,,,,,,,,,,,,,,,,,,,,,,,,,,,,,,,,,,,,,,,,,,,,,,,,,,,,,,,,,,,,,,,,,,,,,,,,,,,,,,,,,,,,,,,,,,,,,,,,
1738754858.478204,1738754858.478988,14.000000,0.000000,4324.102539,4353.205078,4253.333496,4302.820313,4350.897461,4360.000000,4365.000000,4548.717773,4538.461426,4556.922852,4495.769043,5668.461426,4308.333496,4253.589844,0.000000,4.000000,77.000000,,,,0.000000,0.000000,0.000000,0.000000,0.000000,0.000000,0.000000,0.000000,0.000000,0.000000,0.000000,0.000000,0.000000,0.000000,0.000000,0.000000,,,,,,,,,,,,,,,,,,,,,,,,,,,,,,,,,,,,,,,,,,,,,,,,,,,,,,,,,,,,0.051066,0.029615,0.006094,0.015873,0.020695,0.028642,0.020920,0.008659,0.017719,0.018311,0.050031,0.019322,0.017624,0.034497,0.038079,0.034130,0.027570,0.029600,0.020393,0.027443,0.029742,0.052890,0.038328,0.028724,0.024829,0.012038,0.017815,0.025709,0.012768,0.024044,0.030661,0.034741,0.023125,0.049245,0.027520,0.063327,0.032078,0.044146,0.019675,0.028715,0.025469,0.043594,0.015647,0.016447,0.029503,0.034335,0.032924,0.016011,0.020349,0.012994,0.025590,0.016065,0.012511,0.025718,0.028807,0.006271,0.030585,0.028501,0.015968,0.038886,0.043006,0.021459,0.041973,0.029242,0.040641,0.045968,0.019110,0.028419,0.026293,0.033051
1738754858.486012,1738754858.486796,15.000000,0.000000,4322.436035,4349.871582,4253.333496,4302.307617,4351.794922,4360.128418,4366.153809,4551.025879,4540.641113,4558.205078,4497.179688,5666.282227,4307.563965,4256.410156,0.000000,4.000000,77.000000,,,,0.000000,0.000000,0.000000,0.000000,0.000000,0.000000,0.000000,0.000000,0.000000,0.000000,0.000000,0.000000,0.000000,0.000000,0.000000,0.000000,,,,,,,,,,,,,,,,,,,,,,,,,,,,,,,,,,,,,,,,,,,,,,,,,,,,,,,,,,,,,,,,,,,,,,,,,,,,,,,,,,,,,,,,,,,,,,,,,,,,,,,,,,,,,,,,,,,,,,,,,,,,,,,,,
1738754858.493820,1738754858.494504,16.000000,0.000000,4323.846191,4349.102539,4254.358887,4302.179688,4349.487305,4360.897461,4364.615234,4552.563965,4541.922852,4562.948730,4499.743652,5664.230957,4308.974121,4257.692383,0.000000,4.000000,77.000000,,,,0.000000,0.000000,0.000000,0.000000,0.000000,0.000000,0.000000,0.000000,0.000000,0.000000,0.000000,0.000000,0.000000,0.000000,0.000000,0.000000,,,,,,,,,,,,,,,,,4.000000,0.000000,0.785398,-0.615479,-0.060120,0.026855,0.068368,-0.973752,0.229032,4.438574,-15.201909,22.868727,,,,,,,,,,,,,,,,,,,,,,,,,,,,,,,,,,,,,,,,,,,,,,,,,,,,,,,,,,,,,,,,,,,,,,,,,,,,,,,,,,,,,,,,,,,,,,,,,,,,,
1738754858.501629,1738754858.502312,17.000000,0.000000,4326.666504,4349.487305,4252.436035,4302.692383,4349.743652,4362.692383,4364.487305,4551.153809,4540.384766,4561.153809,4499.230957,5666.794922,4308.846191,4256.153809,0.000000,4.000000,77.000000,,,,0.000000,0.000000,0.000000,0.000000,0.000000,0.000000,0.000000,0.000000,0.000000,0.000000,0.000000,0.000000,0.000000,0.000000,0.000000,0.000000,,,,,,,,,,,,,,,,,,,,,,,,,,,,,,,,,,,,,,,,,,,,,,,,,,,,,,,,,,,,,,,,,,,,,,,,,,,,,,,,,,,,,,,,,,,,,,,,,,,,,,,,,,,,,,,,,,,,,,,,,,,,,,,,,
1738754858.509436,1738754858.510020,18.000000,0.000000,4322.820313,4348.974121,4251.282227,4303.717773,4354.230957,4362.179688,4363.589844,4550.256348,4538.974121,4557.436035,4496.538574,5666.153809,4310.769043,4257.820313,0.000000,4.000000,77.000000,,,,0.000000,0.000000,0.000000,0.000000,0.000000,0.000000,0.000000,0.000000,0.000000,0.000000,0.000000,0.000000,0.000000,0.000000,0.000000,0.000000,,,,,,,,,,,,,,,,,,,,,,,,,,,,,,,,,,,,,,,,,,,,,,,,,,,,,,,,,,,,,,,,,,,,,,,,,,,,,,,,,,,,,,,,,,,,,,,,,,,,,,,,,,,,,,,,,,,,,,,,,,,,,,,,,
1738754858.517245,1738754858.517828,19.000000,0.000000,4318.205078,4348.974121,4252.692383,4303.717773,4353.846191,4359.615234,4362.436035,4550.641113,4538.077148,4560.769043,4496.025879,5664.358887,4311.410156,4257.563965,0.000000,4.000000,77.000000,,,,0.000000,0.000000,0.000000,0.000000,0.000000,0.000000,0.000000,0.000000,0.000000,0.000000,0.000000,0.000000,0.000000,0.000000,0.000000,0.000000,,,,,,,,,,,,,,,,,,,,,,,,,,,,,,,,,,,,,,,,,,,,,,,,,,,,,,,,,,,,,,,,,,,,,,,,,,,,,,,,,,,,,,,,,,,,,,,,,,,,,,,,,,,,,,,,,,,,,,,,,,,,,,,,,
1738754858.525053,1738754858.525536,20.000000,0.000000,4320.000000,4352.436035,4253.717773,4301.538574,4349.487305,4361.153809,4363.077148,4548.974121,4537.948730,4563.717773,4497.820313,5664.615234,4310.000000,4253.717773,0.000000,4.000000,77.000000,,,,0.000000,0.000000,0.000000,0.000000,0.000000,0.000000,0.000000,0.000000,0.000000,0.000000,0.000000,0.000000,0.000000,0.000000,0.000000,0.000000,,,,,,,,,,,,,,,,,5.000000,0.000000,0.785394,-0.615479,-0.060181,0.026855,0.055183,-0.976193,0.235869,4.394717,-15.098385,22.881853,,,,,,,,,,,,,,,,,,,,,,,,,,,,,,,,,,,,,,,,,,,,,,,,,,,,,,,,,,,,,,,,,,,,,,,,,,,,,,,,,,,,,,,,,,,,,,,,,,,,,
1738754858.532861,1738754858.533344,21.000000,0.000000,4322.436035,4353.589844,4252.820313,4299.487305,4348.077148,4363.974121,4365.384766,4548.077148,4537.820313,4561.282227,4497.820313,5665.128418,4311.794922,4253.461426,0.000000,4.000000,77.000000,,,,0.000000,0.000000,0.000000,0.000000,0.000000,0.000000,0.000000,0.000000,0.000000,0.000000,0.000000,0.000000,0.000000,0.000000,0.000000,0.000000,,,,,,,,,,,,,,,,,,,,,,,,,,,,,,,,,,,,,,,,,,,,,,,,,,,,,,,,,,,,,,,,,,,,,,,,,,,,,,,,,,,,,,,,,,,,,,,,,,,,,,,,,,,,,,,,,,,,,,,,,,,,,,,,,
1738754858.540669,1738754858.541052,22.000000,0.000000,4322.692383,4348.333496,4252.948730,4302.436035,4348.717773,4361.410156,4364.871582,4550.641113,4537.051270,4560.000000,4496.410156,5665.128418,4312.179688,4256.538574,0.000000,4.000000,77.000000,,,,0.000000,0.000000,0.000000,0.000000,0.000000,0.000000,0.000000,0.000000,0.000000,0.000000,0.000000,0.000000,0.000000,0.000000,0.000000,0.000000,,,,,,,,,,,,,,,,,,,,,,,,,,,,,,,,,,,,,,,,,,,,,,,,,,,,,,,,,,,,,,,,,,,,,,,,,,,,,,,,,,,,,,,,,,,,,,,,,,,,,,,,,,,,,,,,,,,,,,,,,,,,,,,,,
1738754858.548477,1738754858.548860,23.000000,0.000000,4322.436035,4347.179688,4254.743652,4305.000000,4349.230957,4359.102539,4364.230957,4551.794922,4537.820313,4560.000000,4497.436035,5662.436035,4310.512695,4257.307617,0.000000,4.000000,77.000000,,,,0.000000,0.000000,0.000000,0.000000,0.000000,0.000000,0.000000,0.000000,0.000000,0.000000,0.000000,0.000000,0.000000,0.000000,0.000000,0.000000,,,,,,,,,,,,,,,,,,,,,,,,,,,,,,,,,,,,,,,,,,,,,,,,,,,,,,,,,,,,,,,,,,,,,,,,,,,,,,,,,,,,,,,,,,,,,,,,,,,,,,,,,,,,,,,,,,,,,,,,,,,,,,,,,
1738754858.556285,1738754858.556568,24.000000,0.000000,4323.974121,4351.282227,4255.641113,4303.589844,4350.641113,4360.769043,4365.641113,4551.153809,4536.282227,4560.000000,4497.307617,5665.000000,4308.974121,4253.333496,0.000000,4.000000,77.000000,,,,0.000000,0.000000,0.000000,0.000000,0.000000,0.000000,0.000000,0.000000,0.000000,0.000000,0.000000,0.000000,0.000000,0.000000,0.000000,0.000000,,,,,,,,,,,,,,,,,,,,,,,,,,,,,,,,,,,,,,,,,,,,,,,,,,,,,,,,,,,,,,,,,,,,,,,,,,,,,,,,,,,,,,,,,,,,,,,,,,,,,,,,,,,,,,,,,,,,,,,,,,,,,,,,,
1738754858.564093,1738754858.564376,25.000000,0.000000,4325.256348,4352.307617,4255.384766,4302.692383,4351.025879,4361.538574,4364.487305,4551.025879,4535.000000,4561.025879,4496.025879,5670.769043,4310.641113,4254.230957,0.000000,4.000000,77.000000,,,,0.000000,0.000000,0.000000,0.000000,0.000000,0.000000,0.000000,0.000000,0.000000,0.000000,0.000000,0.000000,0.000000,0.000000,0.000000,0.000000,,,,,,,,,,,,,,,,,,,,,,,,,,,,,,,,,,,,,,,,,,,,,,,,,,,,,,,,,,,,,,,,,,,,,,,,,,,,,,,,,,,,,,,,,,,,,,,,,,,,,,,,,,,,,,,,,,,,,,,,,,,,,,,,,
