title:bread1, start timestamp:1738754041.282945, stop timestamp:1738754042.321505, headset type:EPOCX, headset serial:E50208A5, headset firmware:720, channels:168, sampling rate:eeg_128;mot_32;pm_0.1;pow_8, samples:134       , version:2.2, 
Timestamp,EEG.Counter,EEG.Interpolated,EEG.AF3,EEG.F7,EEG.F3,EEG.FC5,EEG.T7,EEG.P7,EEG.O1,EEG.O2,EEG.P8,EEG.T8,EEG.FC6,EEG.F4,EEG.F8,EEG.AF4,EEG.RawCq,EEG.Battery,EEG.BatteryPercent,MarkerIndex,MarkerType,MarkerValueInt,EEG.MarkerHardware,CQ.AF3,CQ.F7,CQ.F3,CQ.FC5,CQ.T7,CQ.P7,CQ.O1,CQ.O2,CQ.P8,CQ.T8,CQ.FC6,CQ.F4,CQ.F8,CQ.AF4,CQ.Overall,EQ.SampleRateQuality,EQ.OVERALL,EQ.AF3,EQ.F7,EQ.F3,EQ.FC5,EQ.T7,EQ.P7,EQ.O1,EQ.O2,EQ.P8,EQ.T8,EQ.FC6,EQ.F4,EQ.F8,EQ.AF4,MOT.CounterMems,MOT.InterpolatedMems,MOT.Q0,MOT.Q1,MOT.Q2,MOT.Q3,MOT.AccX,MOT.AccY,MOT.AccZ,MOT.MagX,MOT.MagY,MOT.MagZ,PM.Attention.IsActive,PM.Attention.Scaled,PM.Attention.Raw,PM.Attention.Min,PM.Attention.Max,PM.Engagement.IsActive,PM.Engagement.Scaled,PM.Engagement.Raw,PM.Engagement.Min,PM.Engagement.Max,PM.Excitement.IsActive,PM.Excitement.Scaled,PM.Excitement.Raw,PM.Excitement.Min,PM.Excitement.Max,PM.LongTermExcitement,PM.Stress.IsActive,PM.Stress.Scaled,PM.Stress.Raw,PM.Stress.Min,PM.Stress.Max,PM.Relaxation.IsActive,PM.Relaxation.Scaled,PM.Relaxation.Raw,PM.Relaxation.Min,PM.Relaxation.Max,PM.Interest.IsActive,PM.Interest.Scaled,PM.Interest.Raw,PM.Interest.Min,PM.Interest.Max,POW.AF3.Theta,POW.AF3.Alpha,POW.AF3.BetaL,POW.AF3.BetaH,POW.AF3.Gamma,POW.F7.Theta,POW.F7.Alpha,POW.F7.BetaL,POW.F7.BetaH,POW.F7.Gamma,POW.F3.Theta,POW.F3.Alpha,POW.F3.BetaL,POW.F3.BetaH,POW.F3.Gamma,POW.FC5.Theta,POW.FC5.Alpha,POW.FC5.BetaL,POW.FC5.BetaH,POW.FC5.Gamma,POW.T7.Theta,POW.T7.Alpha,POW.T7.BetaL,POW.T7.BetaH,POW.T7.Gamma,POW.P7.Theta,POW.P7.Alpha,POW.P7.BetaL,POW.P7.BetaH,POW.P7.Gamma,POW.O1.Theta,POW.O1.Alpha,POW.O1.BetaL,POW.O1.BetaH,POW.O1.Gamma,POW.O2.Theta,POW.O2.Alpha,POW.O2.BetaL,POW.O2.BetaH,POW.O2.Gamma,POW.P8.Theta,POW.P8.Alpha,POW.P8.BetaL,POW.P8.BetaH,POW.P8.Gamma,POW.T8.Theta,POW.T8.Alpha,POW.T8.BetaL,POW.T8.BetaH,POW.T8.Gamma,POW.FC6.Theta,POW.FC6.Alpha,POW.FC6.BetaL,POW.FC6.BetaH,POW.FC6.Gamma,POW.F4.Theta,POW.F4.Alpha,POW.F4.BetaL,POW.F4.BetaH,POW.F4.Gamma,POW.F8.Theta,POW.F8.Alpha,POW.F8.BetaL,POW.F8.BetaH,POW.F8.Gamma,POW.AF4.Theta,POW.AF4.Alpha,POW.AF4.BetaL,POW.AF4.BetaH,POW.AF4.Gamma
1738754041.282945,58.000000,0.000000,4273.205078,4294.871582,4203.589844,4255.256348,4300.641113,4307.436035,4315.512695,4501.410156,4486.666504,4510.641113,4447.051270,5638.205078,4249.230957,4199.871582,0.000000,4.000000,80.000000,,,,0.000000,0.000000,0.000000,0.000000,0.000000,0.000000,0.000000,0.000000,0.000000,0.000000,0.000000,0.000000,0.000000,0.000000,0.000000,0.000000,,,,,,,,,,,,,,,,,,,,,,,,,,,,,,,,,,,,,,,,,,,,,,,,,,,,,,,,,,,,,,,,,,,,,,,,,,,,,,,,,,,,,,,,,,,,,,,,,,,,,,,,,,,,,,,,,,,,,,,,,,,,,,,,,
1738754041.290853,59.000000,0.000000,4270.769043,4298.846191,4202.692383,4251.282227,4301.410156,4307.307617,4310.897461,4495.769043,4487.692383,4511.025879,4450.000000,5633.846191,4261.153809,4205.256348,0.000000,4.000000,80.000000,,,,0.000000,0.000000,0.000000,0.000000,0.000000,0.000000,0.000000,0.000000,0.000000,0.000000,0.000000,0.000000,0.000000,0.000000,0.000000,0.000000,,,,,,,,,,,,,,,,,,,,,,,,,,,,,,,,,,,,,,,,,,,,,,,,,,,,,,,,,,,,,,,,,,,,,,,,,,,,,,,,,,,,,,,,,,,,,,,,,,,,,,,,,,,,,,,,,,,,,,,,,,,,,,,,,
1738754041.298661,60.000000,0.000000,4270.769043,4297.948730,4202.563965,4254.743652,4302.307617,4311.282227,4315.384766,4502.820313,4487.179688,4508.461426,4447.307617,5638.717773,4249.743652,4200.384766,0.000000,4.000000,80.000000,,,,0.000000,0.000000,0.000000,0.000000,0.000000,0.000000,0.000000,0.000000,0.000000,0.000000,0.000000,0.000000,0.000000,0.000000,0.000000,0.000000,,,,,,,,,,,,,,,,,15.000000,0.000000,0.786468,-0.614929,-0.055481,0.015869,0.061531,-0.967892,0.240752,5.065154,-15.435564,21.648315,,,,,,,,,,,,,,,,,,,,,,,,,,,,,,,,,,,,,,,,,,,,,,,,,,,,,,,,,,,,,,,,,,,,,,,,,,,,,,,,,,,,,,,,,,,,,,,,,,,,,
1738754041.306568,61.000000,0.000000,4269.615234,4298.461426,4201.538574,4252.179688,4301.025879,4312.692383,4311.410156,4501.025879,4490.128418,4508.974121,4449.358887,5634.487305,4257.051270,4203.077148,0.000000,4.000000,80.000000,,,,0.000000,0.000000,0.000000,0.000000,0.000000,0.000000,0.000000,0.000000,0.000000,0.000000,0.000000,0.000000,0.000000,0.000000,0.000000,0.000000,,,,,,,,,,,,,,,,,,,,,,,,,,,,,,,,,,,,,,,,,,,,,,,,,,,,,,,,,,,,,,,,,,,,,,,,,,,,,,,,,,,,,,,,,,,,,,,,,,,,,,,,,,,,,,,,,,,,,,,,,,,,,,,,,
1738754041.314376,62.000000,0.000000,4271.025879,4302.051270,4201.025879,4251.538574,4300.256348,4311.794922,4314.615234,4497.563965,4488.205078,4508.589844,4450.641113,5631.410156,4258.077148,4206.538574,0.000000,4.000000,80.000000,,,,0.000000,0.000000,0.000000,0.000000,0.000000,0.000000,0.000000,0.000000,0.000000,0.000000,0.000000,0.000000,0.000000,0.000000,0.000000,0.000000,,,,,,,,,,,,,,,,,,,,,,,,,,,,,,,,,,,,,,,,,,,,,,,,,,,,,,,,,,,,0.023474,0.021714,0.014185,0.024238,0.045333,0.107316,0.259016,0.299685,0.333356,1.187613,0.024649,0.036722,0.017316,0.019366,0.039183,0.038195,0.070976,0.047352,0.047053,0.075603,0.039737,0.029754,0.022573,0.038238,0.098666,0.137290,0.124325,0.283706,0.182385,0.749118,0.039050,0.015888,0.015699,0.035050,0.041817,0.065682,0.112194,0.117614,0.085635,0.261040,0.021547,0.028801,0.024729,0.034684,0.054816,0.036683,0.030849,0.045168,0.013461,0.033839,0.058453,0.029004,0.027212,0.033872,0.070674,0.153754,0.153468,0.158132,0.135770,0.600077,0.219219,0.193229,0.189445,0.148778,0.417388,0.141176,0.220926,0.168839,0.168246,0.732929
1738754041.322284,63.000000,0.000000,4272.692383,4298.717773,4200.641113,4253.589844,4300.000000,4308.077148,4318.974121,4500.256348,4484.615234,4508.717773,4448.974121,5637.563965,4252.692383,4203.205078,0.000000,4.000000,80.000000,,,,0.000000,0.000000,0.000000,0.000000,0.000000,0.000000,0.000000,0.000000,0.000000,0.000000,0.000000,0.000000,0.000000,0.000000,0.000000,0.000000,,,,,,,,,,,,,,,,,,,,,,,,,,,,,,,,,,,,,,,,,,,,,,,,,,,,,,,,,,,,,,,,,,,,,,,,,,,,,,,,,,,,,,,,,,,,,,,,,,,,,,,,,,,,,,,,,,,,,,,,,,,,,,,,,
1738754041.330092,64.000000,0.000000,4270.769043,4297.820313,4203.589844,4249.487305,4300.256348,4307.436035,4310.384766,4496.025879,4488.589844,4509.871582,4450.641113,5631.538574,4265.512695,4206.153809,0.000000,4.000000,80.000000,,,,0.000000,0.000000,0.000000,0.000000,0.000000,0.000000,0.000000,0.000000,0.000000,0.000000,0.000000,0.000000,0.000000,0.000000,0.000000,0.000000,,,,,,,,,,,,,,,,,16.000000,0.000000,0.786416,-0.614990,-0.055542,0.015869,0.071298,-0.978147,0.231962,4.958639,-15.542007,21.666817,,,,,,,,,,,,,,,,,,,,,,,,,,,,,,,,,,,,,,,,,,,,,,,,,,,,,,,,,,,,,,,,,,,,,,,,,,,,,,,,,,,,,,,,,,,,,,,,,,,,,
1738754041.338000,65.000000,0.000000,4271.538574,4296.538574,4206.922852,4253.333496,4302.051270,4312.436035,4315.256348,4499.487305,4486.666504,4507.307617,4448.717773,5636.922852,4250.384766,4200.769043,0.000000,4.000000,80.000000,,,,0.000000,0.000000,0.000000,0.000000,0.000000,0.000000,0.000000,0.000000,0.000000,0.000000,0.000000,0.000000,0.000000,0.000000,0.000000,0.000000,,,,,,,,,,,,,,,,,,,,,,,,,,,,,,,,,,,,,,,,,,,,,,,,,,,,,,,,,,,,,,,,,,,,,,,,,,,,,,,,,,,,,,,,,,,,,,,,,,,,,,,,,,,,,,,,,,,,,,,,,,,,,,,,,
1738754041.345808,66.000000,0.000000,4270.641113,4296.794922,4201.794922,4251.282227,4300.384766,4312.692383,4315.641113,4500.769043,4488.077148,4508.333496,4450.384766,5637.307617,4255.384766,4203.077148,0.000000,4.000000,80.000000,,,,0.000000,0.000000,0.000000,0.000000,0.000000,0.000000,0.000000,0.000000,0.000000,0.000000,0.000000,0.000000,0.000000,0.000000,0.000000,0.000000,,,,,,,,,,,,,,,,,,,,,,,,,,,,,,,,,,,,,,,,,,,,,,,,,,,,,,,,,,,,,,,,,,,,,,,,,,,,,,,,,,,,,,,,,,,,,,,,,,,,,,,,,,,,,,,,,,,,,,,,,,,,,,,,,
1738754041.353516,67.000000,0.000000,4271.153809,4299.487305,4203.077148,4251.025879,4300.256348,4310.128418,4311.538574,4499.230957,4491.410156,4510.256348,4449.871582,5632.948730,4261.410156,4205.384766,0.000000,4.000000,80.000000,,,,0.000000,0.000000,0.000000,0.000000,0.000000,0.000000,0.000000,0.000000,0.000000,0.000000,0.000000,0.000000,0.000000,0.000000,0.000000,0.000000,,,,,,,,,,,,,,,,,,,,,,,,,,,,,,,,,,,,,,,,,,,,,,,,,,,,,,,,,,,,,,,,,,,,,,,,,,,,,,,,,,,,,,,,,,,,,,,,,,,,,,,,,,,,,,,,,,,,,,,,,,,,,,,,,
1738754041.361324,68.000000,0.000000,4270.512695,4297.820313,4204.743652,4257.692383,4304.871582,4307.820313,4313.589844,4501.410156,4488.461426,4508.205078,4447.179688,5638.077148,4246.538574,4199.102539,0.000000,4.000000,80.000000,,,,0.000000,0.000000,0.000000,0.000000,0.000000,0.000000,0.000000,0.000000,0.000000,0.000000,0.000000,0.000000,0.000000,0.000000,0.000000,0.000000,,,,,,,,,,,,,,,,,17.000000,0.000000,0.786464,-0.614929,-0.055542,0.015869,0.066414,-0.974728,0.242705,4.829442,-15.571140,21.583469,,,,,,,,,,,,,,,,,,,,,,,,,,,,,,,,,,,,,,,,,,,,,,,,,,,,,,,,,,,,,,,,,,,,,,,,,,,,,,,,,,,,,,,,,,,,,,,,,,,,,
1738754041.369032,69.000000,0.000000,4267.307617,4301.153809,4201.666504,4252.307617,4304.358887,4308.205078,4311.410156,4498.717773,4487.948730,4508.205078,4452.051270,5631.922852,4260.384766,4208.974121,0.000000,4.000000,80.000000,,,,0.000000,0.000000,0.000000,0.000000,0.000000,0.000000,0.000000,0.000000,0.000000,0.000000,0.000000,0.000000,0.000000,0.000000,0.000000,0.000000,,,,,,,,,,,,,,,,,,,,,,,,,,,,,,,,,,,,,,,,,,,,,,,,,,,,,,,,,,,,,,,,,,,,,,,,,,,,,,,,,,,,,,,,,,,,,,,,,,,,,,,,,,,,,,,,,,,,,,,,,,,,,,,,,
1738754041.376940,70.000000,0.000000,4271.666504,4300.384766,4206.153809,4252.820313,4298.846191,4312.051270,4317.051270,4501.922852,4485.897461,4508.974121,4450.000000,5634.743652,4256.282227,4206.538574,0.000000,4.000000,80.000000,,,,0.000000,0.000000,0.000000,0.000000,0.000000,0.000000,0.000000,0.000000,0.000000,0.000000,0.000000,0.000000,0.000000,0.000000,0.000000,0.000000,,,,,,,,,,,,,,,,,,,,,,,,,,,,,,,,,,,,,,,,,,,,,,,,,,,,,,,,,,,,,,,,,,,,,,,,,,,,,,,,,,,,,,,,,,,,,,,,,,,,,,,,,,,,,,,,,,,,,,,,,,,,,,,,,
1738754041.384748,71.000000,0.000000,4272.179688,4296.410156,4206.794922,4255.641113,4297.692383,4310.769043,4315.641113,4498.589844,4489.358887,4511.410156,4448.333496,5635.641113,4254.230957,4202.436035,0.000000,4.000000,80.000000,,,,0.000000,0.000000,0.000000,0.000000,0.000000,0.000000,0.000000,0.000000,0.000000,0.000000,0.000000,0.000000,0.000000,0.000000,0.000000,0.000000,,,,,,,,,,,,,,,,,,,,,,,,,,,,,,,,,,,,,,,,,,,,,,,,,,,,,,,,,,,,,,,,,,,,,,,,,,,,,,,,,,,,,,,,,,,,,,,,,,,,,,,,,,,,,,,,,,,,,,,,,,,,,,,,,
1738754041.392656,72.000000,0.000000,4268.717773,4298.077148,4206.538574,4254.615234,4302.948730,4310.000000,4313.846191,4492.820313,4492.948730,4511.025879,4451.410156,5632.948730,4258.589844,4207.948730,0.000000,4.000000,80.000000,,,,0.000000,0.000000,0.000000,0.000000,0.000000,0.000000,0.000000,0.000000,0.000000,0.000000,0.000000,0.000000,0.000000,0.000000,0.000000,0.000000,,,,,,,,,,,,,,,,,18.000000,0.000000,0.786371,-0.615051,-0.055481,0.015930,0.067391,-0.994262,0.246124,4.763164,-15.497359,21.675121,,,,,,,,,,,,,,,,,,,,,,,,,,,,,,,,,,,,,,,,,,,,,,,,,,,,,,,,,,,,,,,,,,,,,,,,,,,,,,,,,,,,,,,,,,,,,,,,,,,,,
1738754041.400464,73.000000,0.000000,4270.384766,4298.589844,4203.717773,4253.461426,4304.230957,4312.179688,4317.436035,4498.461426,4489.487305,4508.589844,4450.512695,5639.743652,4248.205078,4203.077148,0.000000,4.000000,80.000000,,,,0.000000,0.000000,0.000000,0.000000,0.000000,0.000000,0.000000,0.000000,0.000000,0.000000,0.000000,0.000000,0.000000,0.000000,0.000000,0.000000,,,,,,,,,,,,,,,,,,,,,,,,,,,,,,,,,,,,,,,,,,,,,,,,,,,,,,,,,,,,,,,,,,,,,,,,,,,,,,,,,,,,,,,,,,,,,,,,,,,,,,,,,,,,,,,,,,,,,,,,,,,,,,,,,
1738754041.408272,74.000000,0.000000,4271.282227,4301.922852,4202.307617,4246.922852,4299.743652,4312.820313,4308.205078,4495.000000,4491.922852,4511.922852,4452.051270,5633.333496,4261.922852,4208.205078,0.000000,4.000000,80.000000,,,,0.000000,0.000000,0.000000,0.000000,0.000000,0.000000,0.000000,0.000000,0.000000,0.000000,0.000000,0.000000,0.000000,0.000000,0.000000,0.000000,,,,,,,,,,,,,,,,,,,,,,,,,,,,,,,,,,,,,,,,,,,,,,,,,,,,,,,,,,,,,,,,,,,,,,,,,,,,,,,,,,,,,,,,,,,,,,,,,,,,,,,,,,,,,,,,,,,,,,,,,,,,,,,,,
1738754041.415980,75.000000,0.000000,4274.615234,4301.282227,4207.692383,4251.666504,4299.230957,4312.563965,4311.410156,4495.512695,4491.153809,4508.717773,4449.743652,5634.615234,4256.666504,4202.436035,0.000000,4.000000,80.000000,,,,0.000000,0.000000,0.000000,0.000000,0.000000,0.000000,0.000000,0.000000,0.000000,0.000000,0.000000,0.000000,0.000000,0.000000,0.000000,0.000000,,,,,,,,,,,,,,,,,,,,,,,,,,,,,,,,,,,,,,,,,,,,,,,,,,,,,,,,,,,,,,,,,,,,,,,,,,,,,,,,,,,,,,,,,,,,,,,,,,,,,,,,,,,,,,,,,,,,,,,,,,,,,,,,,
1738754041.423788,76.000000,0.000000,4272.948730,4297.051270,4201.410156,4255.256348,4300.641113,4310.128418,4315.384766,4500.641113,4488.333496,4505.256348,4450.256348,5635.256348,4252.436035,4199.487305,0.000000,4.000000,80.000000,,,,0.000000,0.000000,0.000000,0.000000,0.000000,0.000000,0.000000,0.000000,0.000000,0.000000,0.000000,0.000000,0.000000,0.000000,0.000000,0.000000,,,,,,,,,,,,,,,,,19.000000,0.000000,0.786319,-0.615112,-0.055542,0.015930,0.051764,-0.985472,0.244170,4.686848,-15.547624,21.690943,,,,,,,,,,,,,,,,,,,,,,,,,,,,,,,,,,,,,,,,,,,,,,,,,,,,,,,,,,,,,,,,,,,,,,,,,,,,,,,,,,,,,,,,,,,,,,,,,,,,,
1738754041.431496,77.000000,0.000000,4269.230957,4298.846191,4199.230957,4254.102539,4299.230957,4311.538574,4312.307617,4499.487305,4490.769043,4511.666504,4452.948730,5628.846191,4261.025879,4208.205078,0.000000,4.000000,80.000000,,,,0.000000,0.000000,0.000000,0.000000,0.000000,0.000000,0.000000,0.000000,0.000000,0.000000,0.000000,0.000000,0.000000,0.000000,0.000000,0.000000,,,,,,,,,,,,,,,,,,,,,,,,,,,,,,,,,,,,,,,,,,,,,,,,,,,,,,,,,,,,,,,,,,,,,,,,,,,,,,,,,,,,,,,,,,,,,,,,,,,,,,,,,,,,,,,,,,,,,,,,,,,,,,,,,
1738754041.439304,78.000000,0.000000,4271.025879,4299.487305,4206.922852,4257.563965,4298.846191,4312.563965,4316.153809,4502.692383,4488.461426,4514.230957,4450.256348,5635.769043,4248.717773,4198.205078,0.000000,4.000000,80.000000,,,,0.000000,0.000000,0.000000,0.000000,0.000000,0.000000,0.000000,0.000000,0.000000,0.000000,0.000000,0.000000,0.000000,0.000000,0.000000,0.000000,,,,,,,,,,,,,,,,,,,,,,,,,,,,,,,,,,,,,,,,,,,,,,,,,,,,,,,,,,,,0.025805,0.022642,0.013670,0.025287,0.041260,0.096815,0.206758,0.243501,0.258739,0.928557,0.016831,0.028406,0.013863,0.018442,0.036658,0.030036,0.062408,0.050478,0.043090,0.065273,0.035265,0.027640,0.020121,0.036773,0.079046,0.111195,0.104694,0.218506,0.145871,0.579700,0.042904,0.018517,0.016171,0.026974,0.034894,0.050794,0.101349,0.095558,0.067476,0.204545,0.020098,0.034368,0.020583,0.034637,0.045524,0.030559,0.023626,0.035898,0.012410,0.031533,0.059658,0.027659,0.027519,0.030420,0.062326,0.130235,0.120681,0.120138,0.106864,0.466339,0.192745,0.149508,0.146313,0.118671,0.319516,0.132357,0.176472,0.139654,0.130930,0.569537
1738754041.447012,79.000000,0.000000,4270.384766,4301.153809,4203.846191,4250.256348,4301.538574,4309.615234,4310.897461,4498.333496,4489.743652,4512.563965,4452.179688,5633.717773,4260.897461,4202.820313,0.000000,4.000000,80.000000,,,,0.000000,0.000000,0.000000,0.000000,0.000000,0.000000,0.000000,0.000000,0.000000,0.000000,0.000000,0.000000,0.000000,0.000000,0.000000,0.000000,,,,,,,,,,,,,,,,,,,,,,,,,,,,,,,,,,,,,,,,,,,,,,,,,,,,,,,,,,,,,,,,,,,,,,,,,,,,,,,,,,,,,,,,,,,,,,,,,,,,,,,,,,,,,,,,,,,,,,,,,,,,,,,,,
1738754041.454820,80.000000,0.000000,4273.333496,4299.487305,4203.717773,4252.563965,4303.589844,4309.358887,4313.077148,4496.410156,4489.743652,4509.871582,4447.436035,5636.538574,4259.358887,4208.461426,0.000000,4.000000,80.000000,,,,0.000000,0.000000,0.000000,0.000000,0.000000,0.000000,0.000000,0.000000,0.000000,0.000000,0.000000,0.000000,0.000000,0.000000,0.000000,0.000000,,,,,,,,,,,,,,,,,20.000000,0.000000,0.786315,-0.615112,-0.055603,0.015930,0.067391,-0.964962,0.220730,4.551496,-15.609528,21.688515,,,,,,,,,,,,,,,,,,,,,,,,,,,,,,,,,,,,,,,,,,,,,,,,,,,,,,,,,,,,,,,,,,,,,,,,,,,,,,,,,,,,,,,,,,,,,,,,,,,,,
1738754041.462528,81.000000,0.000000,4272.692383,4296.153809,4205.256348,4257.307617,4301.538574,4309.487305,4315.384766,4496.410156,4486.666504,4510.897461,4444.615234,5637.051270,4251.025879,4203.461426,0.000000,4.000000,80.000000,,,,0.000000,0.000000,0.000000,0.000000,0.000000,0.000000,0.000000,0.000000,0.000000,0.000000,0.000000,0.000000,0.000000,0.000000,0.000000,0.000000,,,,,,,,,,,,,,,,,,,,,,,,,,,,,,,,,,,,,,,,,,,,,,,,,,,,,,,,,,,,,,,,,,,,,,,,,,,,,,,,,,,,,,,,,,,,,,,,,,,,,,,,,,,,,,,,,,,,,,,,,,,,,,,,,
1738754041.470436,82.000000,0.000000,4269.743652,4301.153809,4204.102539,4253.717773,4300.641113,4311.538574,4310.384766,4496.794922,4488.846191,4512.307617,4451.025879,5627.692383,4260.384766,4206.922852,0.000000,4.000000,80.000000,,,,0.000000,0.000000,0.000000,0.000000,0.000000,0.000000,0.000000,0.000000,0.000000,0.000000,0.000000,0.000000,0.000000,0.000000,0.000000,0.000000,,,,,,,,,,,,,,,,,,,,,,,,,,,,,,,,,,,,,,,,,,,,,,,,,,,,,,,,,,,,,,,,,,,,,,,,,,,,,,,,,,,,,,,,,,,,,,,,,,,,,,,,,,,,,,,,,,,,,,,,,,,,,,,,,
1738754041.478244,83.000000,0.000000,4271.922852,4299.615234,4205.256348,4258.077148,4302.051270,4312.692383,4317.563965,4507.307617,4486.153809,4508.461426,4449.615234,5637.563965,4246.922852,4201.538574,0.000000,4.000000,80.000000,,,,0.000000,0.000000,0.000000,0.000000,0.000000,0.000000,0.000000,0.000000,0.000000,0.000000,0.000000,0.000000,0.000000,0.000000,0.000000,0.000000,,,,,,,,,,,,,,,,,,,,,,,,,,,,,,,,,,,,,,,,,,,,,,,,,,,,,,,,,,,,,,,,,,,,,,,,,,,,,,,,,,,,,,,,,,,,,,,,,,,,,,,,,,,,,,,,,,,,,,,,,,,,,,,,,
1738754041.486152,84.000000,0.000000,4269.871582,4296.922852,4202.563965,4254.358887,4302.436035,4309.487305,4316.410156,4506.538574,4486.922852,4508.974121,4449.871582,5636.282227,4257.307617,4204.743652,0.000000,4.000000,80.000000,,,,0.000000,0.000000,0.000000,0.000000,0.000000,0.000000,0.000000,0.000000,0.000000,0.000000,0.000000,0.000000,0.000000,0.000000,0.000000,0.000000,,,,,,,,,,,,,,,,,21.000000,0.000000,0.786263,-0.615173,-0.055664,0.015930,0.071298,-0.965450,0.228055,4.529680,-15.598575,21.702997,,,,,,,,,,,,,,,,,,,,,,,,,,,,,,,,,,,,,,,,,,,,,,,,,,,,,,,,,,,,,,,,,,,,,,,,,,,,,,,,,,,,,,,,,,,,,,,,,,,,,
1738754041.493960,85.000000,0.000000,4272.436035,4299.487305,4205.512695,4253.717773,4303.333496,4311.794922,4317.436035,4501.410156,4489.358887,4509.615234,4449.871582,5631.538574,4258.205078,4205.384766,0.000000,4.000000,80.000000,,,,0.000000,0.000000,0.000000,0.000000,0.000000,0.000000,0.000000,0.000000,0.000000,0.000000,0.000000,0.000000,0.000000,0.000000,0.000000,0.000000,,,,,,,,,,,,,,,,,,,,,,,,,,,,,,,,,,,,,,,,,,,,,,,,,,,,,,,,,,,,,,,,,,,,,,,,,,,,,,,,,,,,,,,,,,,,,,,,,,,,,,,,,,,,,,,,,,,,,,,,,,,,,,,,,
1738754041.501868,86.000000,0.000000,4273.846191,4298.589844,4206.025879,4256.794922,4301.410156,4313.333496,4315.512695,4494.487305,4489.615234,4507.820313,4448.974121,5637.179688,4249.743652,4202.563965,0.000000,4.000000,80.000000,,,,0.000000,0.000000,0.000000,0.000000,0.000000,0.000000,0.000000,0.000000,0.000000,0.000000,0.000000,0.000000,0.000000,0.000000,0.000000,0.000000,,,,,,,,,,,,,,,,,,,,,,,,,,,,,,,,,,,,,,,,,,,,,,,,,,,,,,,,,,,,,,,,,,,,,,,,,,,,,,,,,,,,,,,,,,,,,,,,,,,,,,,,,,,,,,,,,,,,,,,,,,,,,,,,,
1738754041.509676,87.000000,0.000000,4269.743652,4301.153809,4203.333496,4251.666504,4299.230957,4309.743652,4307.436035,4490.256348,4494.102539,4511.025879,4451.538574,5632.692383,4268.461426,4209.487305,0.000000,4.000000,80.000000,,,,0.000000,0.000000,0.000000,0.000000,0.000000,0.000000,0.000000,0.000000,0.000000,0.000000,0.000000,0.000000,0.000000,0.000000,0.000000,0.000000,,,,,,,,,,,,,,,,,,,,,,,,,,,,,,,,,,,,,,,,,,,,,,,,,,,,,,,,,,,,,,,,,,,,,,,,,,,,,,,,,,,,,,,,,,,,,,,,,,,,,,,,,,,,,,,,,,,,,,,,,,,,,,,,,
1738754041.517583,88.000000,0.000000,4271.666504,4300.384766,4205.000000,4255.897461,4302.563965,4308.717773,4320.128418,4504.871582,4487.692383,4513.077148,4447.820313,5636.025879,4251.922852,4201.153809,0.000000,4.000000,80.000000,,,,0.000000,0.000000,0.000000,0.000000,0.000000,0.000000,0.000000,0.000000,0.000000,0.000000,0.000000,0.000000,0.000000,0.000000,0.000000,0.000000,,,,,,,,,,,,,,,,,22.000000,0.000000,0.786263,-0.615173,-0.055664,0.015930,0.070809,-0.983518,0.236845,4.660045,-15.622051,21.649364,,,,,,,,,,,,,,,,,,,,,,,,,,,,,,,,,,,,,,,,,,,,,,,,,,,,,,,,,,,,,,,,,,,,,,,,,,,,,,,,,,,,,,,,,,,,,,,,,,,,,
1738754041.525391,89.000000,0.000000,4271.282227,4298.717773,4200.512695,4254.743652,4302.051270,4309.358887,4318.974121,4505.512695,4484.871582,4512.307617,4450.256348,5634.871582,4251.538574,4202.563965,0.000000,4.000000,80.000000,,,,0.000000,0.000000,0.000000,0.000000,0.000000,0.000000,0.000000,0.000000,0.000000,0.000000,0.000000,0.000000,0.000000,0.000000,0.000000,0.000000,,,,,,,,,,,,,,,,,,,,,,,,,,,,,,,,,,,,,,,,,,,,,,,,,,,,,,,,,,,,,,,,,,,,,,,,,,,,,,,,,,,,,,,,,,,,,,,,,,,,,,,,,,,,,,,,,,,,,,,,,,,,,,,,,
1738754041.533099,90.000000,0.000000,4272.179688,4302.436035,4202.307617,4252.692383,4298.717773,4312.820313,4310.641113,4498.974121,4488.974121,4509.102539,4452.948730,5633.846191,4260.000000,4207.692383,0.000000,4.000000,80.000000,,,,0.000000,0.000000,0.000000,0.000000,0.000000,0.000000,0.000000,0.000000,0.000000,0.000000,0.000000,0.000000,0.000000,0.000000,0.000000,0.000000,,,,,,,,,,,,,,,,,,,,,,,,,,,,,,,,,,,,,,,,,,,,,,,,,,,,,,,,,,,,,,,,,,,,,,,,,,,,,,,,,,,,,,,,,,,,,,,,,,,,,,,,,,,,,,,,,,,,,,,,,,,,,,,,,
1738754041.540907,91.000000,0.000000,4273.077148,4298.717773,4202.436035,4255.641113,4301.282227,4312.563965,4315.128418,4501.153809,4486.922852,4507.307617,4450.769043,5639.230957,4250.512695,4199.230957,0.000000,4.000000,80.000000,,,,0.000000,0.000000,0.000000,0.000000,0.000000,0.000000,0.000000,0.000000,0.000000,0.000000,0.000000,0.000000,0.000000,0.000000,0.000000,0.000000,,,,,,,,,,,,,,,,,,,,,,,,,,,,,,,,,,,,,,,,,,,,,,,,,,,,,,,,,,,,,,,,,,,,,,,,,,,,,,,,,,,,,,,,,,,,,,,,,,,,,,,,,,,,,,,,,,,,,,,,,,,,,,,,,
1738754041.548616,92.000000,0.000000,4271.794922,4297.307617,4202.179688,4251.282227,4304.358887,4311.794922,4313.077148,4496.282227,4487.820313,4511.282227,4453.333496,5630.000000,4264.871582,4204.871582,0.000000,4.000000,80.000000,,,,0.000000,0.000000,0.000000,0.000000,0.000000,0.000000,0.000000,0.000000,0.000000,0.000000,0.000000,0.000000,0.000000,0.000000,0.000000,0.000000,,,,,,,,,,,,,,,,,23.000000,0.000000,0.786308,-0.615112,-0.055725,0.015869,0.074716,-0.985472,0.247589,4.844040,-15.793180,21.701094,,,,,,,,,,,,,,,,,,,,,,,,,,,,,,,,,,,,,,,,,,,,,,,,,,,,,,,,,,,,,,,,,,,,,,,,,,,,,,,,,,,,,,,,,,,,,,,,,,,,,
1738754041.556423,93.000000,0.000000,4275.512695,4300.512695,4208.589844,4255.641113,4303.461426,4314.871582,4316.025879,4499.487305,4486.538574,4513.717773,4450.769043,5633.077148,4254.102539,4203.333496,0.000000,4.000000,80.000000,,,,0.000000,0.000000,0.000000,0.000000,0.000000,0.000000,0.000000,0.000000,0.000000,0.000000,0.000000,0.000000,0.000000,0.000000,0.000000,0.000000,,,,,,,,,,,,,,,,,,,,,,,,,,,,,,,,,,,,,,,,,,,,,,,,,,,,,,,,,,,,,,,,,,,,,,,,,,,,,,,,,,,,,,,,,,,,,,,,,,,,,,,,,,,,,,,,,,,,,,,,,,,,,,,,,
1738754041.564132,94.000000,0.000000,4270.384766,4301.538574,4202.307617,4253.077148,4302.051270,4314.358887,4313.974121,4500.641113,4486.410156,4513.461426,4451.153809,5636.666504,4253.589844,4202.692383,0.000000,4.000000,80.000000,,,,0.000000,0.000000,0.000000,0.000000,0.000000,0.000000,0.000000,0.000000,0.000000,0.000000,0.000000,0.000000,0.000000,0.000000,0.000000,0.000000,1.000000,0.000000,0.000000,0.000000,0.000000,0.000000,0.000000,0.000000,0.000000,0.000000,0.000000,0.000000,0.000000,0.000000,0.000000,0.000000,,,,,,,,,,,,,,,,,,,,,,,,,,,,,,,,,,,,,,,,,,,,0.025603,0.023381,0.014368,0.025761,0.038253,0.104113,0.175196,0.213107,0.221955,0.772846,0.012954,0.020414,0.012901,0.018965,0.034921,0.026729,0.056971,0.054703,0.039212,0.058803,0.028384,0.026261,0.018384,0.036572,0.066986,0.086451,0.108415,0.164605,0.127482,0.476511,0.045099,0.021841,0.018060,0.022494,0.030506,0.043079,0.093687,0.075482,0.059030,0.170480,0.018299,0.041973,0.018944,0.035469,0.038148,0.025503,0.019537,0.028371,0.011125,0.029458,0.057651,0.024259,0.030256,0.027910,0.056127,0.116395,0.100852,0.095248,0.088098,0.378408,0.169799,0.117350,0.109058,0.098690,0.256577,0.140509,0.154074,0.126036,0.111482,0.472541
1738754041.571940,95.000000,0.000000,4267.563965,4301.153809,4202.692383,4249.615234,4301.410156,4314.230957,4315.384766,4499.615234,4490.641113,4510.512695,4453.461426,5633.589844,4262.563965,4210.000000,0.000000,4.000000,80.000000,,,,0.000000,0.000000,0.000000,0.000000,0.000000,0.000000,0.000000,0.000000,0.000000,0.000000,0.000000,0.000000,0.000000,0.000000,0.000000,0.000000,,,,,,,,,,,,,,,,,,,,,,,,,,,,,,,,,,,,,,,,,,,,,,,,,,,,,,,,,,,,,,,,,,,,,,,,,,,,,,,,,,,,,,,,,,,,,,,,,,,,,,,,,,,,,,,,,,,,,,,,,,,,,,,,,
1738754041.579648,96.000000,0.000000,4272.820313,4296.410156,4207.436035,4256.410156,4299.871582,4310.897461,4319.871582,4505.256348,4492.436035,4509.615234,4451.922852,5639.230957,4247.948730,4202.820313,0.000000,4.000000,80.000000,,,,0.000000,0.000000,0.000000,0.000000,0.000000,0.000000,0.000000,0.000000,0.000000,0.000000,0.000000,0.000000,0.000000,0.000000,0.000000,0.000000,,,,,,,,,,,,,,,,,24.000000,0.000000,0.786311,-0.615112,-0.055664,0.015930,0.059089,-0.969357,0.223172,4.892970,-15.697194,21.614319,,,,,,,,,,,,,,,,,,,,,,,,,,,,,,,,,,,,,,,,,,,,,,,,,,,,,,,,,,,,,,,,,,,,,,,,,,,,,,,,,,,,,,,,,,,,,,,,,,,,,
1738754041.587456,97.000000,0.000000,4273.717773,4297.820313,4203.461426,4254.230957,4302.820313,4309.615234,4312.948730,4497.948730,4494.871582,4513.974121,4453.974121,5632.563965,4260.384766,4207.820313,0.000000,4.000000,80.000000,,,,0.000000,0.000000,0.000000,0.000000,0.000000,0.000000,0.000000,0.000000,0.000000,0.000000,0.000000,0.000000,0.000000,0.000000,0.000000,0.000000,,,,,,,,,,,,,,,,,,,,,,,,,,,,,,,,,,,,,,,,,,,,,,,,,,,,,,,,,,,,,,,,,,,,,,,,,,,,,,,,,,,,,,,,,,,,,,,,,,,,,,,,,,,,,,,,,,,,,,,,,,,,,,,,,
1738754041.595164,98.000000,0.000000,4276.666504,4300.641113,4208.589844,4258.333496,4308.205078,4316.794922,4320.256348,4499.358887,4487.820313,4511.794922,4450.000000,5636.153809,4252.820313,4208.077148,0.000000,4.000000,80.000000,,,,0.000000,0.000000,0.000000,0.000000,0.000000,0.000000,0.000000,0.000000,0.000000,0.000000,0.000000,0.000000,0.000000,0.000000,0.000000,0.000000,,,,,,,,,,,,,,,,,,,,,,,,,,,,,,,,,,,,,,,,,,,,,,,,,,,,,,,,,,,,,,,,,,,,,,,,,,,,,,,,,,,,,,,,,,,,,,,,,,,,,,,,,,,,,,,,,,,,,,,,,,,,,,,,,
1738754041.602972,99.000000,0.000000,4271.410156,4295.128418,4206.282227,4258.333496,4305.000000,4313.846191,4317.692383,4503.333496,4484.743652,4510.641113,4450.512695,5638.077148,4248.077148,4201.922852,0.000000,4.000000,80.000000,,,,0.000000,0.000000,0.000000,0.000000,0.000000,0.000000,0.000000,0.000000,0.000000,0.000000,0.000000,0.000000,0.000000,0.000000,0.000000,0.000000,,,,,,,,,,,,,,,,,,,,,,,,,,,,,,,,,,,,,,,,,,,,,,,,,,,,,,,,,,,,,,,,,,,,,,,,,,,,,,,,,,,,,,,,,,,,,,,,,,,,,,,,,,,,,,,,,,,,,,,,,,,,,,,,,
1738754041.610680,100.000000,0.000000,4271.282227,4298.717773,4206.410156,4252.563965,4301.666504,4310.000000,4311.153809,4498.205078,4490.000000,4511.922852,4452.948730,5633.974121,4264.358887,4210.769043,0.000000,4.000000,80.000000,,,,0.000000,0.000000,0.000000,0.000000,0.000000,0.000000,0.000000,0.000000,0.000000,0.000000,0.000000,0.000000,0.000000,0.000000,0.000000,0.000000,,,,,,,,,,,,,,,,,25.000000,0.000000,0.786314,-0.615112,-0.055603,0.015991,0.063484,-0.962031,0.232939,4.687006,-15.610808,21.736219,,,,,,,,,,,,,,,,,,,,,,,,,,,,,,,,,,,,,,,,,,,,,,,,,,,,,,,,,,,,,,,,,,,,,,,,,,,,,,,,,,,,,,,,,,,,,,,,,,,,,
1738754041.618488,101.000000,0.000000,4277.820313,4301.922852,4208.205078,4257.179688,4303.077148,4313.589844,4319.743652,4502.948730,4486.153809,4509.102539,4446.922852,5642.563965,4252.179688,4201.922852,0.000000,4.000000,80.000000,,,,0.000000,0.000000,0.000000,0.000000,0.000000,0.000000,0.000000,0.000000,0.000000,0.000000,0.000000,0.000000,0.000000,0.000000,0.000000,0.000000,,,,,,,,,,,,,,,,,,,,,,,,,,,,,,,,,,,,,,,,,,,,,,,,,,,,,,,,,,,,,,,,,,,,,,,,,,,,,,,,,,,,,,,,,,,,,,,,,,,,,,,,,,,,,,,,,,,,,,,,,,,,,,,,,
1738754041.626196,102.000000,0.000000,4271.025879,4300.512695,4199.615234,4252.948730,4301.922852,4313.974121,4312.051270,4499.487305,4487.436035,4511.922852,4450.256348,5632.563965,4263.974121,4202.179688,0.000000,4.000000,80.000000,,,,0.000000,0.000000,0.000000,0.000000,0.000000,0.000000,0.000000,0.000000,0.000000,0.000000,0.000000,0.000000,0.000000,0.000000,0.000000,0.000000,,,,,,,,,,,,,,,,,,,,,,,,,,,,,,,,,,,,,,,,,,,,,,,,,,,,,,,,,,,,,,,,,,,,,,,,,,,,,,,,,,,,,,,,,,,,,,,,,,,,,,,,,,,,,,,,,,,,,,,,,,,,,,,,,
1738754041.634004,103.000000,0.000000,4272.307617,4300.641113,4209.102539,4255.384766,4302.051270,4315.128418,4314.230957,4498.846191,4488.846191,4513.205078,4451.025879,5634.102539,4259.230957,4208.717773,0.000000,4.000000,80.000000,,,,0.000000,0.000000,0.000000,0.000000,0.000000,0.000000,0.000000,0.000000,0.000000,0.000000,0.000000,0.000000,0.000000,0.000000,0.000000,0.000000,,,,,,,,,,,,,,,,,,,,,,,,,,,,,,,,,,,,,,,,,,,,,,,,,,,,,,,,,,,,,,,,,,,,,,,,,,,,,,,,,,,,,,,,,,,,,,,,,,,,,,,,,,,,,,,,,,,,,,,,,,,,,,,,,
1738754041.641712,104.000000,0.000000,4274.102539,4296.410156,4210.256348,4257.436035,4301.410156,4312.051270,4319.102539,4503.974121,4489.487305,4511.922852,4450.769043,5640.769043,4243.717773,4200.128418,0.000000,4.000000,80.000000,,,,0.000000,0.000000,0.000000,0.000000,0.000000,0.000000,0.000000,0.000000,0.000000,0.000000,0.000000,0.000000,0.000000,0.000000,0.000000,0.000000,,,,,,,,,,,,,,,,,26.000000,0.000000,0.786315,-0.615112,-0.055603,0.015930,0.060066,-0.968380,0.227078,4.868306,-15.649728,21.695930,,,,,,,,,,,,,,,,,,,,,,,,,,,,,,,,,,,,,,,,,,,,,,,,,,,,,,,,,,,,,,,,,,,,,,,,,,,,,,,,,,,,,,,,,,,,,,,,,,,,,
1738754041.649620,105.000000,0.000000,4270.769043,4301.666504,4205.769043,4255.897461,4302.563965,4309.358887,4314.743652,4502.179688,4494.871582,4513.205078,4453.461426,5631.153809,4259.743652,4205.897461,0.000000,4.000000,80.000000,,,,0.000000,0.000000,0.000000,0.000000,0.000000,0.000000,0.000000,0.000000,0.000000,0.000000,0.000000,0.000000,0.000000,0.000000,0.000000,0.000000,,,,,,,,,,,,,,,,,,,,,,,,,,,,,,,,,,,,,,,,,,,,,,,,,,,,,,,,,,,,,,,,,,,,,,,,,,,,,,,,,,,,,,,,,,,,,,,,,,,,,,,,,,,,,,,,,,,,,,,,,,,,,,,,,
1738754041.657428,106.000000,0.000000,4273.589844,4302.692383,4212.436035,4263.333496,4303.205078,4312.179688,4320.128418,4504.487305,4489.871582,4510.769043,4449.358887,5636.794922,4247.948730,4203.717773,0.000000,4.000000,80.000000,,,,0.000000,0.000000,0.000000,0.000000,0.000000,0.000000,0.000000,0.000000,0.000000,0.000000,0.000000,0.000000,0.000000,0.000000,0.000000,0.000000,,,,,,,,,,,,,,,,,,,,,,,,,,,,,,,,,,,,,,,,,,,,,,,,,,,,,,,,,,,,,,,,,,,,,,,,,,,,,,,,,,,,,,,,,,,,,,,,,,,,,,,,,,,,,,,,,,,,,,,,,,,,,,,,,
1738754041.665335,107.000000,0.000000,4271.538574,4296.153809,4207.563965,4254.102539,4299.230957,4311.922852,4313.846191,4497.948730,4488.461426,4509.358887,4452.436035,5635.000000,4250.897461,4200.769043,0.000000,4.000000,80.000000,,,,0.000000,0.000000,0.000000,0.000000,0.000000,0.000000,0.000000,0.000000,0.000000,0.000000,0.000000,0.000000,0.000000,0.000000,0.000000,0.000000,,,,,,,,,,,,,,,,,,,,,,,,,,,,,,,,,,,,,,,,,,,,,,,,,,,,,,,,,,,,,,,,,,,,,,,,,,,,,,,,,,,,,,,,,,,,,,,,,,,,,,,,,,,,,,,,,,,,,,,,,,,,,,,,,
1738754041.673143,108.000000,0.000000,4278.077148,4301.025879,4214.615234,4254.743652,4303.974121,4316.282227,4319.871582,4499.615234,4490.000000,4510.256348,4452.436035,5637.563965,4251.794922,4205.641113,0.000000,4.000000,80.000000,,,,0.000000,0.000000,0.000000,0.000000,0.000000,0.000000,0.000000,0.000000,0.000000,0.000000,0.000000,0.000000,0.000000,0.000000,0.000000,0.000000,,,,,,,,,,,,,,,,,27.000000,0.000000,0.786262,-0.615173,-0.055664,0.015991,0.069833,-0.984007,0.233915,4.998142,-15.568089,21.776339,,,,,,,,,,,,,,,,,,,,,,,,,,,,,,,,,,,,,,,,,,,,,,,,,,,,,,,,,,,,,,,,,,,,,,,,,,,,,,,,,,,,,,,,,,,,,,,,,,,,,
1738754041.681051,109.000000,0.000000,4278.974121,4298.333496,4216.282227,4263.333496,4307.692383,4316.025879,4323.974121,4506.410156,4488.205078,4510.000000,4448.846191,5642.563965,4238.589844,4198.589844,0.000000,4.000000,80.000000,,,,0.000000,0.000000,0.000000,0.000000,0.000000,0.000000,0.000000,0.000000,0.000000,0.000000,0.000000,0.000000,0.000000,0.000000,0.000000,0.000000,,,,,,,,,,,,,,,,,,,,,,,,,,,,,,,,,,,,,,,,,,,,,,,,,,,,,,,,,,,,,,,,,,,,,,,,,,,,,,,,,,,,,,,,,,,,,,,,,,,,,,,,,,,,,,,,,,,,,,,,,,,,,,,,,
1738754041.688859,110.000000,0.000000,4271.794922,4298.974121,4211.538574,4258.333496,4301.794922,4313.077148,4314.615234,4500.384766,4490.641113,4510.641113,4451.922852,5635.641113,4252.179688,4202.179688,0.000000,4.000000,80.000000,,,,0.000000,0.000000,0.000000,0.000000,0.000000,0.000000,0.000000,0.000000,0.000000,0.000000,0.000000,0.000000,0.000000,0.000000,0.000000,0.000000,,,,,,,,,,,,,,,,,,,,,,,,,,,,,,,,,,,,,,,,,,,,,,,,,,,,,,,,,,,,0.023807,0.024019,0.016865,0.025505,0.036552,0.133683,0.178123,0.226647,0.249613,0.768952,0.011645,0.013942,0.014657,0.020573,0.033826,0.030540,0.057345,0.058993,0.037177,0.056774,0.021337,0.025966,0.017212,0.039324,0.065756,0.071758,0.141921,0.134471,0.139943,0.470715,0.045694,0.024449,0.020383,0.021297,0.029987,0.045688,0.092077,0.063576,0.061884,0.167782,0.016494,0.048953,0.019349,0.037816,0.033536,0.021882,0.018914,0.024512,0.010007,0.028439,0.051962,0.019805,0.034668,0.027383,0.053476,0.120801,0.103861,0.091714,0.088873,0.354150,0.161844,0.109242,0.089688,0.097938,0.237705,0.171562,0.170310,0.138750,0.120499,0.467145
1738754041.696767,111.000000,0.000000,4278.717773,4301.922852,4220.512695,4263.205078,4302.051270,4315.897461,4326.666504,4504.871582,4488.846191,4510.641113,4448.974121,5646.025879,4240.512695,4202.563965,0.000000,4.000000,80.000000,,,,0.000000,0.000000,0.000000,0.000000,0.000000,0.000000,0.000000,0.000000,0.000000,0.000000,0.000000,0.000000,0.000000,0.000000,0.000000,0.000000,,,,,,,,,,,,,,,,,,,,,,,,,,,,,,,,,,,,,,,,,,,,,,,,,,,,,,,,,,,,,,,,,,,,,,,,,,,,,,,,,,,,,,,,,,,,,,,,,,,,,,,,,,,,,,,,,,,,,,,,,,,,,,,,,
1738754041.704575,112.000000,0.000000,4278.974121,4296.410156,4213.205078,4260.384766,4305.512695,4312.436035,4322.563965,4504.743652,4489.230957,4511.153809,4451.025879,5642.820313,4246.282227,4200.641113,0.000000,4.000000,80.000000,,,,0.000000,0.000000,0.000000,0.000000,0.000000,0.000000,0.000000,0.000000,0.000000,0.000000,0.000000,0.000000,0.000000,0.000000,0.000000,0.000000,,,,,,,,,,,,,,,,,28.000000,0.000000,0.786211,-0.615234,-0.055725,0.015930,0.056159,-0.983518,0.236357,5.098328,-15.427946,21.648705,,,,,,,,,,,,,,,,,,,,,,,,,,,,,,,,,,,,,,,,,,,,,,,,,,,,,,,,,,,,,,,,,,,,,,,,,,,,,,,,,,,,,,,,,,,,,,,,,,,,,
1738754041.712483,113.000000,0.000000,4280.512695,4300.384766,4212.563965,4262.179688,4306.794922,4314.743652,4319.871582,4504.230957,4491.025879,4510.769043,4452.179688,5637.436035,4255.128418,4204.358887,0.000000,4.000000,80.000000,,,,0.000000,0.000000,0.000000,0.000000,0.000000,0.000000,0.000000,0.000000,0.000000,0.000000,0.000000,0.000000,0.000000,0.000000,0.000000,0.000000,,,,,,,,,,,,,,,,,,,,,,,,,,,,,,,,,,,,,,,,,,,,,,,,,,,,,,,,,,,,,,,,,,,,,,,,,,,,,,,,,,,,,,,,,,,,,,,,,,,,,,,,,,,,,,,,,,,,,,,,,,,,,,,,,
1738754041.720291,114.000000,0.000000,4279.743652,4301.794922,4214.102539,4266.922852,4304.743652,4315.128418,4327.948730,4506.410156,4489.358887,4509.615234,4447.436035,5645.641113,4240.512695,4199.615234,0.000000,4.000000,80.000000,,,,0.000000,0.000000,0.000000,0.000000,0.000000,0.000000,0.000000,0.000000,0.000000,0.000000,0.000000,0.000000,0.000000,0.000000,0.000000,0.000000,,,,,,,,,,,,,,,,,,,,,,,,,,,,,,,,,,,,,,,,,,,,,,,,,,,,,,,,,,,,,,,,,,,,,,,,,,,,,,,,,,,,,,,,,,,,,,,,,,,,,,,,,,,,,,,,,,,,,,,,,,,,,,,,,
1738754041.728199,115.000000,0.000000,4271.794922,4298.717773,4203.846191,4255.769043,4302.820313,4309.102539,4317.948730,4499.102539,4492.307617,4512.307617,4453.333496,5636.538574,4260.384766,4207.563965,0.000000,4.000000,80.000000,,,,0.000000,0.000000,0.000000,0.000000,0.000000,0.000000,0.000000,0.000000,0.000000,0.000000,0.000000,0.000000,0.000000,0.000000,0.000000,0.000000,,,,,,,,,,,,,,,,,,,,,,,,,,,,,,,,,,,,,,,,,,,,,,,,,,,,,,,,,,,,,,,,,,,,,,,,,,,,,,,,,,,,,,,,,,,,,,,,,,,,,,,,,,,,,,,,,,,,,,,,,,,,,,,,,
1738754041.736007,116.000000,0.000000,4278.461426,4298.205078,4210.128418,4259.487305,4303.717773,4313.205078,4323.333496,4507.948730,4489.230957,4512.179688,4455.641113,5638.205078,4260.384766,4208.717773,0.000000,4.000000,80.000000,,,,0.000000,0.000000,0.000000,0.000000,0.000000,0.000000,0.000000,0.000000,0.000000,0.000000,0.000000,0.000000,0.000000,0.000000,0.000000,0.000000,,,,,,,,,,,,,,,,,29.000000,0.000000,0.786211,-0.615234,-0.055725,0.015930,0.071298,-0.971310,0.235380,5.238495,-15.351818,21.750500,,,,,,,,,,,,,,,,,,,,,,,,,,,,,,,,,,,,,,,,,,,,,,,,,,,,,,,,,,,,,,,,,,,,,,,,,,,,,,,,,,,,,,,,,,,,,,,,,,,,,
1738754041.743715,117.000000,0.000000,4275.512695,4297.820313,4206.410156,4259.230957,4301.410156,4312.948730,4322.948730,4506.153809,4486.794922,4511.410156,4453.717773,5635.897461,4258.717773,4207.820313,0.000000,4.000000,80.000000,,,,0.000000,0.000000,0.000000,0.000000,0.000000,0.000000,0.000000,0.000000,0.000000,0.000000,0.000000,0.000000,0.000000,0.000000,0.000000,0.000000,,,,,,,,,,,,,,,,,,,,,,,,,,,,,,,,,,,,,,,,,,,,,,,,,,,,,,,,,,,,,,,,,,,,,,,,,,,,,,,,,,,,,,,,,,,,,,,,,,,,,,,,,,,,,,,,,,,,,,,,,,,,,,,,,
1738754041.751523,118.000000,0.000000,4271.153809,4302.436035,4203.589844,4255.256348,4300.769043,4310.641113,4315.384766,4496.538574,4490.897461,4511.666504,4453.589844,5629.487305,4266.666504,4217.436035,0.000000,4.000000,80.000000,,,,0.000000,0.000000,0.000000,0.000000,0.000000,0.000000,0.000000,0.000000,0.000000,0.000000,0.000000,0.000000,0.000000,0.000000,0.000000,0.000000,,,,,,,,,,,,,,,,,,,,,,,,,,,,,,,,,,,,,,,,,,,,,,,,,,,,,,,,,,,,,,,,,,,,,,,,,,,,,,,,,,,,,,,,,,,,,,,,,,,,,,,,,,,,,,,,,,,,,,,,,,,,,,,,,
1738754041.759231,119.000000,0.000000,4278.077148,4299.102539,4209.743652,4260.897461,4301.666504,4313.333496,4317.563965,4504.102539,4488.077148,4510.384766,4451.153809,5642.820313,4252.820313,4206.666504,0.000000,4.000000,80.000000,,,,0.000000,0.000000,0.000000,0.000000,0.000000,0.000000,0.000000,0.000000,0.000000,0.000000,0.000000,0.000000,0.000000,0.000000,0.000000,0.000000,,,,,,,,,,,,,,,,,,,,,,,,,,,,,,,,,,,,,,,,,,,,,,,,,,,,,,,,,,,,,,,,,,,,,,,,,,,,,,,,,,,,,,,,,,,,,,,,,,,,,,,,,,,,,,,,,,,,,,,,,,,,,,,,,
1738754041.767039,120.000000,0.000000,4275.641113,4297.820313,4204.743652,4255.512695,4300.384766,4312.307617,4311.794922,4501.025879,4491.666504,4513.205078,4457.436035,5636.922852,4268.461426,4208.974121,0.000000,4.000000,80.000000,,,,0.000000,0.000000,0.000000,0.000000,0.000000,0.000000,0.000000,0.000000,0.000000,0.000000,0.000000,0.000000,0.000000,0.000000,0.000000,0.000000,,,,,,,,,,,,,,,,,30.000000,0.000000,0.786117,-0.615356,-0.055725,0.015869,0.061531,-0.963985,0.238310,5.364645,-15.199969,21.675451,,,,,,,,,,,,,,,,,,,,,,,,,,,,,,,,,,,,,,,,,,,,,,,,,,,,,,,,,,,,,,,,,,,,,,,,,,,,,,,,,,,,,,,,,,,,,,,,,,,,,
1738754041.774747,121.000000,0.000000,4276.666504,4303.717773,4209.358887,4257.948730,4302.436035,4312.307617,4320.512695,4502.820313,4492.948730,4512.179688,4456.922852,5636.666504,4263.077148,4219.487305,0.000000,4.000000,80.000000,,,,0.000000,0.000000,0.000000,0.000000,0.000000,0.000000,0.000000,0.000000,0.000000,0.000000,0.000000,0.000000,0.000000,0.000000,0.000000,0.000000,,,,,,,,,,,,,,,,,,,,,,,,,,,,,,,,,,,,,,,,,,,,,,,,,,,,,,,,,,,,,,,,,,,,,,,,,,,,,,,,,,,,,,,,,,,,,,,,,,,,,,,,,,,,,,,,,,,,,,,,,,,,,,,,,
1738754041.782555,122.000000,0.000000,4277.051270,4298.717773,4209.871582,4259.230957,4303.461426,4310.641113,4320.384766,4507.307617,4488.461426,4511.025879,4454.230957,5644.102539,4248.589844,4212.820313,0.000000,4.000000,80.000000,,,,0.000000,0.000000,0.000000,0.000000,0.000000,0.000000,0.000000,0.000000,0.000000,0.000000,0.000000,0.000000,0.000000,0.000000,0.000000,0.000000,,,,,,,,,,,,,,,,,,,,,,,,,,,,,,,,,,,,,,,,,,,,,,,,,,,,,,,,,,,,,,,,,,,,,,,,,,,,,,,,,,,,,,,,,,,,,,,,,,,,,,,,,,,,,,,,,,,,,,,,,,,,,,,,,
1738754041.790263,123.000000,0.000000,4273.205078,4296.025879,4206.794922,4254.102539,4303.846191,4310.256348,4308.846191,4498.205078,4491.025879,4514.358887,4459.743652,5636.666504,4267.563965,4216.410156,0.000000,4.000000,80.000000,,,,0.000000,0.000000,0.000000,0.000000,0.000000,0.000000,0.000000,0.000000,0.000000,0.000000,0.000000,0.000000,0.000000,0.000000,0.000000,0.000000,,,,,,,,,,,,,,,,,,,,,,,,,,,,,,,,,,,,,,,,,,,,,,,,,,,,,,,,,,,,,,,,,,,,,,,,,,,,,,,,,,,,,,,,,,,,,,,,,,,,,,,,,,,,,,,,,,,,,,,,,,,,,,,,,
1738754041.798071,124.000000,0.000000,4278.077148,4296.538574,4209.871582,4259.743652,4304.743652,4312.436035,4319.230957,4497.948730,4488.077148,4511.410156,4457.563965,5641.410156,4256.922852,4215.769043,0.000000,4.000000,80.000000,,,,0.000000,0.000000,0.000000,0.000000,0.000000,0.000000,0.000000,0.000000,0.000000,0.000000,0.000000,0.000000,0.000000,0.000000,0.000000,0.000000,,,,,,,,,,,,,,,,,31.000000,0.000000,0.786122,-0.615356,-0.055664,0.015808,0.062508,-0.967892,0.226102,5.411514,-15.263306,21.707905,,,,,,,,,,,,,,,,,,,,,,,,,,,,,,,,,,,,,,,,,,,,,,,,,,,,,,,,,,,,,,,,,,,,,,,,,,,,,,,,,,,,,,,,,,,,,,,,,,,,,
1738754041.805779,125.000000,0.000000,4275.128418,4298.205078,4204.102539,4254.102539,4301.794922,4310.512695,4317.692383,4496.794922,4488.974121,4510.897461,4459.487305,5636.922852,4260.128418,4216.538574,0.000000,4.000000,80.000000,,,,0.000000,0.000000,0.000000,0.000000,0.000000,0.000000,0.000000,0.000000,0.000000,0.000000,0.000000,0.000000,0.000000,0.000000,0.000000,0.000000,,,,,,,,,,,,,,,,,,,,,,,,,,,,,,,,,,,,,,,,,,,,,,,,,,,,,,,,,,,,,,,,,,,,,,,,,,,,,,,,,,,,,,,,,,,,,,,,,,,,,,,,,,,,,,,,,,,,,,,,,,,,,,,,,
1738754041.813587,126.000000,0.000000,4269.871582,4300.897461,4202.948730,4252.051270,4302.179688,4311.025879,4311.794922,4499.487305,4491.282227,4513.077148,4460.897461,5634.487305,4270.897461,4216.922852,0.000000,4.000000,80.000000,,,,0.000000,0.000000,0.000000,0.000000,0.000000,0.000000,0.000000,0.000000,0.000000,0.000000,0.000000,0.000000,0.000000,0.000000,0.000000,0.000000,,,,,,,,,,,,,,,,,,,,,,,,,,,,,,,,,,,,,,,,,,,,,,,,,,,,,,,,,,,,0.020410,0.024516,0.020972,0.024561,0.035937,0.177343,0.211602,0.281675,0.335065,0.906503,0.013461,0.010264,0.018105,0.022645,0.033011,0.041248,0.063334,0.062140,0.037943,0.058574,0.015457,0.026541,0.015835,0.044991,0.075027,0.070377,0.196483,0.128686,0.179620,0.554955,0.044436,0.025793,0.022094,0.022527,0.033417,0.057080,0.095442,0.061916,0.075393,0.193823,0.015530,0.052563,0.021059,0.041449,0.031371,0.019598,0.020533,0.024106,0.009728,0.029147,0.045531,0.015632,0.039000,0.028596,0.054431,0.141952,0.127013,0.107154,0.108120,0.390422,0.172938,0.125329,0.090224,0.115531,0.259657,0.219997,0.220969,0.175833,0.154318,0.545781
1738754041.821295,127.000000,0.000000,4273.461426,4296.538574,4204.102539,4257.948730,4305.897461,4312.948730,4315.897461,4506.538574,4488.333496,4511.410156,4455.641113,5643.077148,4262.436035,4209.487305,80.000000,4.000000,80.000000,,,,0.000000,0.000000,0.000000,0.000000,0.000000,0.000000,0.000000,0.000000,0.000000,0.000000,0.000000,0.000000,0.000000,0.000000,0.000000,0.000000,,,,,,,,,,,,,,,,,,,,,,,,,,,,,,,,,,,,,,,,,,,,,,,,,,,,,,,,,,,,,,,,,,,,,,,,,,,,,,,,,,,,,,,,,,,,,,,,,,,,,,,,,,,,,,,,,,,,,,,,,,,,,,,,,
1738754041.829103,0.000000,0.000000,4273.589844,4299.871582,4199.615234,4250.897461,4306.538574,4312.692383,4312.436035,4500.769043,4492.051270,4512.692383,4457.820313,5632.051270,4276.666504,4219.230957,0.000000,4.000000,80.000000,,,,0.000000,0.000000,0.000000,0.000000,0.000000,0.000000,0.000000,0.000000,0.000000,0.000000,0.000000,0.000000,0.000000,0.000000,0.000000,0.000000,,,,,,,,,,,,,,,,,0.000000,0.000000,0.786180,-0.615295,-0.055542,0.015747,0.064949,-0.975217,0.239775,5.270363,-15.120309,21.753782,,,,,,,,,,,,,,,,,,,,,,,,,,,,,,,,,,,,,,,,,,,,,,,,,,,,,,,,,,,,,,,,,,,,,,,,,,,,,,,,,,,,,,,,,,,,,,,,,,,,,
1738754041.836811,1.000000,0.000000,4272.436035,4303.077148,4202.692383,4253.205078,4303.846191,4312.051270,4316.538574,4500.000000,4491.410156,4513.974121,4456.538574,5634.743652,4268.717773,4217.948730,0.000000,4.000000,80.000000,,,,0.000000,0.000000,0.000000,0.000000,0.000000,0.000000,0.000000,0.000000,0.000000,0.000000,0.000000,0.000000,0.000000,0.000000,0.000000,0.000000,,,,,,,,,,,,,,,,,,,,,,,,,,,,,,,,,,,,,,,,,,,,,,,,,,,,,,,,,,,,,,,,,,,,,,,,,,,,,,,,,,,,,,,,,,,,,,,,,,,,,,,,,,,,,,,,,,,,,,,,,,,,,,,,,
1738754041.844719,2.000000,0.000000,4272.692383,4299.743652,4205.897461,4256.666504,4301.410156,4310.641113,4315.256348,4498.717773,4490.256348,4513.077148,4456.666504,5640.128418,4266.922852,4213.846191,0.000000,4.000000,80.000000,,,,0.000000,0.000000,0.000000,0.000000,0.000000,0.000000,0.000000,0.000000,0.000000,0.000000,0.000000,0.000000,0.000000,0.000000,0.000000,0.000000,,,,,,,,,,,,,,,,,,,,,,,,,,,,,,,,,,,,,,,,,,,,,,,,,,,,,,,,,,,,,,,,,,,,,,,,,,,,,,,,,,,,,,,,,,,,,,,,,,,,,,,,,,,,,,,,,,,,,,,,,,,,,,,,,
1738754041.852527,3.000000,0.000000,4275.641113,4301.282227,4203.205078,4253.846191,4304.102539,4311.794922,4315.128418,4498.205078,4491.794922,4511.025879,4456.666504,5632.436035,4276.282227,4219.230957,0.000000,4.000000,80.000000,,,,0.000000,0.000000,0.000000,0.000000,0.000000,0.000000,0.000000,0.000000,0.000000,0.000000,0.000000,0.000000,0.000000,0.000000,0.000000,0.000000,,,,,,,,,,,,,,,,,,,,,,,,,,,,,,,,,,,,,,,,,,,,,,,,,,,,,,,,,,,,,,,,,,,,,,,,,,,,,,,,,,,,,,,,,,,,,,,,,,,,,,,,,,,,,,,,,,,,,,,,,,,,,,,,,
1738754041.860435,4.000000,0.000000,4276.153809,4301.666504,4204.358887,4258.333496,4305.384766,4311.153809,4322.563965,4505.512695,4488.589844,4508.333496,4453.205078,5636.922852,4260.000000,4213.461426,0.000000,4.000000,80.000000,,,,0.000000,0.000000,0.000000,0.000000,0.000000,0.000000,0.000000,0.000000,0.000000,0.000000,0.000000,0.000000,0.000000,0.000000,0.000000,0.000000,,,,,,,,,,,,,,,,,1.000000,0.000000,0.786232,-0.615234,-0.055481,0.015747,0.074716,-0.971798,0.235380,5.276660,-15.091611,21.745070,,,,,,,,,,,,,,,,,,,,,,,,,,,,,,,,,,,,,,,,,,,,,,,,,,,,,,,,,,,,,,,,,,,,,,,,,,,,,,,,,,,,,,,,,,,,,,,,,,,,,
1738754041.868243,5.000000,0.000000,4269.615234,4302.436035,4204.871582,4255.128418,4302.563965,4309.487305,4314.358887,4500.256348,4490.897461,4510.384766,4458.717773,5635.000000,4269.615234,4214.743652,0.000000,4.000000,80.000000,,,,0.000000,0.000000,0.000000,0.000000,0.000000,0.000000,0.000000,0.000000,0.000000,0.000000,0.000000,0.000000,0.000000,0.000000,0.000000,0.000000,,,,,,,,,,,,,,,,,,,,,,,,,,,,,,,,,,,,,,,,,,,,,,,,,,,,,,,,,,,,,,,,,,,,,,,,,,,,,,,,,,,,,,,,,,,,,,,,,,,,,,,,,,,,,,,,,,,,,,,,,,,,,,,,,
1738754041.876151,6.000000,0.000000,4272.948730,4302.179688,4205.897461,4256.153809,4303.461426,4313.205078,4317.820313,4499.871582,4489.358887,4511.794922,4458.846191,5637.563965,4266.794922,4213.717773,0.000000,4.000000,80.000000,,,,0.000000,0.000000,0.000000,0.000000,0.000000,0.000000,0.000000,0.000000,0.000000,0.000000,0.000000,0.000000,0.000000,0.000000,0.000000,0.000000,,,,,,,,,,,,,,,,,,,,,,,,,,,,,,,,,,,,,,,,,,,,,,,,,,,,,,,,,,,,,,,,,,,,,,,,,,,,,,,,,,,,,,,,,,,,,,,,,,,,,,,,,,,,,,,,,,,,,,,,,,,,,,,,,
1738754041.883959,7.000000,0.000000,4276.410156,4302.692383,4205.641113,4257.051270,4305.641113,4314.615234,4321.922852,4503.077148,4487.436035,4512.563965,4455.512695,5639.743652,4263.333496,4214.743652,0.000000,4.000000,80.000000,,,,0.000000,0.000000,0.000000,0.000000,0.000000,0.000000,0.000000,0.000000,0.000000,0.000000,0.000000,0.000000,0.000000,0.000000,0.000000,0.000000,,,,,,,,,,,,,,,,,,,,,,,,,,,,,,,,,,,,,,,,,,,,,,,,,,,,,,,,,,,,,,,,,,,,,,,,,,,,,,,,,,,,,,,,,,,,,,,,,,,,,,,,,,,,,,,,,,,,,,,,,,,,,,,,,
1738754041.891866,8.000000,0.000000,4273.205078,4302.563965,4202.436035,4251.538574,4303.077148,4313.333496,4311.538574,4499.743652,4492.563965,4513.589844,4455.512695,5629.871582,4276.922852,4215.384766,0.000000,4.000000,80.000000,,,,0.000000,0.000000,0.000000,0.000000,0.000000,0.000000,0.000000,0.000000,0.000000,0.000000,0.000000,0.000000,0.000000,0.000000,0.000000,0.000000,,,,,,,,,,,,,,,,,2.000000,0.000000,0.786237,-0.615234,-0.055420,0.015686,0.063484,-0.980588,0.237334,5.048994,-14.999117,21.753897,,,,,,,,,,,,,,,,,,,,,,,,,,,,,,,,,,,,,,,,,,,,,,,,,,,,,,,,,,,,,,,,,,,,,,,,,,,,,,,,,,,,,,,,,,,,,,,,,,,,,
1738754041.899674,9.000000,0.000000,4274.102539,4299.358887,4204.615234,4256.794922,4302.692383,4313.589844,4314.102539,4505.128418,4490.128418,4510.000000,4455.512695,5637.692383,4261.282227,4207.051270,0.000000,4.000000,80.000000,,,,0.000000,0.000000,0.000000,0.000000,0.000000,0.000000,0.000000,0.000000,0.000000,0.000000,0.000000,0.000000,0.000000,0.000000,0.000000,0.000000,,,,,,,,,,,,,,,,,,,,,,,,,,,,,,,,,,,,,,,,,,,,,,,,,,,,,,,,,,,,,,,,,,,,,,,,,,,,,,,,,,,,,,,,,,,,,,,,,,,,,,,,,,,,,,,,,,,,,,,,,,,,,,,,,
1738754041.907582,10.000000,0.000000,4269.358887,4301.794922,4199.743652,4251.153809,4303.717773,4311.410156,4310.512695,4502.436035,4491.025879,4511.025879,4459.102539,5632.820313,4269.102539,4214.102539,0.000000,4.000000,80.000000,,,,0.000000,0.000000,0.000000,0.000000,0.000000,0.000000,0.000000,0.000000,0.000000,0.000000,0.000000,0.000000,0.000000,0.000000,0.000000,0.000000,,,,,,,,,,,,,,,,,,,,,,,,,,,,,,,,,,,,,,,,,,,,,,,,,,,,,,,,,,,,,,,,,,,,,,,,,,,,,,,,,,,,,,,,,,,,,,,,,,,,,,,,,,,,,,,,,,,,,,,,,,,,,,,,,
1738754041.915390,11.000000,0.000000,4268.846191,4301.666504,4190.769043,4246.794922,4300.897461,4307.692383,4306.282227,4497.692383,4496.153809,4514.230957,4456.282227,5623.077148,4276.410156,4214.102539,0.000000,4.000000,80.000000,,,,0.000000,0.000000,0.000000,0.000000,0.000000,0.000000,0.000000,0.000000,0.000000,0.000000,0.000000,0.000000,0.000000,0.000000,0.000000,0.000000,,,,,,,,,,,,,,,,,,,,,,,,,,,,,,,,,,,,,,,,,,,,,,,,,,,,,,,,,,,,,,,,,,,,,,,,,,,,,,,,,,,,,,,,,,,,,,,,,,,,,,,,,,,,,,,,,,,,,,,,,,,,,,,,,
1738754041.923298,12.000000,0.000000,4272.051270,4297.307617,4191.410156,4250.641113,4299.487305,4306.922852,4310.128418,4495.384766,4494.487305,4514.358887,4455.641113,5630.128418,4270.897461,4211.410156,0.000000,4.000000,80.000000,,,,0.000000,0.000000,0.000000,0.000000,0.000000,0.000000,0.000000,0.000000,0.000000,0.000000,0.000000,0.000000,0.000000,0.000000,0.000000,0.000000,,,,,,,,,,,,,,,,,3.000000,0.000000,0.786234,-0.615234,-0.055481,0.015625,0.068856,-0.968380,0.229032,5.160761,-14.949205,21.778507,,,,,,,,,,,,,,,,,,,,,,,,,,,,,,,,,,,,,,,,,,,,,,,,,,,,,,,,,,,,,,,,,,,,,,,,,,,,,,,,,,,,,,,,,,,,,,,,,,,,,
1738754041.931106,13.000000,0.000000,4264.871582,4297.051270,4189.743652,4242.692383,4300.256348,4307.436035,4306.538574,4489.743652,4494.102539,4515.769043,4460.641113,5624.871582,4285.897461,4216.794922,0.000000,4.000000,80.000000,,,,0.000000,0.000000,0.000000,0.000000,0.000000,0.000000,0.000000,0.000000,0.000000,0.000000,0.000000,0.000000,0.000000,0.000000,0.000000,0.000000,,,,,,,,,,,,,,,,,,,,,,,,,,,,,,,,,,,,,,,,,,,,,,,,,,,,,,,,,,,,,,,,,,,,,,,,,,,,,,,,,,,,,,,,,,,,,,,,,,,,,,,,,,,,,,,,,,,,,,,,,,,,,,,,,
1738754041.938814,14.000000,0.000000,4265.000000,4297.692383,4190.512695,4245.641113,4302.179688,4307.436035,4310.769043,4499.230957,4491.025879,4513.461426,4455.512695,5627.051270,4276.025879,4212.051270,0.000000,4.000000,80.000000,,,,0.000000,0.000000,0.000000,0.000000,0.000000,0.000000,0.000000,0.000000,0.000000,0.000000,0.000000,0.000000,0.000000,0.000000,0.000000,0.000000,,,,,,,,,,,,,,,,,,,,,,,,,,,,,,,,,,,,,,,,,,,,,,,,,,,,,,,,,,,,0.017582,0.025182,0.025628,0.023359,0.035916,0.216854,0.255004,0.352494,0.439511,1.103764,0.018560,0.011124,0.021352,0.024648,0.032004,0.057453,0.072282,0.062990,0.041168,0.062034,0.011545,0.027589,0.013767,0.051692,0.089769,0.076851,0.251312,0.136479,0.227253,0.677299,0.042481,0.026207,0.022329,0.025067,0.039457,0.072765,0.099017,0.066869,0.096822,0.232628,0.015301,0.051403,0.024609,0.045148,0.030577,0.017505,0.022769,0.025389,0.010851,0.031363,0.039577,0.012959,0.041221,0.030206,0.057097,0.169290,0.157566,0.129244,0.134684,0.456139,0.198394,0.156392,0.102125,0.141445,0.302236,0.268730,0.281183,0.221130,0.195950,0.660488
1738754041.946622,15.000000,0.000000,4267.948730,4300.000000,4192.307617,4250.128418,4303.205078,4307.179688,4308.333496,4500.000000,4493.205078,4513.717773,4455.512695,5627.179688,4279.743652,4215.641113,0.000000,4.000000,80.000000,,,,0.000000,0.000000,0.000000,0.000000,0.000000,0.000000,0.000000,0.000000,0.000000,0.000000,0.000000,0.000000,0.000000,0.000000,0.000000,0.000000,,,,,,,,,,,,,,,,,,,,,,,,,,,,,,,,,,,,,,,,,,,,,,,,,,,,,,,,,,,,,,,,,,,,,,,,,,,,,,,,,,,,,,,,,,,,,,,,,,,,,,,,,,,,,,,,,,,,,,,,,,,,,,,,,
1738754041.954330,16.000000,0.000000,4263.846191,4298.846191,4189.487305,4248.333496,4301.153809,4307.692383,4306.282227,4490.256348,4498.205078,4516.025879,4459.230957,5623.333496,4284.487305,4212.820313,0.000000,4.000000,80.000000,,,,0.000000,0.000000,0.000000,0.000000,0.000000,0.000000,0.000000,0.000000,0.000000,0.000000,0.000000,0.000000,0.000000,0.000000,0.000000,0.000000,,,,,,,,,,,,,,,,,4.000000,0.000000,0.786182,-0.615295,-0.055542,0.015625,0.064949,-0.966427,0.227567,5.161352,-14.787618,21.867323,,,,,,,,,,,,,,,,,,,,,,,,,,,,,,,,,,,,,,,,,,,,,,,,,,,,,,,,,,,,,,,,,,,,,,,,,,,,,,,,,,,,,,,,,,,,,,,,,,,,,
1738754041.962238,17.000000,0.000000,4267.692383,4298.717773,4192.179688,4248.717773,4300.512695,4308.461426,4312.563965,4493.205078,4494.871582,4515.256348,4458.205078,5630.000000,4272.563965,4209.615234,0.000000,4.000000,80.000000,,,,0.000000,0.000000,0.000000,0.000000,0.000000,0.000000,0.000000,0.000000,0.000000,0.000000,0.000000,0.000000,0.000000,0.000000,0.000000,0.000000,,,,,,,,,,,,,,,,,,,,,,,,,,,,,,,,,,,,,,,,,,,,,,,,,,,,,,,,,,,,,,,,,,,,,,,,,,,,,,,,,,,,,,,,,,,,,,,,,,,,,,,,,,,,,,,,,,,,,,,,,,,,,,,,,
1738754041.970046,18.000000,0.000000,4271.666504,4303.974121,4191.538574,4244.358887,4303.333496,4306.282227,4307.692383,4495.769043,4495.128418,4513.589844,4456.538574,5623.589844,4284.102539,4217.563965,0.000000,4.000000,80.000000,,,,0.000000,0.000000,0.000000,0.000000,0.000000,0.000000,0.000000,0.000000,0.000000,0.000000,0.000000,0.000000,0.000000,0.000000,0.000000,0.000000,,,,,,,,,,,,,,,,,,,,,,,,,,,,,,,,,,,,,,,,,,,,,,,,,,,,,,,,,,,,,,,,,,,,,,,,,,,,,,,,,,,,,,,,,,,,,,,,,,,,,,,,,,,,,,,,,,,,,,,,,,,,,,,,,
1738754041.977954,19.000000,0.000000,4271.153809,4303.205078,4193.333496,4248.333496,4305.256348,4307.051270,4310.256348,4502.307617,4493.077148,4509.487305,4452.051270,5628.205078,4274.487305,4212.692383,0.000000,4.000000,80.000000,,,,0.000000,0.000000,0.000000,0.000000,0.000000,0.000000,0.000000,0.000000,0.000000,0.000000,0.000000,0.000000,0.000000,0.000000,0.000000,0.000000,,,,,,,,,,,,,,,,,,,,,,,,,,,,,,,,,,,,,,,,,,,,,,,,,,,,,,,,,,,,,,,,,,,,,,,,,,,,,,,,,,,,,,,,,,,,,,,,,,,,,,,,,,,,,,,,,,,,,,,,,,,,,,,,,
1738754041.985762,20.000000,0.000000,4269.615234,4302.179688,4195.384766,4248.589844,4302.563965,4310.256348,4311.025879,4502.051270,4492.563965,4510.512695,4456.025879,5634.102539,4274.743652,4218.846191,0.000000,4.000000,80.000000,,,,0.000000,0.000000,0.000000,0.000000,0.000000,0.000000,0.000000,0.000000,0.000000,0.000000,0.000000,0.000000,0.000000,0.000000,0.000000,0.000000,,,,,,,,,,,,,,,,,5.000000,0.000000,0.786178,-0.615295,-0.055603,0.015625,0.073739,-0.969845,0.241729,5.095216,-14.842190,21.797256,,,,,,,,,,,,,,,,,,,,,,,,,,,,,,,,,,,,,,,,,,,,,,,,,,,,,,,,,,,,,,,,,,,,,,,,,,,,,,,,,,,,,,,,,,,,,,,,,,,,,
1738754041.993570,21.000000,0.000000,4268.077148,4302.051270,4192.436035,4244.743652,4301.410156,4310.256348,4309.871582,4497.436035,4496.922852,4514.487305,4456.410156,5630.000000,4281.410156,4218.205078,0.000000,4.000000,80.000000,,,,0.000000,0.000000,0.000000,0.000000,0.000000,0.000000,0.000000,0.000000,0.000000,0.000000,0.000000,0.000000,0.000000,0.000000,0.000000,0.000000,,,,,,,,,,,,,,,,,,,,,,,,,,,,,,,,,,,,,,,,,,,,,,,,,,,,,,,,,,,,,,,,,,,,,,,,,,,,,,,,,,,,,,,,,,,,,,,,,,,,,,,,,,,,,,,,,,,,,,,,,,,,,,,,,
1738754042.001278,22.000000,0.000000,4269.358887,4301.153809,4195.384766,4253.333496,4303.461426,4308.333496,4314.358887,4501.794922,4492.820313,4513.333496,4450.256348,5636.922852,4267.820313,4208.846191,0.000000,4.000000,80.000000,,,,0.000000,0.000000,0.000000,0.000000,0.000000,0.000000,0.000000,0.000000,0.000000,0.000000,0.000000,0.000000,0.000000,0.000000,0.000000,0.000000,,,,,,,,,,,,,,,,,,,,,,,,,,,,,,,,,,,,,,,,,,,,,,,,,,,,,,,,,,,,,,,,,,,,,,,,,,,,,,,,,,,,,,,,,,,,,,,,,,,,,,,,,,,,,,,,,,,,,,,,,,,,,,,,,
1738754042.009086,23.000000,0.000000,4268.461426,4304.102539,4194.615234,4251.538574,4303.846191,4308.333496,4306.025879,4496.794922,4492.307617,4513.974121,4455.128418,5631.666504,4281.410156,4220.128418,0.000000,4.000000,80.000000,,,,0.000000,0.000000,0.000000,0.000000,0.000000,0.000000,0.000000,0.000000,0.000000,0.000000,0.000000,0.000000,0.000000,0.000000,0.000000,0.000000,,,,,,,,,,,,,,,,,,,,,,,,,,,,,,,,,,,,,,,,,,,,,,,,,,,,,,,,,,,,,,,,,,,,,,,,,,,,,,,,,,,,,,,,,,,,,,,,,,,,,,,,,,,,,,,,,,,,,,,,,,,,,,,,,
1738754042.016794,24.000000,0.000000,4270.641113,4302.307617,4193.846191,4250.256348,4304.230957,4312.563965,4309.230957,4498.974121,4491.410156,4514.230957,4454.743652,5632.051270,4276.410156,4216.410156,0.000000,4.000000,80.000000,,,,0.000000,0.000000,0.000000,0.000000,0.000000,0.000000,0.000000,0.000000,0.000000,0.000000,0.000000,0.000000,0.000000,0.000000,0.000000,0.000000,,,,,,,,,,,,,,,,,6.000000,0.000000,0.786181,-0.615295,-0.055542,0.015686,0.067879,-0.959101,0.239775,5.185695,-14.874638,21.750864,,,,,,,,,,,,,,,,,,,,,,,,,,,,,,,,,,,,,,,,,,,,,,,,,,,,,,,,,,,,,,,,,,,,,,,,,,,,,,,,,,,,,,,,,,,,,,,,,,,,,
1738754042.024602,25.000000,0.000000,4271.794922,4301.410156,4195.128418,4253.717773,4304.102539,4311.538574,4314.871582,4502.307617,4489.487305,4513.333496,4452.179688,5635.641113,4273.333496,4215.512695,0.000000,4.000000,80.000000,,,,0.000000,0.000000,0.000000,0.000000,0.000000,0.000000,0.000000,0.000000,0.000000,0.000000,0.000000,0.000000,0.000000,0.000000,0.000000,0.000000,,,,,,,,,,,,,,,,,,,,,,,,,,,,,,,,,,,,,,,,,,,,,,,,,,,,,,,,,,,,,,,,,,,,,,,,,,,,,,,,,,,,,,,,,,,,,,,,,,,,,,,,,,,,,,,,,,,,,,,,,,,,,,,,,
1738754042.032310,26.000000,0.000000,4269.743652,4303.846191,4196.410156,4251.794922,4304.615234,4308.974121,4312.179688,4496.025879,4492.820313,4514.358887,4454.102539,5627.948730,4284.358887,4222.307617,0.000000,4.000000,80.000000,,,,0.000000,0.000000,0.000000,0.000000,0.000000,0.000000,0.000000,0.000000,0.000000,0.000000,0.000000,0.000000,0.000000,0.000000,0.000000,0.000000,,,,,,,,,,,,,,,,,,,,,,,,,,,,,,,,,,,,,,,,,,,,,,,,,,,,,,,,,,,,,,,,,,,,,,,,,,,,,,,,,,,,,,,,,,,,,,,,,,,,,,,,,,,,,,,,,,,,,,,,,,,,,,,,,
1738754042.040118,27.000000,0.000000,4270.641113,4301.922852,4196.282227,4251.025879,4305.641113,4310.897461,4315.256348,4497.692383,4493.205078,4513.461426,4454.615234,5630.512695,4271.025879,4212.692383,0.000000,4.000000,80.000000,,,,0.000000,0.000000,0.000000,0.000000,0.000000,0.000000,0.000000,0.000000,0.000000,0.000000,0.000000,0.000000,0.000000,0.000000,0.000000,0.000000,,,,,,,,,,,,,,,,,,,,,,,,,,,,,,,,,,,,,,,,,,,,,,,,,,,,,,,,,,,,,,,,,,,,,,,,,,,,,,,,,,,,,,,,,,,,,,,,,,,,,,,,,,,,,,,,,,,,,,,,,,,,,,,,,
1738754042.047826,28.000000,0.000000,4269.230957,4303.333496,4194.230957,4247.179688,4304.871582,4311.666504,4309.871582,4497.051270,4493.717773,4513.589844,4457.692383,5628.077148,4280.256348,4215.769043,0.000000,4.000000,80.000000,,,,0.000000,0.000000,0.000000,0.000000,0.000000,0.000000,0.000000,0.000000,0.000000,0.000000,0.000000,0.000000,0.000000,0.000000,0.000000,0.000000,,,,,,,,,,,,,,,,,7.000000,0.000000,0.786085,-0.615417,-0.055542,0.015686,0.065438,-0.973263,0.230497,5.200459,-14.837173,21.909111,,,,,,,,,,,,,,,,,,,,,,,,,,,,,,,,,,,,,,,,,,,,,,,,,,,,,,,,,,,,,,,,,,,,,,,,,,,,,,,,,,,,,,,,,,,,,,,,,,,,,
1738754042.055734,29.000000,0.000000,4272.051270,4303.589844,4197.948730,4250.512695,4304.615234,4313.461426,4312.436035,4499.743652,4490.512695,4513.205078,4453.205078,5631.025879,4276.282227,4215.512695,0.000000,4.000000,80.000000,,,,0.000000,0.000000,0.000000,0.000000,0.000000,0.000000,0.000000,0.000000,0.000000,0.000000,0.000000,0.000000,0.000000,0.000000,0.000000,0.000000,,,,,,,,,,,,,,,,,,,,,,,,,,,,,,,,,,,,,,,,,,,,,,,,,,,,,,,,,,,,,,,,,,,,,,,,,,,,,,,,,,,,,,,,,,,,,,,,,,,,,,,,,,,,,,,,,,,,,,,,,,,,,,,,,
1738754042.063542,30.000000,0.000000,4273.077148,4303.077148,4197.948730,4251.538574,4305.384766,4314.230957,4317.563965,4501.922852,4490.384766,4513.205078,4451.025879,5634.102539,4267.692383,4213.077148,0.000000,4.000000,80.000000,,,,0.000000,0.000000,0.000000,0.000000,0.000000,0.000000,0.000000,0.000000,0.000000,0.000000,0.000000,0.000000,0.000000,0.000000,0.000000,0.000000,1.000000,0.000000,0.000000,0.000000,0.000000,0.000000,0.000000,0.000000,0.000000,0.000000,0.000000,0.000000,0.000000,0.000000,0.000000,0.000000,,,,,,,,,,,,,,,,,,,,,,,,,,,,,,,,,,,,,,,,,,,,0.016410,0.026513,0.029324,0.022649,0.035969,0.235975,0.283093,0.402848,0.511653,1.240316,0.028728,0.019075,0.023102,0.026165,0.030421,0.073315,0.079663,0.061024,0.045227,0.063763,0.009705,0.028985,0.011014,0.056504,0.102001,0.084123,0.283418,0.143041,0.258068,0.762506,0.043595,0.026372,0.021092,0.027986,0.045904,0.084081,0.097251,0.071253,0.121936,0.260872,0.015979,0.045945,0.030767,0.047205,0.029841,0.015677,0.024416,0.026545,0.013574,0.033923,0.037418,0.012340,0.040355,0.030695,0.058357,0.186016,0.180553,0.143771,0.153390,0.502842,0.231313,0.190901,0.113733,0.161700,0.333903,0.304010,0.320663,0.252568,0.223777,0.740523
1738754042.071450,31.000000,0.000000,4270.128418,4306.794922,4197.820313,4249.487305,4304.743652,4312.820313,4314.743652,4498.846191,4495.256348,4515.384766,4455.641113,5628.589844,4280.256348,4219.871582,0.000000,4.000000,80.000000,,,,0.000000,0.000000,0.000000,0.000000,0.000000,0.000000,0.000000,0.000000,0.000000,0.000000,0.000000,0.000000,0.000000,0.000000,0.000000,0.000000,,,,,,,,,,,,,,,,,,,,,,,,,,,,,,,,,,,,,,,,,,,,,,,,,,,,,,,,,,,,,,,,,,,,,,,,,,,,,,,,,,,,,,,,,,,,,,,,,,,,,,,,,,,,,,,,,,,,,,,,,,,,,,,,,
1738754042.079258,32.000000,0.000000,4273.974121,4304.743652,4200.897461,4257.563965,4305.641113,4315.256348,4320.384766,4505.256348,4490.512695,4513.205078,4453.461426,5637.179688,4266.282227,4211.922852,0.000000,4.000000,80.000000,,,,0.000000,0.000000,0.000000,0.000000,0.000000,0.000000,0.000000,0.000000,0.000000,0.000000,0.000000,0.000000,0.000000,0.000000,0.000000,0.000000,,,,,,,,,,,,,,,,,8.000000,0.000000,0.786035,-0.615479,-0.055603,0.015625,0.077158,-0.966427,0.230497,5.213746,-14.836789,21.801535,,,,,,,,,,,,,,,,,,,,,,,,,,,,,,,,,,,,,,,,,,,,,,,,,,,,,,,,,,,,,,,,,,,,,,,,,,,,,,,,,,,,,,,,,,,,,,,,,,,,,
1738754042.087166,33.000000,0.000000,4272.820313,4304.358887,4200.769043,4251.666504,4305.641113,4315.512695,4314.871582,4501.538574,4490.897461,4512.820313,4456.666504,5635.512695,4274.102539,4216.922852,0.000000,4.000000,80.000000,,,,0.000000,0.000000,0.000000,0.000000,0.000000,0.000000,0.000000,0.000000,0.000000,0.000000,0.000000,0.000000,0.000000,0.000000,0.000000,0.000000,,,,,,,,,,,,,,,,,,,,,,,,,,,,,,,,,,,,,,,,,,,,,,,,,,,,,,,,,,,,,,,,,,,,,,,,,,,,,,,,,,,,,,,,,,,,,,,,,,,,,,,,,,,,,,,,,,,,,,,,,,,,,,,,,
1738754042.094974,34.000000,0.000000,4271.282227,4307.307617,4203.205078,4248.589844,4305.128418,4313.717773,4315.384766,4498.205078,4492.948730,4514.230957,4457.820313,5633.333496,4276.666504,4221.666504,0.000000,4.000000,80.000000,,,,0.000000,0.000000,0.000000,0.000000,0.000000,0.000000,0.000000,0.000000,0.000000,0.000000,0.000000,0.000000,0.000000,0.000000,0.000000,0.000000,,,,,,,,,,,,,,,,,,,,,,,,,,,,,,,,,,,,,,,,,,,,,,,,,,,,,,,,,,,,,,,,,,,,,,,,,,,,,,,,,,,,,,,,,,,,,,,,,,,,,,,,,,,,,,,,,,,,,,,,,,,,,,,,,
1738754042.102881,35.000000,0.000000,4273.589844,4305.000000,4202.948730,4255.384766,4304.615234,4315.512695,4320.641113,4502.436035,4489.102539,4513.461426,4452.436035,5637.820313,4261.922852,4209.615234,0.000000,4.000000,80.000000,,,,0.000000,0.000000,0.000000,0.000000,0.000000,0.000000,0.000000,0.000000,0.000000,0.000000,0.000000,0.000000,0.000000,0.000000,0.000000,0.000000,,,,,,,,,,,,,,,,,,,,,,,,,,,,,,,,,,,,,,,,,,,,,,,,,,,,,,,,,,,,,,,,,,,,,,,,,,,,,,,,,,,,,,,,,,,,,,,,,,,,,,,,,,,,,,,,,,,,,,,,,,,,,,,,,
1738754042.110689,36.000000,0.000000,4274.230957,4303.205078,4202.179688,4250.512695,4303.333496,4318.974121,4311.282227,4498.461426,4491.922852,4513.461426,4455.641113,5633.077148,4276.794922,4213.974121,0.000000,4.000000,80.000000,,,,0.000000,0.000000,0.000000,0.000000,0.000000,0.000000,0.000000,0.000000,0.000000,0.000000,0.000000,0.000000,0.000000,0.000000,0.000000,0.000000,,,,,,,,,,,,,,,,,9.000000,0.000000,0.786089,-0.615417,-0.055542,0.015503,0.072274,-0.957636,0.239775,5.292372,-14.869777,21.721380,,,,,,,,,,,,,,,,,,,,,,,,,,,,,,,,,,,,,,,,,,,,,,,,,,,,,,,,,,,,,,,,,,,,,,,,,,,,,,,,,,,,,,,,,,,,,,,,,,,,,
1738754042.118398,37.000000,0.000000,4277.436035,4302.692383,4205.256348,4252.436035,4305.769043,4319.102539,4316.922852,4505.000000,4492.563965,4512.179688,4453.589844,5640.897461,4265.512695,4211.153809,0.000000,4.000000,80.000000,,,,0.000000,0.000000,0.000000,0.000000,0.000000,0.000000,0.000000,0.000000,0.000000,0.000000,0.000000,0.000000,0.000000,0.000000,0.000000,0.000000,,,,,,,,,,,,,,,,,,,,,,,,,,,,,,,,,,,,,,,,,,,,,,,,,,,,,,,,,,,,,,,,,,,,,,,,,,,,,,,,,,,,,,,,,,,,,,,,,,,,,,,,,,,,,,,,,,,,,,,,,,,,,,,,,
1738754042.126205,38.000000,0.000000,4273.205078,4303.589844,4201.025879,4251.666504,4307.948730,4315.641113,4318.717773,4508.205078,4493.461426,4515.641113,4451.153809,5637.307617,4264.487305,4209.487305,0.000000,4.000000,80.000000,,,,0.000000,0.000000,0.000000,0.000000,0.000000,0.000000,0.000000,0.000000,0.000000,0.000000,0.000000,0.000000,0.000000,0.000000,0.000000,0.000000,,,,,,,,,,,,,,,,,,,,,,,,,,,,,,,,,,,,,,,,,,,,,,,,,,,,,,,,,,,,,,,,,,,,,,,,,,,,,,,,,,,,,,,,,,,,,,,,,,,,,,,,,,,,,,,,,,,,,,,,,,,,,,,,,
1738754042.133914,39.000000,0.000000,4272.563965,4304.871582,4200.256348,4250.769043,4305.769043,4316.410156,4314.871582,4503.205078,4493.717773,4515.128418,4452.307617,5632.948730,4272.692383,4213.846191,0.000000,4.000000,80.000000,,,,0.000000,0.000000,0.000000,0.000000,0.000000,0.000000,0.000000,0.000000,0.000000,0.000000,0.000000,0.000000,0.000000,0.000000,0.000000,0.000000,,,,,,,,,,,,,,,,,,,,,,,,,,,,,,,,,,,,,,,,,,,,,,,,,,,,,,,,,,,,,,,,,,,,,,,,,,,,,,,,,,,,,,,,,,,,,,,,,,,,,,,,,,,,,,,,,,,,,,,,,,,,,,,,,
1738754042.141722,40.000000,0.000000,4275.897461,4303.205078,4205.641113,4257.051270,4306.282227,4318.717773,4319.102539,4504.487305,4492.563965,4509.230957,4451.025879,5641.538574,4258.333496,4205.769043,0.000000,4.000000,80.000000,,,,0.000000,0.000000,0.000000,0.000000,0.000000,0.000000,0.000000,0.000000,0.000000,0.000000,0.000000,0.000000,0.000000,0.000000,0.000000,0.000000,,,,,,,,,,,,,,,,,10.000000,0.000000,0.786093,-0.615417,-0.055481,0.015503,0.070321,-0.973752,0.238310,5.263134,-14.782800,21.832575,,,,,,,,,,,,,,,,,,,,,,,,,,,,,,,,,,,,,,,,,,,,,,,,,,,,,,,,,,,,,,,,,,,,,,,,,,,,,,,,,,,,,,,,,,,,,,,,,,,,,
1738754042.149430,41.000000,0.000000,4272.563965,4305.000000,4204.358887,4252.692383,4308.589844,4315.512695,4313.717773,4502.563965,4497.692383,4511.410156,4454.358887,5634.743652,4270.256348,4213.205078,0.000000,4.000000,80.000000,,,,0.000000,0.000000,0.000000,0.000000,0.000000,0.000000,0.000000,0.000000,0.000000,0.000000,0.000000,0.000000,0.000000,0.000000,0.000000,0.000000,,,,,,,,,,,,,,,,,,,,,,,,,,,,,,,,,,,,,,,,,,,,,,,,,,,,,,,,,,,,,,,,,,,,,,,,,,,,,,,,,,,,,,,,,,,,,,,,,,,,,,,,,,,,,,,,,,,,,,,,,,,,,,,,,
1738754042.157238,42.000000,0.000000,4274.487305,4305.256348,4204.615234,4254.743652,4307.563965,4314.615234,4317.692383,4506.922852,4494.230957,4512.692383,4454.743652,5636.538574,4266.410156,4212.948730,0.000000,4.000000,80.000000,,,,0.000000,0.000000,0.000000,0.000000,0.000000,0.000000,0.000000,0.000000,0.000000,0.000000,0.000000,0.000000,0.000000,0.000000,0.000000,0.000000,,,,,,,,,,,,,,,,,,,,,,,,,,,,,,,,,,,,,,,,,,,,,,,,,,,,,,,,,,,,,,,,,,,,,,,,,,,,,,,,,,,,,,,,,,,,,,,,,,,,,,,,,,,,,,,,,,,,,,,,,,,,,,,,,
1738754042.164946,43.000000,0.000000,4273.205078,4304.743652,4202.179688,4254.743652,4302.948730,4316.922852,4319.487305,4504.743652,4493.077148,4514.230957,4455.128418,5634.743652,4262.307617,4206.025879,0.000000,4.000000,80.000000,,,,0.000000,0.000000,0.000000,0.000000,0.000000,0.000000,0.000000,0.000000,0.000000,0.000000,0.000000,0.000000,0.000000,0.000000,0.000000,0.000000,,,,,,,,,,,,,,,,,,,,,,,,,,,,,,,,,,,,,,,,,,,,,,,,,,,,,,,,,,,,,,,,,,,,,,,,,,,,,,,,,,,,,,,,,,,,,,,,,,,,,,,,,,,,,,,,,,,,,,,,,,,,,,,,,
1738754042.172754,44.000000,0.000000,4271.282227,4305.384766,4201.153809,4253.846191,4302.436035,4318.461426,4315.256348,4500.000000,4495.769043,4515.000000,4457.179688,5629.487305,4270.256348,4213.589844,0.000000,4.000000,80.000000,,,,0.000000,0.000000,0.000000,0.000000,0.000000,0.000000,0.000000,0.000000,0.000000,0.000000,0.000000,0.000000,0.000000,0.000000,0.000000,0.000000,,,,,,,,,,,,,,,,,11.000000,0.000000,0.786092,-0.615417,-0.055481,0.015564,0.062996,-0.976193,0.227078,5.253488,-14.687853,21.699318,,,,,,,,,,,,,,,,,,,,,,,,,,,,,,,,,,,,,,,,,,,,,,,,,,,,,,,,,,,,,,,,,,,,,,,,,,,,,,,,,,,,,,,,,,,,,,,,,,,,,
1738754042.180462,45.000000,0.000000,4276.794922,4302.051270,4207.051270,4259.102539,4306.282227,4317.948730,4321.922852,4507.436035,4491.153809,4511.153809,4453.461426,5640.641113,4259.358887,4211.922852,0.000000,4.000000,80.000000,,,,0.000000,0.000000,0.000000,0.000000,0.000000,0.000000,0.000000,0.000000,0.000000,0.000000,0.000000,0.000000,0.000000,0.000000,0.000000,0.000000,,,,,,,,,,,,,,,,,,,,,,,,,,,,,,,,,,,,,,,,,,,,,,,,,,,,,,,,,,,,,,,,,,,,,,,,,,,,,,,,,,,,,,,,,,,,,,,,,,,,,,,,,,,,,,,,,,,,,,,,,,,,,,,,,
1738754042.188270,46.000000,0.000000,4275.128418,4303.846191,4206.025879,4248.974121,4305.769043,4314.743652,4319.230957,4503.717773,4494.871582,4513.205078,4453.205078,5637.307617,4270.128418,4211.282227,0.000000,4.000000,80.000000,,,,0.000000,0.000000,0.000000,0.000000,0.000000,0.000000,0.000000,0.000000,0.000000,0.000000,0.000000,0.000000,0.000000,0.000000,0.000000,0.000000,,,,,,,,,,,,,,,,,,,,,,,,,,,,,,,,,,,,,,,,,,,,,,,,,,,,,,,,,,,,0.017997,0.029224,0.030752,0.022864,0.035703,0.226311,0.279568,0.404561,0.515366,1.227076,0.047069,0.038147,0.022958,0.027057,0.028174,0.086763,0.081877,0.056671,0.048448,0.061310,0.010032,0.030794,0.008129,0.056988,0.105218,0.085596,0.278580,0.138734,0.255449,0.755702,0.053443,0.027908,0.019524,0.030316,0.050791,0.088371,0.087964,0.069503,0.145552,0.261378,0.017285,0.038392,0.039867,0.046392,0.028506,0.014160,0.024911,0.026931,0.017613,0.035384,0.039742,0.013276,0.036795,0.029150,0.055955,0.182422,0.187237,0.142145,0.153818,0.494279,0.262153,0.224400,0.116682,0.166328,0.331002,0.317455,0.320454,0.253611,0.223270,0.733385
1738754042.195978,47.000000,0.000000,4273.589844,4304.743652,4205.512695,4250.769043,4302.179688,4313.846191,4318.717773,4503.205078,4496.153809,4512.820313,4451.153809,5638.205078,4263.461426,4206.153809,0.000000,4.000000,80.000000,,,,0.000000,0.000000,0.000000,0.000000,0.000000,0.000000,0.000000,0.000000,0.000000,0.000000,0.000000,0.000000,0.000000,0.000000,0.000000,0.000000,,,,,,,,,,,,,,,,,,,,,,,,,,,,,,,,,,,,,,,,,,,,,,,,,,,,,,,,,,,,,,,,,,,,,,,,,,,,,,,,,,,,,,,,,,,,,,,,,,,,,,,,,,,,,,,,,,,,,,,,,,,,,,,,,
1738754042.203786,48.000000,0.000000,4276.410156,4303.717773,4206.282227,4260.256348,4303.333496,4315.897461,4319.102539,4507.948730,4494.230957,4511.794922,4451.794922,5641.538574,4257.948730,4206.025879,0.000000,4.000000,80.000000,,,,0.000000,0.000000,0.000000,0.000000,0.000000,0.000000,0.000000,0.000000,0.000000,0.000000,0.000000,0.000000,0.000000,0.000000,0.000000,0.000000,,,,,,,,,,,,,,,,,12.000000,0.000000,0.786098,-0.615417,-0.055420,0.015503,0.072763,-0.967892,0.242705,5.178139,-14.702401,21.812719,,,,,,,,,,,,,,,,,,,,,,,,,,,,,,,,,,,,,,,,,,,,,,,,,,,,,,,,,,,,,,,,,,,,,,,,,,,,,,,,,,,,,,,,,,,,,,,,,,,,,
1738754042.211494,49.000000,0.000000,4276.153809,4305.897461,4205.256348,4255.769043,4306.153809,4318.077148,4315.384766,4504.358887,4496.153809,4515.769043,4457.179688,5634.871582,4272.692383,4213.974121,0.000000,4.000000,80.000000,,,,0.000000,0.000000,0.000000,0.000000,0.000000,0.000000,0.000000,0.000000,0.000000,0.000000,0.000000,0.000000,0.000000,0.000000,0.000000,0.000000,,,,,,,,,,,,,,,,,,,,,,,,,,,,,,,,,,,,,,,,,,,,,,,,,,,,,,,,,,,,,,,,,,,,,,,,,,,,,,,,,,,,,,,,,,,,,,,,,,,,,,,,,,,,,,,,,,,,,,,,,,,,,,,,,
1738754042.219402,50.000000,0.000000,4277.563965,4304.743652,4206.666504,4255.512695,4304.615234,4315.769043,4320.384766,4504.743652,4490.512695,4513.333496,4453.589844,5641.410156,4258.333496,4207.692383,0.000000,4.000000,80.000000,,,,0.000000,0.000000,0.000000,0.000000,0.000000,0.000000,0.000000,0.000000,0.000000,0.000000,0.000000,0.000000,0.000000,0.000000,0.000000,0.000000,,,,,,,,,,,,,,,,,,,,,,,,,,,,,,,,,,,,,,,,,,,,,,,,,,,,,,,,,,,,,,,,,,,,,,,,,,,,,,,,,,,,,,,,,,,,,,,,,,,,,,,,,,,,,,,,,,,,,,,,,,,,,,,,,
1738754042.227210,51.000000,0.000000,4277.563965,4305.000000,4205.512695,4253.333496,4304.230957,4311.025879,4315.641113,4502.436035,4491.538574,4510.512695,4452.051270,5638.717773,4264.871582,4211.666504,0.000000,4.000000,80.000000,,,,0.000000,0.000000,0.000000,0.000000,0.000000,0.000000,0.000000,0.000000,0.000000,0.000000,0.000000,0.000000,0.000000,0.000000,0.000000,0.000000,,,,,,,,,,,,,,,,,,,,,,,,,,,,,,,,,,,,,,,,,,,,,,,,,,,,,,,,,,,,,,,,,,,,,,,,,,,,,,,,,,,,,,,,,,,,,,,,,,,,,,,,,,,,,,,,,,,,,,,,,,,,,,,,,
1738754042.235117,52.000000,0.000000,4277.820313,4303.846191,4207.179688,4256.666504,4307.307617,4313.077148,4317.307617,4505.384766,4493.205078,4515.256348,4453.717773,5637.051270,4267.307617,4211.025879,0.000000,4.000000,80.000000,,,,0.000000,0.000000,0.000000,0.000000,0.000000,0.000000,0.000000,0.000000,0.000000,0.000000,0.000000,0.000000,0.000000,0.000000,0.000000,0.000000,,,,,,,,,,,,,,,,,13.000000,0.000000,0.786046,-0.615479,-0.055481,0.015503,0.056648,-0.976682,0.240264,5.110325,-14.765494,21.748114,,,,,,,,,,,,,,,,,,,,,,,,,,,,,,,,,,,,,,,,,,,,,,,,,,,,,,,,,,,,,,,,,,,,,,,,,,,,,,,,,,,,,,,,,,,,,,,,,,,,,
1738754042.242925,53.000000,0.000000,4277.179688,4302.307617,4210.641113,4260.512695,4307.692383,4316.794922,4321.794922,4510.000000,4490.384766,4520.000000,4453.205078,5642.436035,4257.436035,4205.769043,0.000000,4.000000,80.000000,,,,0.000000,0.000000,0.000000,0.000000,0.000000,0.000000,0.000000,0.000000,0.000000,0.000000,0.000000,0.000000,0.000000,0.000000,0.000000,0.000000,,,,,,,,,,,,,,,,,,,,,,,,,,,,,,,,,,,,,,,,,,,,,,,,,,,,,,,,,,,,,,,,,,,,,,,,,,,,,,,,,,,,,,,,,,,,,,,,,,,,,,,,,,,,,,,,,,,,,,,,,,,,,,,,,
1738754042.250833,54.000000,0.000000,4274.358887,4304.871582,4209.871582,4254.230957,4307.436035,4315.128418,4316.282227,4504.615234,4494.743652,4518.077148,4455.128418,5636.794922,4267.948730,4212.563965,0.000000,4.000000,80.000000,,,,0.000000,0.000000,0.000000,0.000000,0.000000,0.000000,0.000000,0.000000,0.000000,0.000000,0.000000,0.000000,0.000000,0.000000,0.000000,0.000000,,,,,,,,,,,,,,,,,,,,,,,,,,,,,,,,,,,,,,,,,,,,,,,,,,,,,,,,,,,,,,,,,,,,,,,,,,,,,,,,,,,,,,,,,,,,,,,,,,,,,,,,,,,,,,,,,,,,,,,,,,,,,,,,,
1738754042.258641,55.000000,0.000000,4278.333496,4303.205078,4212.563965,4259.871582,4307.307617,4312.948730,4322.051270,4508.846191,4493.077148,4510.897461,4451.794922,5642.307617,4255.384766,4206.666504,0.000000,4.000000,80.000000,,,,0.000000,0.000000,0.000000,0.000000,0.000000,0.000000,0.000000,0.000000,0.000000,0.000000,0.000000,0.000000,0.000000,0.000000,0.000000,0.000000,,,,,,,,,,,,,,,,,,,,,,,,,,,,,,,,,,,,,,,,,,,,,,,,,,,,,,,,,,,,,,,,,,,,,,,,,,,,,,,,,,,,,,,,,,,,,,,,,,,,,,,,,,,,,,,,,,,,,,,,,,,,,,,,,
1738754042.266549,56.000000,0.000000,4276.410156,4303.333496,4211.922852,4260.256348,4303.461426,4312.820313,4317.051270,4506.538574,4490.897461,4513.974121,4455.000000,5640.256348,4262.436035,4210.000000,0.000000,4.000000,80.000000,,,,0.000000,0.000000,0.000000,0.000000,0.000000,0.000000,0.000000,0.000000,0.000000,0.000000,0.000000,0.000000,0.000000,0.000000,0.000000,0.000000,,,,,,,,,,,,,,,,,14.000000,0.000000,0.786048,-0.615479,-0.055420,0.015625,0.071298,-0.974240,0.233915,5.082626,-14.705611,21.706636,,,,,,,,,,,,,,,,,,,,,,,,,,,,,,,,,,,,,,,,,,,,,,,,,,,,,,,,,,,,,,,,,,,,,,,,,,,,,,,,,,,,,,,,,,,,,,,,,,,,,
1738754042.274357,57.000000,0.000000,4273.717773,4305.000000,4211.410156,4255.256348,4304.743652,4316.153809,4313.205078,4501.410156,4491.025879,4516.025879,4457.436035,5635.641113,4266.282227,4213.205078,0.000000,4.000000,80.000000,,,,0.000000,0.000000,0.000000,0.000000,0.000000,0.000000,0.000000,0.000000,0.000000,0.000000,0.000000,0.000000,0.000000,0.000000,0.000000,0.000000,,,,,,,,,,,,,,,,,,,,,,,,,,,,,,,,,,,,,,,,,,,,,,,,,,,,,,,,,,,,,,,,,,,,,,,,,,,,,,,,,,,,,,,,,,,,,,,,,,,,,,,,,,,,,,,,,,,,,,,,,,,,,,,,,
1738754042.282265,58.000000,0.000000,4277.051270,4303.846191,4213.205078,4256.794922,4306.410156,4319.230957,4323.589844,4508.717773,4490.384766,4509.871582,4452.563965,5642.436035,4249.487305,4206.282227,0.000000,4.000000,80.000000,,,,0.000000,0.000000,0.000000,0.000000,0.000000,0.000000,0.000000,0.000000,0.000000,0.000000,0.000000,0.000000,0.000000,0.000000,0.000000,0.000000,,,,,,,,,,,,,,,,,,,,,,,,,,,,,,,,,,,,,,,,,,,,,,,,,,,,,,,,,,,,,,,,,,,,,,,,,,,,,,,,,,,,,,,,,,,,,,,,,,,,,,,,,,,,,,,,,,,,,,,,,,,,,,,,,
1738754042.290073,59.000000,0.000000,4274.230957,4305.000000,4209.230957,4254.615234,4301.794922,4316.666504,4317.948730,4506.025879,4493.333496,4513.077148,4456.666504,5637.051270,4263.589844,4212.820313,0.000000,4.000000,80.000000,,,,0.000000,0.000000,0.000000,0.000000,0.000000,0.000000,0.000000,0.000000,0.000000,0.000000,0.000000,0.000000,0.000000,0.000000,0.000000,0.000000,,,,,,,,,,,,,,,,,,,,,,,,,,,,,,,,,,,,,,,,,,,,,,,,,,,,,,,,,,,,,,,,,,,,,,,,,,,,,,,,,,,,,,,,,,,,,,,,,,,,,,,,,,,,,,,,,,,,,,,,,,,,,,,,,
1738754042.297981,60.000000,0.000000,4274.487305,4304.615234,4210.897461,4258.974121,4302.692383,4315.256348,4316.282227,4506.538574,4490.384766,4514.615234,4456.794922,5641.410156,4255.128418,4209.615234,0.000000,4.000000,80.000000,,,,0.000000,0.000000,0.000000,0.000000,0.000000,0.000000,0.000000,0.000000,0.000000,0.000000,0.000000,0.000000,0.000000,0.000000,0.000000,0.000000,,,,,,,,,,,,,,,,,15.000000,0.000000,0.786046,-0.615479,-0.055420,0.015686,0.058113,-0.982053,0.237334,4.924363,-15.001717,21.585972,,,,,,,,,,,,,,,,,,,,,,,,,,,,,,,,,,,,,,,,,,,,,,,,,,,,,,,,,,,,,,,,,,,,,,,,,,,,,,,,,,,,,,,,,,,,,,,,,,,,,
1738754042.305789,61.000000,0.000000,4274.230957,4303.846191,4211.282227,4259.871582,4306.538574,4317.179688,4319.358887,4507.307617,4491.410156,4511.282227,4456.410156,5643.205078,4252.948730,4208.846191,0.000000,4.000000,80.000000,,,,0.000000,0.000000,0.000000,0.000000,0.000000,0.000000,0.000000,0.000000,0.000000,0.000000,0.000000,0.000000,0.000000,0.000000,0.000000,0.000000,,,,,,,,,,,,,,,,,,,,,,,,,,,,,,,,,,,,,,,,,,,,,,,,,,,,,,,,,,,,,,,,,,,,,,,,,,,,,,,,,,,,,,,,,,,,,,,,,,,,,,,,,,,,,,,,,,,,,,,,,,,,,,,,,
1738754042.313697,62.000000,0.000000,4273.974121,4302.436035,4205.769043,4258.077148,4306.153809,4317.692383,4317.563965,4504.230957,4495.384766,4512.436035,4458.077148,5638.333496,4262.948730,4211.025879,0.000000,4.000000,80.000000,,,,0.000000,0.000000,0.000000,0.000000,0.000000,0.000000,0.000000,0.000000,0.000000,0.000000,0.000000,0.000000,0.000000,0.000000,0.000000,0.000000,,,,,,,,,,,,,,,,,,,,,,,,,,,,,,,,,,,,,,,,,,,,,,,,,,,,,,,,,,,,0.022234,0.034113,0.029792,0.023998,0.035044,0.193175,0.242647,0.350197,0.446047,1.049944,0.078426,0.070855,0.021534,0.027302,0.025435,0.097191,0.078007,0.050924,0.049617,0.054574,0.013533,0.033054,0.005846,0.052419,0.097477,0.082899,0.237932,0.121782,0.218630,0.648530,0.075524,0.032679,0.019167,0.031214,0.053065,0.086279,0.073492,0.060770,0.162533,0.231103,0.019675,0.031318,0.050851,0.042584,0.026693,0.014260,0.024059,0.026414,0.022301,0.034752,0.046830,0.014726,0.031780,0.025791,0.049759,0.161265,0.179957,0.123050,0.134957,0.423943,0.290956,0.259704,0.107933,0.152720,0.288786,0.315113,0.279178,0.220567,0.193207,0.630264
1738754042.321505,63.000000,0.000000,4280.000000,4300.897461,4209.102539,4262.563965,4304.615234,4316.282227,4318.589844,4509.487305,4492.948730,4513.205078,4454.358887,5643.974121,4249.230957,4204.487305,0.000000,4.000000,80.000000,,,,0.000000,0.000000,0.000000,0.000000,0.000000,0.000000,0.000000,0.000000,0.000000,0.000000,0.000000,0.000000,0.000000,0.000000,0.000000,0.000000,,,,,,,,,,,,,,,,,,,,,,,,,,,,,,,,,,,,,,,,,,,,,,,,,,,,,,,,,,,,,,,,,,,,,,,,,,,,,,,,,,,,,,,,,,,,,,,,,,,,,,,,,,,,,,,,,,,,,,,,,,,,,,,,,
