title:bread1, start timestamp:1738755539.383651, stop timestamp:1738755540.414320, headset type:EPOCX, headset serial:E50208A5, headset firmware:720, channels:168, sampling rate:eeg_128;mot_32;pm_0.1;pow_8, samples:133       , version:2.2, 
Timestamp,OriginalTimestamp,EEG.Counter,EEG.Interpolated,EEG.AF3,EEG.F7,EEG.F3,EEG.FC5,EEG.T7,EEG.P7,EEG.O1,EEG.O2,EEG.P8,EEG.T8,EEG.FC6,EEG.F4,EEG.F8,EEG.AF4,EEG.RawCq,EEG.Battery,EEG.BatteryPercent,MarkerIndex,MarkerType,MarkerValueInt,EEG.MarkerHardware,CQ.AF3,CQ.F7,CQ.F3,CQ.FC5,CQ.T7,CQ.P7,CQ.O1,CQ.O2,CQ.P8,CQ.T8,CQ.FC6,CQ.F4,CQ.F8,CQ.AF4,CQ.Overall,EQ.SampleRateQuality,EQ.OVERALL,EQ.AF3,EQ.F7,EQ.F3,EQ.FC5,EQ.T7,EQ.P7,EQ.O1,EQ.O2,EQ.P8,EQ.T8,EQ.FC6,EQ.F4,EQ.F8,EQ.AF4,MOT.CounterMems,MOT.InterpolatedMems,MOT.Q0,MOT.Q1,MOT.Q2,MOT.Q3,MOT.AccX,MOT.AccY,MOT.AccZ,MOT.MagX,MOT.MagY,MOT.MagZ,PM.Attention.IsActive,PM.Attention.Scaled,PM.Attention.Raw,PM.Attention.Min,PM.Attention.Max,PM.Engagement.IsActive,PM.Engagement.Scaled,PM.Engagement.Raw,PM.Engagement.Min,PM.Engagement.Max,PM.Excitement.IsActive,PM.Excitement.Scaled,PM.Excitement.Raw,PM.Excitement.Min,PM.Excitement.Max,PM.LongTermExcitement,PM.Stress.IsActive,PM.Stress.Scaled,PM.Stress.Raw,PM.Stress.Min,PM.Stress.Max,PM.Relaxation.IsActive,PM.Relaxation.Scaled,PM.Relaxation.Raw,PM.Relaxation.Min,PM.Relaxation.Max,PM.Interest.IsActive,PM.Interest.Scaled,PM.Interest.Raw,PM.Interest.Min,PM.Interest.Max,POW.AF3.Theta,POW.AF3.Alpha,POW.AF3.BetaL,POW.AF3.BetaH,POW.AF3.Gamma,POW.F7.Theta,POW.F7.Alpha,POW.F7.BetaL,POW.F7.BetaH,POW.F7.Gamma,POW.F3.Theta,POW.F3.Alpha,POW.F3.BetaL,POW.F3.BetaH,POW.F3.Gamma,POW.FC5.Theta,POW.FC5.Alpha,POW.FC5.BetaL,POW.FC5.BetaH,POW.FC5.Gamma,POW.T7.Theta,POW.T7.Alpha,POW.T7.BetaL,POW.T7.BetaH,POW.T7.Gamma,POW.P7.Theta,POW.P7.Alpha,POW.P7.BetaL,POW.P7.BetaH,POW.P7.Gamma,POW.O1.Theta,POW.O1.Alpha,POW.O1.BetaL,POW.O1.BetaH,POW.O1.Gamma,POW.O2.Theta,POW.O2.Alpha,POW.O2.BetaL,POW.O2.BetaH,POW.O2.Gamma,POW.P8.Theta,POW.P8.Alpha,POW.P8.BetaL,POW.P8.BetaH,POW.P8.Gamma,POW.T8.Theta,POW.T8.Alpha,POW.T8.BetaL,POW.T8.BetaH,POW.T8.Gamma,POW.FC6.Theta,POW.FC6.Alpha,POW.FC6.BetaL,POW.FC6.BetaH,POW.FC6.Gamma,POW.F4.Theta,POW.F4.Alpha,POW.F4.BetaL,POW.F4.BetaH,POW.F4.Gamma,POW.F8.Theta,POW.F8.Alpha,POW.F8.BetaL,POW.F8.BetaH,POW.F8.Gamma,POW.AF4.Theta,POW.AF4.Alpha,POW.AF4.BetaL,POW.AF4.BetaH,POW.AF4.Gamma
1738755539.383651,1738755539.383895,51.000000,0.000000,4323.846191,4350.641113,4251.794922,4304.615234,4354.487305,4361.538574,4364.102539,4547.820313,4535.384766,4558.077148,4496.410156,5664.871582,4308.205078,4253.461426,0.000000,3.000000,74.000000,,,,0.000000,0.000000,0.000000,0.000000,0.000000,0.000000,0.000000,0.000000,0.000000,0.000000,0.000000,0.000000,0.000000,0.000000,0.000000,0.000000,,,,,,,,,,,,,,,,,,,,,,,,,,,,,,,,,,,,,,,,,,,,,,,,,,,,,,,,,,,,,,,,,,,,,,,,,,,,,,,,,,,,,,,,,,,,,,,,,,,,,,,,,,,,,,,,,,,,,,,,,,,,,,,,,
1738755539.391459,1738755539.391603,52.000000,0.000000,4324.487305,4349.871582,4253.974121,4305.769043,4350.897461,4361.025879,4361.666504,4546.410156,4538.461426,4560.897461,4497.436035,5666.282227,4305.512695,4257.179688,0.000000,3.000000,74.000000,,,,0.000000,0.000000,0.000000,0.000000,0.000000,0.000000,0.000000,0.000000,0.000000,0.000000,0.000000,0.000000,0.000000,0.000000,0.000000,0.000000,,,,,,,,,,,,,,,,,13.000000,0.000000,0.784970,-0.616028,-0.060974,0.024780,0.065438,-0.976193,0.241240,4.447138,-15.415833,22.772833,,,,,,,,,,,,,,,,,,,,,,,,,,,,,,,,,,,,,,,,,,,,,,,,,,,,,,,,,,,,,,,,,,,,,,,,,,,,,,,,,,,,,,,,,,,,,,,,,,,,,
1738755539.399267,1738755539.399511,53.000000,0.000000,4322.820313,4348.333496,4254.102539,4301.282227,4349.358887,4358.974121,4362.948730,4548.846191,4539.358887,4559.230957,4496.410156,5662.436035,4308.077148,4256.666504,0.000000,3.000000,74.000000,,,,0.000000,0.000000,0.000000,0.000000,0.000000,0.000000,0.000000,0.000000,0.000000,0.000000,0.000000,0.000000,0.000000,0.000000,0.000000,0.000000,,,,,,,,,,,,,,,,,,,,,,,,,,,,,,,,,,,,,,,,,,,,,,,,,,,,,,,,,,,,,,,,,,,,,,,,,,,,,,,,,,,,,,,,,,,,,,,,,,,,,,,,,,,,,,,,,,,,,,,,,,,,,,,,,
1738755539.407075,1738755539.407320,54.000000,0.000000,4321.794922,4347.051270,4252.436035,4303.205078,4352.179688,4359.871582,4367.948730,4551.538574,4538.846191,4557.948730,4494.743652,5663.205078,4309.743652,4253.333496,0.000000,3.000000,74.000000,,,,0.000000,0.000000,0.000000,0.000000,0.000000,0.000000,0.000000,0.000000,0.000000,0.000000,0.000000,0.000000,0.000000,0.000000,0.000000,0.000000,,,,,,,,,,,,,,,,,,,,,,,,,,,,,,,,,,,,,,,,,,,,,,,,,,,,,,,,,,,,,,,,,,,,,,,,,,,,,,,,,,,,,,,,,,,,,,,,,,,,,,,,,,,,,,,,,,,,,,,,,,,,,,,,,
1738755539.414884,1738755539.415228,55.000000,0.000000,4321.922852,4349.615234,4253.077148,4303.077148,4353.333496,4360.000000,4365.512695,4548.846191,4540.384766,4561.538574,4497.436035,5662.051270,4314.743652,4259.358887,0.000000,3.000000,74.000000,,,,0.000000,0.000000,0.000000,0.000000,0.000000,0.000000,0.000000,0.000000,0.000000,0.000000,0.000000,0.000000,0.000000,0.000000,0.000000,0.000000,,,,,,,,,,,,,,,,,,,,,,,,,,,,,,,,,,,,,,,,,,,,,,,,,,,,,,,,,,,,,,,,,,,,,,,,,,,,,,,,,,,,,,,,,,,,,,,,,,,,,,,,,,,,,,,,,,,,,,,,,,,,,,,,,
1738755539.422692,1738755539.423036,56.000000,0.000000,4322.692383,4348.974121,4254.358887,4303.461426,4351.666504,4360.897461,4365.256348,4549.358887,4537.051270,4559.358887,4497.436035,5662.820313,4306.922852,4258.717773,0.000000,3.000000,74.000000,,,,0.000000,0.000000,0.000000,0.000000,0.000000,0.000000,0.000000,0.000000,0.000000,0.000000,0.000000,0.000000,0.000000,0.000000,0.000000,0.000000,,,,,,,,,,,,,,,,,14.000000,0.000000,0.784970,-0.616028,-0.060974,0.024780,0.070809,-0.973752,0.236845,4.369092,-15.224251,22.778883,,,,,,,,,,,,,,,,,,,,,,,,,,,,,,,,,,,,,,,,,,,,,,,,,,,,,,,,,,,,,,,,,,,,,,,,,,,,,,,,,,,,,,,,,,,,,,,,,,,,,
1738755539.430500,1738755539.430944,57.000000,0.000000,4321.666504,4347.563965,4253.205078,4302.436035,4351.025879,4362.948730,4365.769043,4551.666504,4536.025879,4556.410156,4493.974121,5661.794922,4307.179688,4254.743652,0.000000,3.000000,74.000000,,,,0.000000,0.000000,0.000000,0.000000,0.000000,0.000000,0.000000,0.000000,0.000000,0.000000,0.000000,0.000000,0.000000,0.000000,0.000000,0.000000,,,,,,,,,,,,,,,,,,,,,,,,,,,,,,,,,,,,,,,,,,,,,,,,,,,,,,,,,,,,,,,,,,,,,,,,,,,,,,,,,,,,,,,,,,,,,,,,,,,,,,,,,,,,,,,,,,,,,,,,,,,,,,,,,
1738755539.438308,1738755539.438752,58.000000,0.000000,4322.051270,4350.256348,4253.846191,4302.051270,4351.794922,4361.410156,4363.974121,4550.384766,4538.974121,4561.410156,4493.717773,5661.794922,4315.384766,4254.871582,0.000000,3.000000,74.000000,,,,0.000000,0.000000,0.000000,0.000000,0.000000,0.000000,0.000000,0.000000,0.000000,0.000000,0.000000,0.000000,0.000000,0.000000,0.000000,0.000000,,,,,,,,,,,,,,,,,,,,,,,,,,,,,,,,,,,,,,,,,,,,,,,,,,,,,,,,,,,,,,,,,,,,,,,,,,,,,,,,,,,,,,,,,,,,,,,,,,,,,,,,,,,,,,,,,,,,,,,,,,,,,,,,,
1738755539.446116,1738755539.446660,59.000000,0.000000,4323.461426,4350.769043,4254.871582,4303.974121,4353.205078,4360.128418,4365.128418,4548.974121,4539.615234,4561.025879,4496.153809,5663.717773,4312.820313,4255.897461,0.000000,3.000000,74.000000,,,,0.000000,0.000000,0.000000,0.000000,0.000000,0.000000,0.000000,0.000000,0.000000,0.000000,0.000000,0.000000,0.000000,0.000000,0.000000,0.000000,,,,,,,,,,,,,,,,,,,,,,,,,,,,,,,,,,,,,,,,,,,,,,,,,,,,,,,,,,,,,,,,,,,,,,,,,,,,,,,,,,,,,,,,,,,,,,,,,,,,,,,,,,,,,,,,,,,,,,,,,,,,,,,,,
1738755539.453924,1738755539.454469,60.000000,0.000000,4322.436035,4348.717773,4253.205078,4302.051270,4352.563965,4359.615234,4364.615234,4549.230957,4538.974121,4557.179688,4497.307617,5660.641113,4310.512695,4258.077148,0.000000,3.000000,74.000000,,,,0.000000,0.000000,0.000000,0.000000,0.000000,0.000000,0.000000,0.000000,0.000000,0.000000,0.000000,0.000000,0.000000,0.000000,0.000000,0.000000,,,,,,,,,,,,,,,,,15.000000,0.000000,0.785016,-0.615967,-0.060974,0.024841,0.069344,-0.973752,0.236845,4.282182,-15.251825,22.850994,,,,,,,,,,,,,,,,,,,,,,,,,,,,,,,,,,,,,,,,,,,,,,,,,,,,,,,,,,,,,,,,,,,,,,,,,,,,,,,,,,,,,,,,,,,,,,,,,,,,,
1738755539.461732,1738755539.462377,61.000000,0.000000,4322.563965,4348.589844,4254.230957,4302.692383,4351.025879,4358.333496,4365.128418,4551.794922,4537.563965,4560.512695,4496.025879,5663.205078,4309.743652,4256.025879,0.000000,3.000000,74.000000,,,,0.000000,0.000000,0.000000,0.000000,0.000000,0.000000,0.000000,0.000000,0.000000,0.000000,0.000000,0.000000,0.000000,0.000000,0.000000,0.000000,,,,,,,,,,,,,,,,,,,,,,,,,,,,,,,,,,,,,,,,,,,,,,,,,,,,,,,,,,,,,,,,,,,,,,,,,,,,,,,,,,,,,,,,,,,,,,,,,,,,,,,,,,,,,,,,,,,,,,,,,,,,,,,,,
1738755539.469540,1738755539.470185,62.000000,0.000000,4321.666504,4350.897461,4255.641113,4302.436035,4351.794922,4358.717773,4366.410156,4549.102539,4540.128418,4563.589844,4497.563965,5665.128418,4313.205078,4258.205078,0.000000,3.000000,74.000000,,,,0.000000,0.000000,0.000000,0.000000,0.000000,0.000000,0.000000,0.000000,0.000000,0.000000,0.000000,0.000000,0.000000,0.000000,0.000000,0.000000,,,,,,,,,,,,,,,,,,,,,,,,,,,,,,,,,,,,,,,,,,,,,,,,,,,,,,,,,,,,0.051880,0.036111,0.021181,0.013904,0.023461,0.014851,0.011883,0.021289,0.020279,0.015124,0.019946,0.018141,0.023831,0.026790,0.030419,0.047090,0.024584,0.017783,0.025689,0.029906,0.025527,0.029174,0.021177,0.012855,0.011292,0.043003,0.049279,0.026244,0.015619,0.036506,0.045410,0.028803,0.012927,0.038984,0.027604,0.015472,0.024284,0.025836,0.015087,0.025420,0.018272,0.021343,0.034332,0.030416,0.044039,0.012962,0.028865,0.020947,0.022327,0.017731,0.078793,0.018784,0.033093,0.017007,0.027104,0.024461,0.031162,0.027429,0.021311,0.037380,0.070144,0.043846,0.065597,0.035855,0.054902,0.023959,0.058877,0.042584,0.029098,0.029954
1738755539.477348,1738755539.478093,63.000000,0.000000,4321.794922,4350.128418,4253.589844,4301.153809,4353.333496,4362.179688,4367.820313,4547.179688,4541.538574,4560.512695,4497.179688,5660.000000,4310.256348,4259.743652,0.000000,3.000000,74.000000,,,,0.000000,0.000000,0.000000,0.000000,0.000000,0.000000,0.000000,0.000000,0.000000,0.000000,0.000000,0.000000,0.000000,0.000000,0.000000,0.000000,,,,,,,,,,,,,,,,,,,,,,,,,,,,,,,,,,,,,,,,,,,,,,,,,,,,,,,,,,,,,,,,,,,,,,,,,,,,,,,,,,,,,,,,,,,,,,,,,,,,,,,,,,,,,,,,,,,,,,,,,,,,,,,,,
1738755539.485156,1738755539.485901,64.000000,0.000000,4323.077148,4346.922852,4252.692383,4303.205078,4354.743652,4362.820313,4366.153809,4552.436035,4538.589844,4558.717773,4493.589844,5660.641113,4307.179688,4254.230957,0.000000,3.000000,74.000000,,,,0.000000,0.000000,0.000000,0.000000,0.000000,0.000000,0.000000,0.000000,0.000000,0.000000,0.000000,0.000000,0.000000,0.000000,0.000000,0.000000,,,,,,,,,,,,,,,,,16.000000,0.000000,0.785021,-0.615967,-0.060913,0.024841,0.063484,-0.978147,0.236357,4.287297,-15.109976,22.782562,,,,,,,,,,,,,,,,,,,,,,,,,,,,,,,,,,,,,,,,,,,,,,,,,,,,,,,,,,,,,,,,,,,,,,,,,,,,,,,,,,,,,,,,,,,,,,,,,,,,,
1738755539.492965,1738755539.493609,65.000000,0.000000,4321.025879,4346.794922,4254.487305,4302.692383,4354.743652,4362.563965,4362.307617,4552.307617,4539.102539,4563.205078,4495.641113,5661.666504,4317.692383,4254.615234,0.000000,3.000000,74.000000,,,,0.000000,0.000000,0.000000,0.000000,0.000000,0.000000,0.000000,0.000000,0.000000,0.000000,0.000000,0.000000,0.000000,0.000000,0.000000,0.000000,,,,,,,,,,,,,,,,,,,,,,,,,,,,,,,,,,,,,,,,,,,,,,,,,,,,,,,,,,,,,,,,,,,,,,,,,,,,,,,,,,,,,,,,,,,,,,,,,,,,,,,,,,,,,,,,,,,,,,,,,,,,,,,,,
1738755539.500773,1738755539.501418,66.000000,0.000000,4320.256348,4347.051270,4255.641113,4302.692383,4352.948730,4364.358887,4367.820313,4552.051270,4539.871582,4563.333496,4498.077148,5661.282227,4311.153809,4256.538574,0.000000,3.000000,74.000000,,,,0.000000,0.000000,0.000000,0.000000,0.000000,0.000000,0.000000,0.000000,0.000000,0.000000,0.000000,0.000000,0.000000,0.000000,0.000000,0.000000,,,,,,,,,,,,,,,,,,,,,,,,,,,,,,,,,,,,,,,,,,,,,,,,,,,,,,,,,,,,,,,,,,,,,,,,,,,,,,,,,,,,,,,,,,,,,,,,,,,,,,,,,,,,,,,,,,,,,,,,,,,,,,,,,
1738755539.508581,1738755539.509126,67.000000,0.000000,4320.512695,4346.666504,4252.307617,4301.922852,4350.384766,4361.025879,4368.589844,4551.025879,4539.615234,4560.769043,4496.410156,5660.897461,4307.820313,4257.563965,0.000000,3.000000,74.000000,,,,0.000000,0.000000,0.000000,0.000000,0.000000,0.000000,0.000000,0.000000,0.000000,0.000000,0.000000,0.000000,0.000000,0.000000,0.000000,0.000000,,,,,,,,,,,,,,,,,,,,,,,,,,,,,,,,,,,,,,,,,,,,,,,,,,,,,,,,,,,,,,,,,,,,,,,,,,,,,,,,,,,,,,,,,,,,,,,,,,,,,,,,,,,,,,,,,,,,,,,,,,,,,,,,,
1738755539.516389,1738755539.516934,68.000000,0.000000,4320.512695,4348.974121,4252.563965,4302.051270,4351.282227,4357.179688,4362.051270,4546.538574,4540.897461,4560.384766,4495.000000,5661.282227,4316.794922,4256.794922,0.000000,3.000000,74.000000,,,,0.000000,0.000000,0.000000,0.000000,0.000000,0.000000,0.000000,0.000000,0.000000,0.000000,0.000000,0.000000,0.000000,0.000000,0.000000,0.000000,,,,,,,,,,,,,,,,,17.000000,0.000000,0.785064,-0.615906,-0.060974,0.024841,0.056159,-0.968380,0.238799,4.291901,-15.065645,22.637638,,,,,,,,,,,,,,,,,,,,,,,,,,,,,,,,,,,,,,,,,,,,,,,,,,,,,,,,,,,,,,,,,,,,,,,,,,,,,,,,,,,,,,,,,,,,,,,,,,,,,
1738755539.524197,1738755539.524642,69.000000,0.000000,4324.102539,4351.025879,4257.051270,4304.487305,4355.000000,4360.769043,4363.077148,4548.589844,4537.563965,4558.077148,4497.692383,5663.205078,4308.846191,4253.461426,0.000000,3.000000,74.000000,,,,0.000000,0.000000,0.000000,0.000000,0.000000,0.000000,0.000000,0.000000,0.000000,0.000000,0.000000,0.000000,0.000000,0.000000,0.000000,0.000000,,,,,,,,,,,,,,,,,,,,,,,,,,,,,,,,,,,,,,,,,,,,,,,,,,,,,,,,,,,,,,,,,,,,,,,,,,,,,,,,,,,,,,,,,,,,,,,,,,,,,,,,,,,,,,,,,,,,,,,,,,,,,,,,,
1738755539.532005,1738755539.532450,70.000000,0.000000,4324.487305,4350.641113,4253.077148,4302.179688,4353.205078,4364.230957,4363.846191,4550.128418,4537.820313,4557.563965,4499.230957,5660.512695,4307.563965,4256.025879,0.000000,3.000000,74.000000,,,,0.000000,0.000000,0.000000,0.000000,0.000000,0.000000,0.000000,0.000000,0.000000,0.000000,0.000000,0.000000,0.000000,0.000000,0.000000,0.000000,,,,,,,,,,,,,,,,,,,,,,,,,,,,,,,,,,,,,,,,,,,,,,,,,,,,,,,,,,,,,,,,,,,,,,,,,,,,,,,,,,,,,,,,,,,,,,,,,,,,,,,,,,,,,,,,,,,,,,,,,,,,,,,,,
1738755539.539813,1738755539.540158,71.000000,0.000000,4321.153809,4347.436035,4249.358887,4302.179688,4349.230957,4362.307617,4365.769043,4550.128418,4541.666504,4559.615234,4495.384766,5664.871582,4311.025879,4256.538574,0.000000,3.000000,74.000000,,,,0.000000,0.000000,0.000000,0.000000,0.000000,0.000000,0.000000,0.000000,0.000000,0.000000,0.000000,0.000000,0.000000,0.000000,0.000000,0.000000,,,,,,,,,,,,,,,,,,,,,,,,,,,,,,,,,,,,,,,,,,,,,,,,,,,,,,,,,,,,,,,,,,,,,,,,,,,,,,,,,,,,,,,,,,,,,,,,,,,,,,,,,,,,,,,,,,,,,,,,,,,,,,,,,
1738755539.547621,1738755539.547966,72.000000,0.000000,4321.794922,4348.589844,4253.846191,4303.205078,4349.871582,4361.025879,4367.051270,4549.615234,4540.641113,4558.846191,4495.769043,5667.436035,4310.641113,4256.153809,0.000000,3.000000,74.000000,,,,0.000000,0.000000,0.000000,0.000000,0.000000,0.000000,0.000000,0.000000,0.000000,0.000000,0.000000,0.000000,0.000000,0.000000,0.000000,0.000000,,,,,,,,,,,,,,,,,18.000000,0.000000,0.785062,-0.615906,-0.060974,0.024902,0.066414,-0.987914,0.233915,4.312711,-15.042414,22.790543,,,,,,,,,,,,,,,,,,,,,,,,,,,,,,,,,,,,,,,,,,,,,,,,,,,,,,,,,,,,,,,,,,,,,,,,,,,,,,,,,,,,,,,,,,,,,,,,,,,,,
1738755539.555429,1738755539.555674,73.000000,0.000000,4325.000000,4352.307617,4254.615234,4301.025879,4352.179688,4362.948730,4364.487305,4546.666504,4537.307617,4556.794922,4498.589844,5662.179688,4313.589844,4259.615234,0.000000,3.000000,74.000000,,,,0.000000,0.000000,0.000000,0.000000,0.000000,0.000000,0.000000,0.000000,0.000000,0.000000,0.000000,0.000000,0.000000,0.000000,0.000000,0.000000,,,,,,,,,,,,,,,,,,,,,,,,,,,,,,,,,,,,,,,,,,,,,,,,,,,,,,,,,,,,,,,,,,,,,,,,,,,,,,,,,,,,,,,,,,,,,,,,,,,,,,,,,,,,,,,,,,,,,,,,,,,,,,,,,
1738755539.563237,1738755539.563482,74.000000,0.000000,4322.692383,4350.256348,4252.820313,4302.179688,4352.179688,4361.410156,4366.538574,4547.563965,4537.051270,4558.333496,4495.512695,5664.743652,4309.743652,4257.436035,0.000000,3.000000,74.000000,,,,0.000000,0.000000,0.000000,0.000000,0.000000,0.000000,0.000000,0.000000,0.000000,0.000000,0.000000,0.000000,0.000000,0.000000,0.000000,0.000000,,,,,,,,,,,,,,,,,,,,,,,,,,,,,,,,,,,,,,,,,,,,,,,,,,,,,,,,,,,,,,,,,,,,,,,,,,,,,,,,,,,,,,,,,,,,,,,,,,,,,,,,,,,,,,,,,,,,,,,,,,,,,,,,,
1738755539.571046,1738755539.571190,75.000000,0.000000,4318.717773,4349.615234,4253.974121,4304.615234,4351.153809,4358.846191,4366.794922,4548.846191,4539.102539,4561.153809,4494.871582,5662.692383,4310.256348,4256.922852,0.000000,3.000000,74.000000,,,,0.000000,0.000000,0.000000,0.000000,0.000000,0.000000,0.000000,0.000000,0.000000,0.000000,0.000000,0.000000,0.000000,0.000000,0.000000,0.000000,,,,,,,,,,,,,,,,,,,,,,,,,,,,,,,,,,,,,,,,,,,,,,,,,,,,,,,,,,,,,,,,,,,,,,,,,,,,,,,,,,,,,,,,,,,,,,,,,,,,,,,,,,,,,,,,,,,,,,,,,,,,,,,,,
1738755539.578854,1738755539.578998,76.000000,0.000000,4322.820313,4351.025879,4254.230957,4304.743652,4351.153809,4361.538574,4365.769043,4549.102539,4537.563965,4558.717773,4494.743652,5661.794922,4307.948730,4257.692383,0.000000,3.000000,74.000000,,,,0.000000,0.000000,0.000000,0.000000,0.000000,0.000000,0.000000,0.000000,0.000000,0.000000,0.000000,0.000000,0.000000,0.000000,0.000000,0.000000,,,,,,,,,,,,,,,,,19.000000,0.000000,0.785062,-0.615906,-0.060974,0.024902,0.063484,-0.974728,0.236357,4.331440,-15.121506,22.844820,,,,,,,,,,,,,,,,,,,,,,,,,,,,,,,,,,,,,,,,,,,,,,,,,,,,,,,,,,,,,,,,,,,,,,,,,,,,,,,,,,,,,,,,,,,,,,,,,,,,,
1738755539.586662,1738755539.586706,77.000000,0.000000,4325.897461,4351.153809,4251.282227,4302.436035,4353.077148,4363.717773,4366.922852,4549.358887,4538.205078,4558.077148,4495.000000,5664.230957,4307.051270,4255.384766,0.000000,3.000000,74.000000,,,,0.000000,0.000000,0.000000,0.000000,0.000000,0.000000,0.000000,0.000000,0.000000,0.000000,0.000000,0.000000,0.000000,0.000000,0.000000,0.000000,,,,,,,,,,,,,,,,,,,,,,,,,,,,,,,,,,,,,,,,,,,,,,,,,,,,,,,,,,,,,,,,,,,,,,,,,,,,,,,,,,,,,,,,,,,,,,,,,,,,,,,,,,,,,,,,,,,,,,,,,,,,,,,,,
1738755539.594470,1738755539.594514,78.000000,0.000000,4321.794922,4351.025879,4250.897461,4301.282227,4353.717773,4361.666504,4366.922852,4550.384766,4541.282227,4561.153809,4499.743652,5660.641113,4314.615234,4254.615234,0.000000,3.000000,74.000000,,,,0.000000,0.000000,0.000000,0.000000,0.000000,0.000000,0.000000,0.000000,0.000000,0.000000,0.000000,0.000000,0.000000,0.000000,0.000000,0.000000,,,,,,,,,,,,,,,,,,,,,,,,,,,,,,,,,,,,,,,,,,,,,,,,,,,,,,,,,,,,0.052846,0.036708,0.025719,0.015694,0.023315,0.015797,0.014540,0.022043,0.016910,0.015412,0.023617,0.021889,0.026050,0.029516,0.030265,0.046637,0.028326,0.017024,0.028516,0.029902,0.025854,0.027832,0.019530,0.012800,0.010096,0.033684,0.048374,0.019566,0.013741,0.037463,0.044005,0.023945,0.013031,0.039575,0.027532,0.015544,0.024321,0.025401,0.013392,0.023394,0.019921,0.018528,0.027355,0.026428,0.040351,0.015830,0.031359,0.024418,0.023824,0.017573,0.059202,0.014075,0.034431,0.018510,0.028515,0.023217,0.032701,0.033873,0.019869,0.039774,0.068727,0.042036,0.059380,0.035557,0.054245,0.028874,0.070765,0.049452,0.028660,0.027315
1738755539.602278,1738755539.602222,79.000000,0.000000,4321.153809,4349.487305,4253.974121,4303.846191,4353.589844,4361.666504,4367.820313,4552.436035,4540.000000,4560.384766,4496.922852,5663.974121,4307.436035,4251.922852,0.000000,3.000000,74.000000,,,,0.000000,0.000000,0.000000,0.000000,0.000000,0.000000,0.000000,0.000000,0.000000,0.000000,0.000000,0.000000,0.000000,0.000000,0.000000,0.000000,,,,,,,,,,,,,,,,,,,,,,,,,,,,,,,,,,,,,,,,,,,,,,,,,,,,,,,,,,,,,,,,,,,,,,,,,,,,,,,,,,,,,,,,,,,,,,,,,,,,,,,,,,,,,,,,,,,,,,,,,,,,,,,,,
1738755539.610086,1738755539.610131,80.000000,0.000000,4322.436035,4349.358887,4253.461426,4302.179688,4355.769043,4360.897461,4366.794922,4549.615234,4542.563965,4559.743652,4494.102539,5665.769043,4307.436035,4253.589844,0.000000,3.000000,74.000000,,,,0.000000,0.000000,0.000000,0.000000,0.000000,0.000000,0.000000,0.000000,0.000000,0.000000,0.000000,0.000000,0.000000,0.000000,0.000000,0.000000,,,,,,,,,,,,,,,,,20.000000,0.000000,0.785062,-0.615906,-0.060974,0.024902,0.065926,-0.968868,0.232939,4.331629,-15.026022,22.743671,,,,,,,,,,,,,,,,,,,,,,,,,,,,,,,,,,,,,,,,,,,,,,,,,,,,,,,,,,,,,,,,,,,,,,,,,,,,,,,,,,,,,,,,,,,,,,,,,,,,,
1738755539.617894,1738755539.617939,81.000000,0.000000,4321.666504,4348.461426,4252.436035,4301.282227,4355.128418,4358.333496,4366.410156,4548.077148,4542.051270,4562.179688,4497.820313,5661.666504,4314.487305,4254.102539,0.000000,3.000000,74.000000,,,,0.000000,0.000000,0.000000,0.000000,0.000000,0.000000,0.000000,0.000000,0.000000,0.000000,0.000000,0.000000,0.000000,0.000000,0.000000,0.000000,,,,,,,,,,,,,,,,,,,,,,,,,,,,,,,,,,,,,,,,,,,,,,,,,,,,,,,,,,,,,,,,,,,,,,,,,,,,,,,,,,,,,,,,,,,,,,,,,,,,,,,,,,,,,,,,,,,,,,,,,,,,,,,,,
1738755539.625702,1738755539.625847,82.000000,0.000000,4321.538574,4347.436035,4252.692383,4302.179688,4350.256348,4359.102539,4369.102539,4551.538574,4536.153809,4563.077148,4496.794922,5663.205078,4309.230957,4251.538574,0.000000,3.000000,74.000000,,,,0.000000,0.000000,0.000000,0.000000,0.000000,0.000000,0.000000,0.000000,0.000000,0.000000,0.000000,0.000000,0.000000,0.000000,0.000000,0.000000,,,,,,,,,,,,,,,,,,,,,,,,,,,,,,,,,,,,,,,,,,,,,,,,,,,,,,,,,,,,,,,,,,,,,,,,,,,,,,,,,,,,,,,,,,,,,,,,,,,,,,,,,,,,,,,,,,,,,,,,,,,,,,,,,
1738755539.633510,1738755539.633655,83.000000,0.000000,4319.487305,4350.000000,4253.333496,4299.230957,4348.974121,4361.538574,4369.102539,4550.384766,4537.563965,4560.897461,4494.230957,5664.615234,4310.384766,4256.922852,0.000000,3.000000,74.000000,,,,0.000000,0.000000,0.000000,0.000000,0.000000,0.000000,0.000000,0.000000,0.000000,0.000000,0.000000,0.000000,0.000000,0.000000,0.000000,0.000000,,,,,,,,,,,,,,,,,,,,,,,,,,,,,,,,,,,,,,,,,,,,,,,,,,,,,,,,,,,,,,,,,,,,,,,,,,,,,,,,,,,,,,,,,,,,,,,,,,,,,,,,,,,,,,,,,,,,,,,,,,,,,,,,,
1738755539.641318,1738755539.641563,84.000000,0.000000,4319.743652,4352.436035,4255.897461,4301.794922,4352.563965,4362.563965,4368.974121,4547.692383,4539.871582,4559.102539,4493.846191,5665.512695,4311.538574,4256.794922,0.000000,3.000000,74.000000,,,,0.000000,0.000000,0.000000,0.000000,0.000000,0.000000,0.000000,0.000000,0.000000,0.000000,0.000000,0.000000,0.000000,0.000000,0.000000,0.000000,,,,,,,,,,,,,,,,,21.000000,0.000000,0.785014,-0.615967,-0.060974,0.024902,0.060554,-0.969845,0.232450,4.381800,-15.073420,22.735971,,,,,,,,,,,,,,,,,,,,,,,,,,,,,,,,,,,,,,,,,,,,,,,,,,,,,,,,,,,,,,,,,,,,,,,,,,,,,,,,,,,,,,,,,,,,,,,,,,,,,
1738755539.649126,1738755539.649371,85.000000,0.000000,4323.717773,4351.025879,4255.897461,4303.974121,4353.461426,4362.563965,4366.922852,4548.717773,4540.384766,4559.615234,4496.282227,5663.846191,4312.307617,4255.769043,0.000000,3.000000,74.000000,,,,0.000000,0.000000,0.000000,0.000000,0.000000,0.000000,0.000000,0.000000,0.000000,0.000000,0.000000,0.000000,0.000000,0.000000,0.000000,0.000000,,,,,,,,,,,,,,,,,,,,,,,,,,,,,,,,,,,,,,,,,,,,,,,,,,,,,,,,,,,,,,,,,,,,,,,,,,,,,,,,,,,,,,,,,,,,,,,,,,,,,,,,,,,,,,,,,,,,,,,,,,,,,,,,,
1738755539.656935,1738755539.657280,86.000000,0.000000,4322.948730,4348.974121,4252.692383,4302.436035,4352.051270,4360.128418,4365.256348,4551.025879,4541.410156,4559.871582,4497.307617,5663.846191,4309.487305,4257.051270,0.000000,3.000000,74.000000,,,,0.000000,0.000000,0.000000,0.000000,0.000000,0.000000,0.000000,0.000000,0.000000,0.000000,0.000000,0.000000,0.000000,0.000000,0.000000,0.000000,,,,,,,,,,,,,,,,,,,,,,,,,,,,,,,,,,,,,,,,,,,,,,,,,,,,,,,,,,,,,,,,,,,,,,,,,,,,,,,,,,,,,,,,,,,,,,,,,,,,,,,,,,,,,,,,,,,,,,,,,,,,,,,,,
1738755539.664743,1738755539.665088,87.000000,0.000000,4320.641113,4350.128418,4251.794922,4305.256348,4352.820313,4358.589844,4364.743652,4551.666504,4537.820313,4559.615234,4495.641113,5668.461426,4304.871582,4255.512695,0.000000,3.000000,74.000000,,,,0.000000,0.000000,0.000000,0.000000,0.000000,0.000000,0.000000,0.000000,0.000000,0.000000,0.000000,0.000000,0.000000,0.000000,0.000000,0.000000,,,,,,,,,,,,,,,,,,,,,,,,,,,,,,,,,,,,,,,,,,,,,,,,,,,,,,,,,,,,,,,,,,,,,,,,,,,,,,,,,,,,,,,,,,,,,,,,,,,,,,,,,,,,,,,,,,,,,,,,,,,,,,,,,
1738755539.672551,1738755539.672996,88.000000,0.000000,4322.692383,4352.179688,4252.436035,4303.205078,4352.307617,4358.846191,4362.436035,4548.717773,4540.128418,4561.282227,4497.820313,5665.128418,4313.974121,4258.205078,0.000000,3.000000,74.000000,,,,0.000000,0.000000,0.000000,0.000000,0.000000,0.000000,0.000000,0.000000,0.000000,0.000000,0.000000,0.000000,0.000000,0.000000,0.000000,0.000000,,,,,,,,,,,,,,,,,22.000000,0.000000,0.785014,-0.615967,-0.060974,0.024902,0.068856,-0.982542,0.231962,4.443620,-15.016078,22.829041,,,,,,,,,,,,,,,,,,,,,,,,,,,,,,,,,,,,,,,,,,,,,,,,,,,,,,,,,,,,,,,,,,,,,,,,,,,,,,,,,,,,,,,,,,,,,,,,,,,,,
1738755539.680359,1738755539.680804,89.000000,0.000000,4325.256348,4349.487305,4254.102539,4298.333496,4352.436035,4358.589844,4363.205078,4551.282227,4544.743652,4559.743652,4498.461426,5664.358887,4311.282227,4255.769043,0.000000,3.000000,74.000000,,,,0.000000,0.000000,0.000000,0.000000,0.000000,0.000000,0.000000,0.000000,0.000000,0.000000,0.000000,0.000000,0.000000,0.000000,0.000000,0.000000,,,,,,,,,,,,,,,,,,,,,,,,,,,,,,,,,,,,,,,,,,,,,,,,,,,,,,,,,,,,,,,,,,,,,,,,,,,,,,,,,,,,,,,,,,,,,,,,,,,,,,,,,,,,,,,,,,,,,,,,,,,,,,,,,
1738755539.688167,1738755539.688512,90.000000,0.000000,4321.666504,4348.717773,4255.641113,4298.333496,4353.461426,4359.230957,4362.563965,4553.333496,4540.769043,4557.436035,4496.794922,5666.538574,4305.769043,4254.230957,0.000000,3.000000,74.000000,,,,0.000000,0.000000,0.000000,0.000000,0.000000,0.000000,0.000000,0.000000,0.000000,0.000000,0.000000,0.000000,0.000000,0.000000,0.000000,0.000000,,,,,,,,,,,,,,,,,,,,,,,,,,,,,,,,,,,,,,,,,,,,,,,,,,,,,,,,,,,,,,,,,,,,,,,,,,,,,,,,,,,,,,,,,,,,,,,,,,,,,,,,,,,,,,,,,,,,,,,,,,,,,,,,,
1738755539.695975,1738755539.696420,91.000000,0.000000,4321.794922,4351.922852,4255.897461,4302.948730,4352.820313,4361.666504,4363.589844,4548.846191,4538.333496,4559.230957,4496.153809,5663.461426,4309.743652,4256.538574,0.000000,3.000000,74.000000,,,,0.000000,0.000000,0.000000,0.000000,0.000000,0.000000,0.000000,0.000000,0.000000,0.000000,0.000000,0.000000,0.000000,0.000000,0.000000,0.000000,,,,,,,,,,,,,,,,,,,,,,,,,,,,,,,,,,,,,,,,,,,,,,,,,,,,,,,,,,,,,,,,,,,,,,,,,,,,,,,,,,,,,,,,,,,,,,,,,,,,,,,,,,,,,,,,,,,,,,,,,,,,,,,,,
1738755539.703783,1738755539.704228,92.000000,0.000000,4326.282227,4350.000000,4255.641113,4305.897461,4352.179688,4360.384766,4368.589844,4549.102539,4540.769043,4559.615234,4495.256348,5663.077148,4308.846191,4254.230957,0.000000,3.000000,74.000000,,,,0.000000,0.000000,0.000000,0.000000,0.000000,0.000000,0.000000,0.000000,0.000000,0.000000,0.000000,0.000000,0.000000,0.000000,0.000000,0.000000,,,,,,,,,,,,,,,,,23.000000,0.000000,0.785014,-0.615967,-0.060974,0.024902,0.056648,-0.973752,0.229520,4.449258,-15.131137,22.829470,,,,,,,,,,,,,,,,,,,,,,,,,,,,,,,,,,,,,,,,,,,,,,,,,,,,,,,,,,,,,,,,,,,,,,,,,,,,,,,,,,,,,,,,,,,,,,,,,,,,,
1738755539.711591,1738755539.712037,93.000000,0.000000,4322.179688,4347.179688,4253.717773,4300.897461,4351.538574,4358.077148,4364.743652,4551.025879,4542.307617,4559.871582,4496.922852,5661.410156,4316.153809,4254.871582,0.000000,3.000000,74.000000,,,,0.000000,0.000000,0.000000,0.000000,0.000000,0.000000,0.000000,0.000000,0.000000,0.000000,0.000000,0.000000,0.000000,0.000000,0.000000,0.000000,,,,,,,,,,,,,,,,,,,,,,,,,,,,,,,,,,,,,,,,,,,,,,,,,,,,,,,,,,,,,,,,,,,,,,,,,,,,,,,,,,,,,,,,,,,,,,,,,,,,,,,,,,,,,,,,,,,,,,,,,,,,,,,,,
1738755539.719399,1738755539.719745,94.000000,0.000000,4319.743652,4350.128418,4253.846191,4299.615234,4352.820313,4361.282227,4363.717773,4552.436035,4538.974121,4560.384766,4496.538574,5663.461426,4312.692383,4253.974121,0.000000,3.000000,74.000000,,,,0.000000,0.000000,0.000000,0.000000,0.000000,0.000000,0.000000,0.000000,0.000000,0.000000,0.000000,0.000000,0.000000,0.000000,0.000000,0.000000,1.000000,0.000000,0.000000,0.000000,0.000000,0.000000,0.000000,0.000000,0.000000,0.000000,0.000000,0.000000,0.000000,0.000000,0.000000,0.000000,,,,,,,,,,,,,,,,,,,,,,,,,,,,,,,,,,,,,,,,,,,,0.053271,0.036583,0.031691,0.018312,0.022530,0.017203,0.016701,0.021646,0.014505,0.016056,0.027259,0.025325,0.026899,0.031116,0.029303,0.045162,0.031358,0.017159,0.031418,0.029957,0.025741,0.025342,0.019181,0.012544,0.010088,0.023986,0.047140,0.014866,0.012700,0.037292,0.042776,0.019483,0.014821,0.040059,0.025950,0.017210,0.023084,0.023223,0.014070,0.021515,0.020126,0.017858,0.024159,0.024433,0.035578,0.019704,0.032735,0.026665,0.025482,0.017928,0.041657,0.010649,0.032224,0.020478,0.029376,0.022116,0.035077,0.039948,0.019967,0.040436,0.063597,0.041567,0.050961,0.036252,0.053752,0.032922,0.076862,0.053628,0.028028,0.025691
1738755539.727208,1738755539.727653,95.000000,0.000000,4324.487305,4352.179688,4255.256348,4302.563965,4353.717773,4362.051270,4365.512695,4551.538574,4537.307617,4558.846191,4493.589844,5666.794922,4305.000000,4254.358887,0.000000,3.000000,74.000000,,,,0.000000,0.000000,0.000000,0.000000,0.000000,0.000000,0.000000,0.000000,0.000000,0.000000,0.000000,0.000000,0.000000,0.000000,0.000000,0.000000,,,,,,,,,,,,,,,,,,,,,,,,,,,,,,,,,,,,,,,,,,,,,,,,,,,,,,,,,,,,,,,,,,,,,,,,,,,,,,,,,,,,,,,,,,,,,,,,,,,,,,,,,,,,,,,,,,,,,,,,,,,,,,,,,
1738755539.735016,1738755539.735461,96.000000,0.000000,4327.051270,4350.769043,4253.846191,4301.922852,4352.051270,4356.922852,4363.846191,4548.589844,4542.179688,4560.512695,4493.333496,5665.000000,4312.307617,4258.205078,0.000000,3.000000,74.000000,,,,0.000000,0.000000,0.000000,0.000000,0.000000,0.000000,0.000000,0.000000,0.000000,0.000000,0.000000,0.000000,0.000000,0.000000,0.000000,0.000000,,,,,,,,,,,,,,,,,24.000000,0.000000,0.785016,-0.615967,-0.060974,0.024841,0.063973,-0.972775,0.234404,4.270998,-15.084690,22.729856,,,,,,,,,,,,,,,,,,,,,,,,,,,,,,,,,,,,,,,,,,,,,,,,,,,,,,,,,,,,,,,,,,,,,,,,,,,,,,,,,,,,,,,,,,,,,,,,,,,,,
1738755539.742824,1738755539.743369,97.000000,0.000000,4326.282227,4350.000000,4253.205078,4302.948730,4351.153809,4357.948730,4368.717773,4552.307617,4544.230957,4561.666504,4494.358887,5666.282227,4310.000000,4254.487305,0.000000,3.000000,74.000000,,,,0.000000,0.000000,0.000000,0.000000,0.000000,0.000000,0.000000,0.000000,0.000000,0.000000,0.000000,0.000000,0.000000,0.000000,0.000000,0.000000,,,,,,,,,,,,,,,,,,,,,,,,,,,,,,,,,,,,,,,,,,,,,,,,,,,,,,,,,,,,,,,,,,,,,,,,,,,,,,,,,,,,,,,,,,,,,,,,,,,,,,,,,,,,,,,,,,,,,,,,,,,,,,,,,
1738755539.750632,1738755539.751177,98.000000,0.000000,4322.563965,4350.384766,4253.974121,4301.153809,4352.307617,4361.282227,4367.051270,4551.538574,4542.436035,4561.153809,4496.025879,5662.820313,4309.743652,4254.102539,0.000000,3.000000,74.000000,,,,0.000000,0.000000,0.000000,0.000000,0.000000,0.000000,0.000000,0.000000,0.000000,0.000000,0.000000,0.000000,0.000000,0.000000,0.000000,0.000000,,,,,,,,,,,,,,,,,,,,,,,,,,,,,,,,,,,,,,,,,,,,,,,,,,,,,,,,,,,,,,,,,,,,,,,,,,,,,,,,,,,,,,,,,,,,,,,,,,,,,,,,,,,,,,,,,,,,,,,,,,,,,,,,,
1738755539.758440,1738755539.759085,99.000000,0.000000,4321.538574,4347.948730,4255.384766,4303.333496,4352.051270,4359.487305,4363.846191,4548.205078,4540.128418,4562.179688,4495.769043,5661.794922,4311.025879,4256.282227,0.000000,3.000000,74.000000,,,,0.000000,0.000000,0.000000,0.000000,0.000000,0.000000,0.000000,0.000000,0.000000,0.000000,0.000000,0.000000,0.000000,0.000000,0.000000,0.000000,,,,,,,,,,,,,,,,,,,,,,,,,,,,,,,,,,,,,,,,,,,,,,,,,,,,,,,,,,,,,,,,,,,,,,,,,,,,,,,,,,,,,,,,,,,,,,,,,,,,,,,,,,,,,,,,,,,,,,,,,,,,,,,,,
1738755539.766248,1738755539.766894,100.000000,0.000000,4322.179688,4346.922852,4254.743652,4307.436035,4350.769043,4358.333496,4367.179688,4550.128418,4538.974121,4561.538574,4493.974121,5664.615234,4308.077148,4255.512695,0.000000,3.000000,74.000000,,,,0.000000,0.000000,0.000000,0.000000,0.000000,0.000000,0.000000,0.000000,0.000000,0.000000,0.000000,0.000000,0.000000,0.000000,0.000000,0.000000,,,,,,,,,,,,,,,,,25.000000,0.000000,0.785018,-0.615967,-0.060974,0.024780,0.055183,-0.978147,0.232939,4.343899,-15.192887,22.823538,,,,,,,,,,,,,,,,,,,,,,,,,,,,,,,,,,,,,,,,,,,,,,,,,,,,,,,,,,,,,,,,,,,,,,,,,,,,,,,,,,,,,,,,,,,,,,,,,,,,,
1738755539.774056,1738755539.774802,101.000000,0.000000,4321.538574,4349.743652,4253.717773,4301.410156,4352.436035,4360.384766,4366.282227,4549.102539,4539.102539,4559.487305,4494.358887,5660.641113,4312.948730,4258.846191,0.000000,3.000000,74.000000,,,,0.000000,0.000000,0.000000,0.000000,0.000000,0.000000,0.000000,0.000000,0.000000,0.000000,0.000000,0.000000,0.000000,0.000000,0.000000,0.000000,,,,,,,,,,,,,,,,,,,,,,,,,,,,,,,,,,,,,,,,,,,,,,,,,,,,,,,,,,,,,,,,,,,,,,,,,,,,,,,,,,,,,,,,,,,,,,,,,,,,,,,,,,,,,,,,,,,,,,,,,,,,,,,,,
1738755539.781864,1738755539.782610,102.000000,0.000000,4323.589844,4349.358887,4254.871582,4300.384766,4353.461426,4361.794922,4366.538574,4547.820313,4537.051270,4559.743652,4495.256348,5661.794922,4310.641113,4256.922852,0.000000,3.000000,74.000000,,,,0.000000,0.000000,0.000000,0.000000,0.000000,0.000000,0.000000,0.000000,0.000000,0.000000,0.000000,0.000000,0.000000,0.000000,0.000000,0.000000,,,,,,,,,,,,,,,,,,,,,,,,,,,,,,,,,,,,,,,,,,,,,,,,,,,,,,,,,,,,,,,,,,,,,,,,,,,,,,,,,,,,,,,,,,,,,,,,,,,,,,,,,,,,,,,,,,,,,,,,,,,,,,,,,
1738755539.789672,1738755539.790518,103.000000,0.000000,4324.743652,4347.820313,4254.487305,4304.743652,4351.666504,4360.641113,4366.410156,4547.563965,4537.563965,4561.025879,4497.563965,5662.051270,4310.128418,4253.846191,0.000000,3.000000,74.000000,,,,0.000000,0.000000,0.000000,0.000000,0.000000,0.000000,0.000000,0.000000,0.000000,0.000000,0.000000,0.000000,0.000000,0.000000,0.000000,0.000000,,,,,,,,,,,,,,,,,,,,,,,,,,,,,,,,,,,,,,,,,,,,,,,,,,,,,,,,,,,,,,,,,,,,,,,,,,,,,,,,,,,,,,,,,,,,,,,,,,,,,,,,,,,,,,,,,,,,,,,,,,,,,,,,,
1738755539.797480,1738755539.798326,104.000000,0.000000,4323.205078,4349.743652,4255.128418,4305.128418,4351.282227,4359.487305,4365.769043,4548.717773,4539.743652,4560.256348,4497.307617,5660.256348,4311.153809,4257.692383,0.000000,3.000000,74.000000,,,,0.000000,0.000000,0.000000,0.000000,0.000000,0.000000,0.000000,0.000000,0.000000,0.000000,0.000000,0.000000,0.000000,0.000000,0.000000,0.000000,,,,,,,,,,,,,,,,,26.000000,0.000000,0.784973,-0.616028,-0.060913,0.024841,0.074716,-0.980100,0.237822,4.426176,-15.090265,22.674517,,,,,,,,,,,,,,,,,,,,,,,,,,,,,,,,,,,,,,,,,,,,,,,,,,,,,,,,,,,,,,,,,,,,,,,,,,,,,,,,,,,,,,,,,,,,,,,,,,,,,
1738755539.805288,1738755539.806234,105.000000,0.000000,4322.820313,4348.205078,4255.769043,4305.128418,4352.307617,4359.230957,4367.307617,4549.487305,4538.846191,4559.871582,4494.615234,5663.974121,4306.282227,4257.948730,0.000000,3.000000,74.000000,,,,0.000000,0.000000,0.000000,0.000000,0.000000,0.000000,0.000000,0.000000,0.000000,0.000000,0.000000,0.000000,0.000000,0.000000,0.000000,0.000000,,,,,,,,,,,,,,,,,,,,,,,,,,,,,,,,,,,,,,,,,,,,,,,,,,,,,,,,,,,,,,,,,,,,,,,,,,,,,,,,,,,,,,,,,,,,,,,,,,,,,,,,,,,,,,,,,,,,,,,,,,,,,,,,,
1738755539.813097,1738755539.814043,106.000000,0.000000,4322.948730,4347.563965,4254.743652,4302.948730,4352.563965,4358.589844,4365.128418,4549.615234,4539.871582,4561.410156,4495.128418,5662.051270,4310.641113,4255.384766,0.000000,3.000000,74.000000,,,,0.000000,0.000000,0.000000,0.000000,0.000000,0.000000,0.000000,0.000000,0.000000,0.000000,0.000000,0.000000,0.000000,0.000000,0.000000,0.000000,,,,,,,,,,,,,,,,,,,,,,,,,,,,,,,,,,,,,,,,,,,,,,,,,,,,,,,,,,,,,,,,,,,,,,,,,,,,,,,,,,,,,,,,,,,,,,,,,,,,,,,,,,,,,,,,,,,,,,,,,,,,,,,,,
1738755539.820905,1738755539.821951,107.000000,0.000000,4322.948730,4349.871582,4255.256348,4303.333496,4352.820313,4358.589844,4366.153809,4551.922852,4540.000000,4559.743652,4494.615234,5660.897461,4310.641113,4252.563965,0.000000,3.000000,74.000000,,,,0.000000,0.000000,0.000000,0.000000,0.000000,0.000000,0.000000,0.000000,0.000000,0.000000,0.000000,0.000000,0.000000,0.000000,0.000000,0.000000,,,,,,,,,,,,,,,,,,,,,,,,,,,,,,,,,,,,,,,,,,,,,,,,,,,,,,,,,,,,,,,,,,,,,,,,,,,,,,,,,,,,,,,,,,,,,,,,,,,,,,,,,,,,,,,,,,,,,,,,,,,,,,,,,
1738755539.828713,1738755539.829759,108.000000,0.000000,4322.179688,4351.282227,4255.128418,4304.615234,4350.769043,4360.000000,4369.358887,4547.692383,4541.282227,4558.717773,4494.743652,5662.179688,4309.743652,4255.256348,0.000000,3.000000,74.000000,,,,0.000000,0.000000,0.000000,0.000000,0.000000,0.000000,0.000000,0.000000,0.000000,0.000000,0.000000,0.000000,0.000000,0.000000,0.000000,0.000000,,,,,,,,,,,,,,,,,27.000000,0.000000,0.784968,-0.616028,-0.060974,0.024841,0.063973,-0.982053,0.235380,4.600224,-15.114573,22.573732,,,,,,,,,,,,,,,,,,,,,,,,,,,,,,,,,,,,,,,,,,,,,,,,,,,,,,,,,,,,,,,,,,,,,,,,,,,,,,,,,,,,,,,,,,,,,,,,,,,,,
1738755539.836521,1738755539.837667,109.000000,0.000000,4322.820313,4350.512695,4254.230957,4303.846191,4349.102539,4361.282227,4367.179688,4544.487305,4541.282227,4561.153809,4496.282227,5661.666504,4309.615234,4256.025879,0.000000,3.000000,74.000000,,,,0.000000,0.000000,0.000000,0.000000,0.000000,0.000000,0.000000,0.000000,0.000000,0.000000,0.000000,0.000000,0.000000,0.000000,0.000000,0.000000,,,,,,,,,,,,,,,,,,,,,,,,,,,,,,,,,,,,,,,,,,,,,,,,,,,,,,,,,,,,,,,,,,,,,,,,,,,,,,,,,,,,,,,,,,,,,,,,,,,,,,,,,,,,,,,,,,,,,,,,,,,,,,,,,
1738755539.844329,1738755539.845475,110.000000,0.000000,4325.128418,4350.897461,4253.717773,4304.615234,4351.153809,4360.000000,4365.000000,4550.512695,4537.179688,4561.538574,4496.794922,5663.461426,4306.153809,4253.205078,0.000000,3.000000,74.000000,,,,0.000000,0.000000,0.000000,0.000000,0.000000,0.000000,0.000000,0.000000,0.000000,0.000000,0.000000,0.000000,0.000000,0.000000,0.000000,0.000000,,,,,,,,,,,,,,,,,,,,,,,,,,,,,,,,,,,,,,,,,,,,,,,,,,,,,,,,,,,,0.052857,0.035631,0.037166,0.021526,0.021430,0.018701,0.017892,0.020619,0.013083,0.016858,0.029519,0.027335,0.026278,0.031157,0.028150,0.042932,0.032734,0.017743,0.033754,0.029948,0.025319,0.021864,0.019432,0.012243,0.011679,0.015706,0.046320,0.012647,0.013552,0.035819,0.041314,0.015729,0.017082,0.040642,0.023396,0.019687,0.020493,0.020525,0.017045,0.020493,0.018799,0.018042,0.022838,0.023968,0.031062,0.024129,0.032500,0.027113,0.026406,0.018752,0.029245,0.009070,0.027672,0.022394,0.029368,0.021236,0.037016,0.043239,0.021741,0.039193,0.056162,0.042023,0.042011,0.037902,0.054821,0.035129,0.075264,0.054164,0.026911,0.025251
1738755539.852137,1738755539.853184,111.000000,0.000000,4322.692383,4355.769043,4254.230957,4302.948730,4351.538574,4359.230957,4365.641113,4551.538574,4538.974121,4560.897461,4497.179688,5662.692383,4314.102539,4258.461426,0.000000,3.000000,74.000000,,,,0.000000,0.000000,0.000000,0.000000,0.000000,0.000000,0.000000,0.000000,0.000000,0.000000,0.000000,0.000000,0.000000,0.000000,0.000000,0.000000,,,,,,,,,,,,,,,,,,,,,,,,,,,,,,,,,,,,,,,,,,,,,,,,,,,,,,,,,,,,,,,,,,,,,,,,,,,,,,,,,,,,,,,,,,,,,,,,,,,,,,,,,,,,,,,,,,,,,,,,,,,,,,,,,
1738755539.859945,1738755539.861092,112.000000,0.000000,4321.794922,4353.974121,4255.384766,4303.333496,4349.358887,4359.743652,4367.179688,4549.358887,4540.769043,4560.256348,4496.025879,5663.077148,4312.948730,4257.179688,0.000000,3.000000,74.000000,,,,0.000000,0.000000,0.000000,0.000000,0.000000,0.000000,0.000000,0.000000,0.000000,0.000000,0.000000,0.000000,0.000000,0.000000,0.000000,0.000000,,,,,,,,,,,,,,,,,28.000000,0.000000,0.784963,-0.616028,-0.061035,0.024841,0.064949,-0.969357,0.240264,4.506869,-15.086449,22.516359,,,,,,,,,,,,,,,,,,,,,,,,,,,,,,,,,,,,,,,,,,,,,,,,,,,,,,,,,,,,,,,,,,,,,,,,,,,,,,,,,,,,,,,,,,,,,,,,,,,,,
1738755539.867753,1738755539.868900,113.000000,0.000000,4322.307617,4349.487305,4255.641113,4304.230957,4350.000000,4357.563965,4366.410156,4550.384766,4539.358887,4559.871582,4494.102539,5662.820313,4308.333496,4253.846191,0.000000,3.000000,74.000000,,,,0.000000,0.000000,0.000000,0.000000,0.000000,0.000000,0.000000,0.000000,0.000000,0.000000,0.000000,0.000000,0.000000,0.000000,0.000000,0.000000,,,,,,,,,,,,,,,,,,,,,,,,,,,,,,,,,,,,,,,,,,,,,,,,,,,,,,,,,,,,,,,,,,,,,,,,,,,,,,,,,,,,,,,,,,,,,,,,,,,,,,,,,,,,,,,,,,,,,,,,,,,,,,,,,
1738755539.875561,1738755539.876708,114.000000,0.000000,4319.743652,4348.717773,4255.897461,4301.922852,4354.615234,4357.820313,4367.820313,4551.538574,4540.384766,4558.333496,4494.615234,5662.563965,4312.051270,4257.051270,0.000000,3.000000,74.000000,,,,0.000000,0.000000,0.000000,0.000000,0.000000,0.000000,0.000000,0.000000,0.000000,0.000000,0.000000,0.000000,0.000000,0.000000,0.000000,0.000000,,,,,,,,,,,,,,,,,,,,,,,,,,,,,,,,,,,,,,,,,,,,,,,,,,,,,,,,,,,,,,,,,,,,,,,,,,,,,,,,,,,,,,,,,,,,,,,,,,,,,,,,,,,,,,,,,,,,,,,,,,,,,,,,,
1738755539.883370,1738755539.884416,115.000000,0.000000,4320.897461,4347.692383,4258.205078,4301.282227,4356.538574,4362.436035,4369.743652,4553.461426,4542.307617,4558.717773,4495.641113,5665.000000,4309.102539,4257.563965,0.000000,3.000000,74.000000,,,,0.000000,0.000000,0.000000,0.000000,0.000000,0.000000,0.000000,0.000000,0.000000,0.000000,0.000000,0.000000,0.000000,0.000000,0.000000,0.000000,,,,,,,,,,,,,,,,,,,,,,,,,,,,,,,,,,,,,,,,,,,,,,,,,,,,,,,,,,,,,,,,,,,,,,,,,,,,,,,,,,,,,,,,,,,,,,,,,,,,,,,,,,,,,,,,,,,,,,,,,,,,,,,,,
1738755539.891178,1738755539.892224,116.000000,0.000000,4320.128418,4349.871582,4257.307617,4300.769043,4352.820313,4364.358887,4363.717773,4550.769043,4543.589844,4563.974121,4495.128418,5658.077148,4311.410156,4258.846191,0.000000,3.000000,74.000000,,,,0.000000,0.000000,0.000000,0.000000,0.000000,0.000000,0.000000,0.000000,0.000000,0.000000,0.000000,0.000000,0.000000,0.000000,0.000000,0.000000,,,,,,,,,,,,,,,,,29.000000,0.000000,0.784963,-0.616028,-0.061035,0.024841,0.062019,-0.977170,0.239287,4.622849,-15.127804,22.481390,,,,,,,,,,,,,,,,,,,,,,,,,,,,,,,,,,,,,,,,,,,,,,,,,,,,,,,,,,,,,,,,,,,,,,,,,,,,,,,,,,,,,,,,,,,,,,,,,,,,,
1738755539.898986,1738755539.899932,117.000000,0.000000,4319.743652,4350.128418,4254.102539,4303.974121,4350.641113,4361.025879,4364.487305,4546.794922,4541.153809,4564.102539,4493.717773,5656.922852,4310.256348,4256.794922,0.000000,3.000000,74.000000,,,,0.000000,0.000000,0.000000,0.000000,0.000000,0.000000,0.000000,0.000000,0.000000,0.000000,0.000000,0.000000,0.000000,0.000000,0.000000,0.000000,,,,,,,,,,,,,,,,,,,,,,,,,,,,,,,,,,,,,,,,,,,,,,,,,,,,,,,,,,,,,,,,,,,,,,,,,,,,,,,,,,,,,,,,,,,,,,,,,,,,,,,,,,,,,,,,,,,,,,,,,,,,,,,,,
1738755539.906794,1738755539.907740,118.000000,0.000000,4322.051270,4348.846191,4254.230957,4304.487305,4352.436035,4358.077148,4368.974121,4548.333496,4538.333496,4561.410156,4496.794922,5662.563965,4308.205078,4255.000000,0.000000,3.000000,74.000000,,,,0.000000,0.000000,0.000000,0.000000,0.000000,0.000000,0.000000,0.000000,0.000000,0.000000,0.000000,0.000000,0.000000,0.000000,0.000000,0.000000,,,,,,,,,,,,,,,,,,,,,,,,,,,,,,,,,,,,,,,,,,,,,,,,,,,,,,,,,,,,,,,,,,,,,,,,,,,,,,,,,,,,,,,,,,,,,,,,,,,,,,,,,,,,,,,,,,,,,,,,,,,,,,,,,
1738755539.914602,1738755539.915448,119.000000,0.000000,4320.897461,4350.769043,4253.461426,4301.282227,4353.974121,4360.512695,4364.615234,4552.179688,4538.589844,4562.820313,4499.487305,5659.743652,4314.102539,4258.205078,0.000000,3.000000,74.000000,,,,0.000000,0.000000,0.000000,0.000000,0.000000,0.000000,0.000000,0.000000,0.000000,0.000000,0.000000,0.000000,0.000000,0.000000,0.000000,0.000000,,,,,,,,,,,,,,,,,,,,,,,,,,,,,,,,,,,,,,,,,,,,,,,,,,,,,,,,,,,,,,,,,,,,,,,,,,,,,,,,,,,,,,,,,,,,,,,,,,,,,,,,,,,,,,,,,,,,,,,,,,,,,,,,,
1738755539.922410,1738755539.923256,120.000000,0.000000,4321.410156,4351.538574,4249.871582,4302.948730,4353.461426,4364.615234,4365.128418,4555.256348,4540.000000,4563.205078,4495.512695,5662.563965,4308.846191,4255.897461,0.000000,3.000000,74.000000,,,,0.000000,0.000000,0.000000,0.000000,0.000000,0.000000,0.000000,0.000000,0.000000,0.000000,0.000000,0.000000,0.000000,0.000000,0.000000,0.000000,,,,,,,,,,,,,,,,,30.000000,0.000000,0.784963,-0.616028,-0.061035,0.024841,0.062019,-0.971310,0.235869,4.593897,-15.131690,22.583250,,,,,,,,,,,,,,,,,,,,,,,,,,,,,,,,,,,,,,,,,,,,,,,,,,,,,,,,,,,,,,,,,,,,,,,,,,,,,,,,,,,,,,,,,,,,,,,,,,,,,
1738755539.930218,1738755539.930964,121.000000,0.000000,4323.077148,4350.256348,4250.384766,4300.769043,4351.666504,4361.410156,4367.179688,4549.230957,4540.897461,4562.563965,4497.436035,5663.846191,4312.051270,4255.512695,0.000000,3.000000,74.000000,,,,0.000000,0.000000,0.000000,0.000000,0.000000,0.000000,0.000000,0.000000,0.000000,0.000000,0.000000,0.000000,0.000000,0.000000,0.000000,0.000000,,,,,,,,,,,,,,,,,,,,,,,,,,,,,,,,,,,,,,,,,,,,,,,,,,,,,,,,,,,,,,,,,,,,,,,,,,,,,,,,,,,,,,,,,,,,,,,,,,,,,,,,,,,,,,,,,,,,,,,,,,,,,,,,,
1738755539.938026,1738755539.938772,122.000000,0.000000,4323.717773,4350.256348,4255.000000,4300.897461,4351.538574,4358.589844,4364.358887,4546.666504,4539.230957,4561.922852,4499.487305,5661.153809,4314.615234,4256.922852,0.000000,3.000000,74.000000,,,,0.000000,0.000000,0.000000,0.000000,0.000000,0.000000,0.000000,0.000000,0.000000,0.000000,0.000000,0.000000,0.000000,0.000000,0.000000,0.000000,,,,,,,,,,,,,,,,,,,,,,,,,,,,,,,,,,,,,,,,,,,,,,,,,,,,,,,,,,,,,,,,,,,,,,,,,,,,,,,,,,,,,,,,,,,,,,,,,,,,,,,,,,,,,,,,,,,,,,,,,,,,,,,,,
1738755539.945834,1738755539.946480,123.000000,0.000000,4324.487305,4351.410156,4255.256348,4304.230957,4352.307617,4360.897461,4361.410156,4552.051270,4536.410156,4560.769043,4494.487305,5664.358887,4306.922852,4255.256348,0.000000,3.000000,74.000000,,,,0.000000,0.000000,0.000000,0.000000,0.000000,0.000000,0.000000,0.000000,0.000000,0.000000,0.000000,0.000000,0.000000,0.000000,0.000000,0.000000,,,,,,,,,,,,,,,,,,,,,,,,,,,,,,,,,,,,,,,,,,,,,,,,,,,,,,,,,,,,,,,,,,,,,,,,,,,,,,,,,,,,,,,,,,,,,,,,,,,,,,,,,,,,,,,,,,,,,,,,,,,,,,,,,
1738755539.953642,1738755539.954288,124.000000,0.000000,4324.230957,4352.563965,4253.589844,4302.179688,4349.871582,4360.000000,4361.410156,4549.871582,4537.563965,4561.153809,4494.230957,5662.692383,4311.666504,4257.051270,0.000000,3.000000,74.000000,,,,0.000000,0.000000,0.000000,0.000000,0.000000,0.000000,0.000000,0.000000,0.000000,0.000000,0.000000,0.000000,0.000000,0.000000,0.000000,0.000000,,,,,,,,,,,,,,,,,31.000000,0.000000,0.784963,-0.616028,-0.061035,0.024841,0.057136,-0.969845,0.232450,4.467841,-15.151855,22.608259,,,,,,,,,,,,,,,,,,,,,,,,,,,,,,,,,,,,,,,,,,,,,,,,,,,,,,,,,,,,,,,,,,,,,,,,,,,,,,,,,,,,,,,,,,,,,,,,,,,,,
1738755539.961450,1738755539.961996,125.000000,0.000000,4323.974121,4351.794922,4257.307617,4302.179688,4349.487305,4357.563965,4366.282227,4550.128418,4538.846191,4561.410156,4495.897461,5663.205078,4309.102539,4254.358887,0.000000,3.000000,74.000000,,,,0.000000,0.000000,0.000000,0.000000,0.000000,0.000000,0.000000,0.000000,0.000000,0.000000,0.000000,0.000000,0.000000,0.000000,0.000000,0.000000,,,,,,,,,,,,,,,,,,,,,,,,,,,,,,,,,,,,,,,,,,,,,,,,,,,,,,,,,,,,,,,,,,,,,,,,,,,,,,,,,,,,,,,,,,,,,,,,,,,,,,,,,,,,,,,,,,,,,,,,,,,,,,,,,
1738755539.969259,1738755539.969904,126.000000,0.000000,4323.461426,4351.153809,4257.820313,4302.563965,4352.436035,4358.589844,4365.897461,4553.077148,4540.256348,4559.743652,4497.436035,5664.102539,4307.692383,4252.820313,0.000000,3.000000,74.000000,,,,0.000000,0.000000,0.000000,0.000000,0.000000,0.000000,0.000000,0.000000,0.000000,0.000000,0.000000,0.000000,0.000000,0.000000,0.000000,0.000000,,,,,,,,,,,,,,,,,,,,,,,,,,,,,,,,,,,,,,,,,,,,,,,,,,,,,,,,,,,,0.050800,0.033577,0.040356,0.024689,0.020651,0.019763,0.017994,0.019566,0.012290,0.017596,0.029578,0.027192,0.024393,0.029710,0.027375,0.040196,0.031908,0.018694,0.034979,0.029791,0.024529,0.018036,0.019347,0.012286,0.014694,0.010119,0.045450,0.012498,0.016818,0.033224,0.040133,0.013124,0.019024,0.041061,0.020714,0.022516,0.017113,0.018465,0.021349,0.020649,0.016637,0.017963,0.021859,0.023987,0.027910,0.028768,0.030525,0.025732,0.025947,0.019944,0.022276,0.008910,0.022767,0.023584,0.028550,0.020299,0.037729,0.042544,0.024469,0.036450,0.048073,0.042476,0.034049,0.039770,0.058177,0.035311,0.067724,0.051050,0.025132,0.025603
1738755539.977067,1738755539.977713,127.000000,0.000000,4322.563965,4350.512695,4254.102539,4303.205078,4353.077148,4361.410156,4363.974121,4551.538574,4540.128418,4559.743652,4497.948730,5662.307617,4312.179688,4257.179688,74.000000,3.000000,74.000000,,,,0.000000,0.000000,0.000000,0.000000,0.000000,0.000000,0.000000,0.000000,0.000000,0.000000,0.000000,0.000000,0.000000,0.000000,0.000000,0.000000,,,,,,,,,,,,,,,,,,,,,,,,,,,,,,,,,,,,,,,,,,,,,,,,,,,,,,,,,,,,,,,,,,,,,,,,,,,,,,,,,,,,,,,,,,,,,,,,,,,,,,,,,,,,,,,,,,,,,,,,,,,,,,,,,
1738755539.984875,1738755539.985621,0.000000,0.000000,4322.051270,4349.102539,4251.794922,4304.102539,4352.307617,4360.897461,4366.794922,4550.000000,4537.051270,4561.538574,4496.025879,5663.974121,4309.102539,4255.769043,0.000000,3.000000,74.000000,,,,0.000000,0.000000,0.000000,0.000000,0.000000,0.000000,0.000000,0.000000,0.000000,0.000000,0.000000,0.000000,0.000000,0.000000,0.000000,0.000000,,,,,,,,,,,,,,,,,0.000000,0.000000,0.785011,-0.615967,-0.061035,0.024841,0.068856,-0.968868,0.234404,4.454390,-15.186668,22.614100,,,,,,,,,,,,,,,,,,,,,,,,,,,,,,,,,,,,,,,,,,,,,,,,,,,,,,,,,,,,,,,,,,,,,,,,,,,,,,,,,,,,,,,,,,,,,,,,,,,,,
1738755539.992683,1738755539.993429,1.000000,0.000000,4321.794922,4349.871582,4250.512695,4302.307617,4351.410156,4359.102539,4366.410156,4548.717773,4539.102539,4560.769043,4498.974121,5662.436035,4312.179688,4256.666504,0.000000,3.000000,74.000000,,,,0.000000,0.000000,0.000000,0.000000,0.000000,0.000000,0.000000,0.000000,0.000000,0.000000,0.000000,0.000000,0.000000,0.000000,0.000000,0.000000,,,,,,,,,,,,,,,,,,,,,,,,,,,,,,,,,,,,,,,,,,,,,,,,,,,,,,,,,,,,,,,,,,,,,,,,,,,,,,,,,,,,,,,,,,,,,,,,,,,,,,,,,,,,,,,,,,,,,,,,,,,,,,,,,
1738755540.000491,1738755540.001337,2.000000,0.000000,4323.461426,4350.512695,4252.307617,4303.461426,4352.820313,4361.410156,4366.666504,4551.538574,4538.974121,4559.871582,4499.102539,5663.846191,4310.384766,4258.589844,0.000000,3.000000,74.000000,,,,0.000000,0.000000,0.000000,0.000000,0.000000,0.000000,0.000000,0.000000,0.000000,0.000000,0.000000,0.000000,0.000000,0.000000,0.000000,0.000000,,,,,,,,,,,,,,,,,,,,,,,,,,,,,,,,,,,,,,,,,,,,,,,,,,,,,,,,,,,,,,,,,,,,,,,,,,,,,,,,,,,,,,,,,,,,,,,,,,,,,,,,,,,,,,,,,,,,,,,,,,,,,,,,,
1738755540.008299,1738755540.009145,3.000000,0.000000,4323.461426,4350.256348,4255.000000,4303.461426,4352.948730,4362.948730,4365.512695,4553.974121,4537.692383,4560.769043,4495.256348,5667.436035,4310.512695,4258.974121,0.000000,3.000000,74.000000,,,,0.000000,0.000000,0.000000,0.000000,0.000000,0.000000,0.000000,0.000000,0.000000,0.000000,0.000000,0.000000,0.000000,0.000000,0.000000,0.000000,,,,,,,,,,,,,,,,,,,,,,,,,,,,,,,,,,,,,,,,,,,,,,,,,,,,,,,,,,,,,,,,,,,,,,,,,,,,,,,,,,,,,,,,,,,,,,,,,,,,,,,,,,,,,,,,,,,,,,,,,,,,,,,,,
1738755540.016107,1738755540.017053,4.000000,0.000000,4322.820313,4351.410156,4255.128418,4301.410156,4351.410156,4362.179688,4365.897461,4552.307617,4540.512695,4560.256348,4494.615234,5665.512695,4310.128418,4255.641113,0.000000,3.000000,74.000000,,,,0.000000,0.000000,0.000000,0.000000,0.000000,0.000000,0.000000,0.000000,0.000000,0.000000,0.000000,0.000000,0.000000,0.000000,0.000000,0.000000,,,,,,,,,,,,,,,,,1.000000,0.000000,0.785064,-0.615906,-0.060974,0.024841,0.068856,-0.977170,0.236845,4.508951,-15.251335,22.686024,,,,,,,,,,,,,,,,,,,,,,,,,,,,,,,,,,,,,,,,,,,,,,,,,,,,,,,,,,,,,,,,,,,,,,,,,,,,,,,,,,,,,,,,,,,,,,,,,,,,,
1738755540.023915,1738755540.024862,5.000000,0.000000,4324.102539,4352.563965,4253.461426,4303.333496,4351.666504,4361.922852,4368.589844,4550.000000,4539.358887,4560.512695,4495.384766,5663.461426,4304.487305,4252.563965,0.000000,3.000000,74.000000,,,,0.000000,0.000000,0.000000,0.000000,0.000000,0.000000,0.000000,0.000000,0.000000,0.000000,0.000000,0.000000,0.000000,0.000000,0.000000,0.000000,,,,,,,,,,,,,,,,,,,,,,,,,,,,,,,,,,,,,,,,,,,,,,,,,,,,,,,,,,,,,,,,,,,,,,,,,,,,,,,,,,,,,,,,,,,,,,,,,,,,,,,,,,,,,,,,,,,,,,,,,,,,,,,,,
1738755540.031723,1738755540.032670,6.000000,0.000000,4324.615234,4352.307617,4253.461426,4302.692383,4353.333496,4360.641113,4365.512695,4548.589844,4538.461426,4561.410156,4496.538574,5662.307617,4312.692383,4258.717773,0.000000,3.000000,74.000000,,,,0.000000,0.000000,0.000000,0.000000,0.000000,0.000000,0.000000,0.000000,0.000000,0.000000,0.000000,0.000000,0.000000,0.000000,0.000000,0.000000,,,,,,,,,,,,,,,,,,,,,,,,,,,,,,,,,,,,,,,,,,,,,,,,,,,,,,,,,,,,,,,,,,,,,,,,,,,,,,,,,,,,,,,,,,,,,,,,,,,,,,,,,,,,,,,,,,,,,,,,,,,,,,,,,
1738755540.039532,1738755540.040478,7.000000,0.000000,4323.974121,4350.769043,4256.922852,4302.307617,4352.692383,4358.589844,4368.205078,4553.333496,4538.974121,4559.230957,4497.692383,5667.563965,4312.692383,4258.717773,0.000000,3.000000,74.000000,,,,0.000000,0.000000,0.000000,0.000000,0.000000,0.000000,0.000000,0.000000,0.000000,0.000000,0.000000,0.000000,0.000000,0.000000,0.000000,0.000000,,,,,,,,,,,,,,,,,,,,,,,,,,,,,,,,,,,,,,,,,,,,,,,,,,,,,,,,,,,,,,,,,,,,,,,,,,,,,,,,,,,,,,,,,,,,,,,,,,,,,,,,,,,,,,,,,,,,,,,,,,,,,,,,,
1738755540.047340,1738755540.048186,8.000000,0.000000,4322.307617,4351.025879,4256.794922,4303.205078,4351.922852,4357.948730,4371.666504,4556.153809,4537.179688,4559.743652,4497.692383,5669.102539,4309.102539,4257.820313,0.000000,3.000000,74.000000,,,,0.000000,0.000000,0.000000,0.000000,0.000000,0.000000,0.000000,0.000000,0.000000,0.000000,0.000000,0.000000,0.000000,0.000000,0.000000,0.000000,,,,,,,,,,,,,,,,,2.000000,0.000000,0.785064,-0.615906,-0.060974,0.024841,0.062508,-0.977170,0.232939,4.624722,-15.142868,22.850754,,,,,,,,,,,,,,,,,,,,,,,,,,,,,,,,,,,,,,,,,,,,,,,,,,,,,,,,,,,,,,,,,,,,,,,,,,,,,,,,,,,,,,,,,,,,,,,,,,,,,
1738755540.055148,1738755540.055995,9.000000,0.000000,4320.512695,4350.897461,4252.948730,4301.666504,4352.436035,4358.461426,4365.384766,4550.769043,4539.743652,4563.077148,4496.666504,5661.153809,4313.333496,4260.256348,0.000000,3.000000,74.000000,,,,0.000000,0.000000,0.000000,0.000000,0.000000,0.000000,0.000000,0.000000,0.000000,0.000000,0.000000,0.000000,0.000000,0.000000,0.000000,0.000000,,,,,,,,,,,,,,,,,,,,,,,,,,,,,,,,,,,,,,,,,,,,,,,,,,,,,,,,,,,,,,,,,,,,,,,,,,,,,,,,,,,,,,,,,,,,,,,,,,,,,,,,,,,,,,,,,,,,,,,,,,,,,,,,,
1738755540.062956,1738755540.063703,10.000000,0.000000,4321.153809,4348.461426,4252.948730,4304.743652,4351.922852,4360.128418,4364.358887,4550.512695,4541.666504,4561.025879,4496.410156,5660.384766,4308.974121,4257.948730,0.000000,3.000000,74.000000,,,,0.000000,0.000000,0.000000,0.000000,0.000000,0.000000,0.000000,0.000000,0.000000,0.000000,0.000000,0.000000,0.000000,0.000000,0.000000,0.000000,,,,,,,,,,,,,,,,,,,,,,,,,,,,,,,,,,,,,,,,,,,,,,,,,,,,,,,,,,,,,,,,,,,,,,,,,,,,,,,,,,,,,,,,,,,,,,,,,,,,,,,,,,,,,,,,,,,,,,,,,,,,,,,,,
1738755540.070764,1738755540.071511,11.000000,0.000000,4322.563965,4348.333496,4254.743652,4304.230957,4353.077148,4361.666504,4367.820313,4552.820313,4539.615234,4561.025879,4497.051270,5661.922852,4313.333496,4261.282227,0.000000,3.000000,74.000000,,,,0.000000,0.000000,0.000000,0.000000,0.000000,0.000000,0.000000,0.000000,0.000000,0.000000,0.000000,0.000000,0.000000,0.000000,0.000000,0.000000,,,,,,,,,,,,,,,,,,,,,,,,,,,,,,,,,,,,,,,,,,,,,,,,,,,,,,,,,,,,,,,,,,,,,,,,,,,,,,,,,,,,,,,,,,,,,,,,,,,,,,,,,,,,,,,,,,,,,,,,,,,,,,,,,
1738755540.078572,1738755540.079219,12.000000,0.000000,4324.487305,4349.615234,4253.717773,4300.128418,4354.743652,4363.077148,4369.615234,4552.307617,4537.948730,4562.948730,4494.615234,5662.179688,4313.589844,4258.461426,0.000000,3.000000,74.000000,,,,0.000000,0.000000,0.000000,0.000000,0.000000,0.000000,0.000000,0.000000,0.000000,0.000000,0.000000,0.000000,0.000000,0.000000,0.000000,0.000000,,,,,,,,,,,,,,,,,3.000000,0.000000,0.785018,-0.615967,-0.060974,0.024780,0.068856,-0.973752,0.228544,4.512250,-15.278582,22.782345,,,,,,,,,,,,,,,,,,,,,,,,,,,,,,,,,,,,,,,,,,,,,,,,,,,,,,,,,,,,,,,,,,,,,,,,,,,,,,,,,,,,,,,,,,,,,,,,,,,,,
1738755540.086380,1738755540.087028,13.000000,0.000000,4322.692383,4349.358887,4251.153809,4302.692383,4353.974121,4363.333496,4366.666504,4551.538574,4541.410156,4558.461426,4495.384766,5662.436035,4307.307617,4253.846191,0.000000,3.000000,74.000000,,,,0.000000,0.000000,0.000000,0.000000,0.000000,0.000000,0.000000,0.000000,0.000000,0.000000,0.000000,0.000000,0.000000,0.000000,0.000000,0.000000,,,,,,,,,,,,,,,,,,,,,,,,,,,,,,,,,,,,,,,,,,,,,,,,,,,,,,,,,,,,,,,,,,,,,,,,,,,,,,,,,,,,,,,,,,,,,,,,,,,,,,,,,,,,,,,,,,,,,,,,,,,,,,,,,
1738755540.094188,1738755540.094736,14.000000,0.000000,4319.871582,4349.358887,4252.307617,4304.230957,4351.410156,4360.769043,4363.846191,4551.025879,4543.333496,4556.538574,4499.102539,5663.589844,4312.436035,4257.307617,0.000000,3.000000,74.000000,,,,0.000000,0.000000,0.000000,0.000000,0.000000,0.000000,0.000000,0.000000,0.000000,0.000000,0.000000,0.000000,0.000000,0.000000,0.000000,0.000000,,,,,,,,,,,,,,,,,,,,,,,,,,,,,,,,,,,,,,,,,,,,,,,,,,,,,,,,,,,,0.046686,0.030226,0.040340,0.027085,0.020781,0.020319,0.017485,0.019038,0.011876,0.018109,0.027340,0.024891,0.021818,0.027259,0.027083,0.037053,0.029015,0.019869,0.034941,0.029630,0.023376,0.014897,0.018440,0.012970,0.018436,0.007115,0.043374,0.013533,0.022095,0.030062,0.040233,0.012198,0.020379,0.040776,0.018683,0.025166,0.013783,0.017775,0.025699,0.021906,0.014948,0.017054,0.021802,0.023535,0.026578,0.033423,0.027090,0.022979,0.023998,0.021285,0.018774,0.009470,0.019319,0.023491,0.027193,0.019575,0.037116,0.038910,0.026876,0.032947,0.040538,0.041927,0.027692,0.040509,0.063430,0.033654,0.058391,0.045185,0.022808,0.026039
1738755540.101996,1738755540.102544,15.000000,0.000000,4324.615234,4349.230957,4257.692383,4302.179688,4350.769043,4359.743652,4369.230957,4551.922852,4538.974121,4558.974121,4497.436035,5669.102539,4310.256348,4256.538574,0.000000,3.000000,74.000000,,,,0.000000,0.000000,0.000000,0.000000,0.000000,0.000000,0.000000,0.000000,0.000000,0.000000,0.000000,0.000000,0.000000,0.000000,0.000000,0.000000,,,,,,,,,,,,,,,,,,,,,,,,,,,,,,,,,,,,,,,,,,,,,,,,,,,,,,,,,,,,,,,,,,,,,,,,,,,,,,,,,,,,,,,,,,,,,,,,,,,,,,,,,,,,,,,,,,,,,,,,,,,,,,,,,
1738755540.109805,1738755540.110252,16.000000,0.000000,4325.769043,4349.230957,4256.794922,4299.871582,4351.922852,4361.282227,4366.794922,4547.563965,4540.384766,4561.282227,4496.025879,5663.846191,4309.615234,4257.051270,0.000000,3.000000,74.000000,,,,0.000000,0.000000,0.000000,0.000000,0.000000,0.000000,0.000000,0.000000,0.000000,0.000000,0.000000,0.000000,0.000000,0.000000,0.000000,0.000000,,,,,,,,,,,,,,,,,4.000000,0.000000,0.785025,-0.615967,-0.060913,0.024719,0.053229,-0.977170,0.219265,4.594358,-15.234056,22.787445,,,,,,,,,,,,,,,,,,,,,,,,,,,,,,,,,,,,,,,,,,,,,,,,,,,,,,,,,,,,,,,,,,,,,,,,,,,,,,,,,,,,,,,,,,,,,,,,,,,,,
1738755540.117612,1738755540.118060,17.000000,0.000000,4321.282227,4350.000000,4254.487305,4300.128418,4351.282227,4362.179688,4363.077148,4546.666504,4541.922852,4562.307617,4498.077148,5662.436035,4309.487305,4256.282227,0.000000,3.000000,74.000000,,,,0.000000,0.000000,0.000000,0.000000,0.000000,0.000000,0.000000,0.000000,0.000000,0.000000,0.000000,0.000000,0.000000,0.000000,0.000000,0.000000,,,,,,,,,,,,,,,,,,,,,,,,,,,,,,,,,,,,,,,,,,,,,,,,,,,,,,,,,,,,,,,,,,,,,,,,,,,,,,,,,,,,,,,,,,,,,,,,,,,,,,,,,,,,,,,,,,,,,,,,,,,,,,,,,
1738755540.125421,1738755540.125768,18.000000,0.000000,4320.769043,4348.974121,4256.282227,4298.589844,4349.102539,4361.153809,4367.307617,4550.769043,4538.589844,4561.538574,4498.205078,5669.230957,4305.256348,4252.563965,0.000000,3.000000,74.000000,,,,0.000000,0.000000,0.000000,0.000000,0.000000,0.000000,0.000000,0.000000,0.000000,0.000000,0.000000,0.000000,0.000000,0.000000,0.000000,0.000000,,,,,,,,,,,,,,,,,,,,,,,,,,,,,,,,,,,,,,,,,,,,,,,,,,,,,,,,,,,,,,,,,,,,,,,,,,,,,,,,,,,,,,,,,,,,,,,,,,,,,,,,,,,,,,,,,,,,,,,,,,,,,,,,,
1738755540.133229,1738755540.133576,19.000000,0.000000,4321.794922,4348.974121,4256.410156,4296.410156,4349.102539,4360.512695,4366.538574,4548.974121,4539.615234,4560.769043,4496.922852,5664.743652,4311.153809,4256.922852,0.000000,3.000000,74.000000,,,,0.000000,0.000000,0.000000,0.000000,0.000000,0.000000,0.000000,0.000000,0.000000,0.000000,0.000000,0.000000,0.000000,0.000000,0.000000,0.000000,,,,,,,,,,,,,,,,,,,,,,,,,,,,,,,,,,,,,,,,,,,,,,,,,,,,,,,,,,,,,,,,,,,,,,,,,,,,,,,,,,,,,,,,,,,,,,,,,,,,,,,,,,,,,,,,,,,,,,,,,,,,,,,,,
1738755540.141037,1738755540.141284,20.000000,0.000000,4323.717773,4350.641113,4255.512695,4303.077148,4351.794922,4362.179688,4366.794922,4550.512695,4538.846191,4560.384766,4493.333496,5662.563965,4308.461426,4257.820313,0.000000,3.000000,74.000000,,,,0.000000,0.000000,0.000000,0.000000,0.000000,0.000000,0.000000,0.000000,0.000000,0.000000,0.000000,0.000000,0.000000,0.000000,0.000000,0.000000,,,,,,,,,,,,,,,,,5.000000,0.000000,0.785116,-0.615845,-0.060974,0.024719,0.062019,-0.970822,0.235380,4.651589,-15.127317,22.725367,,,,,,,,,,,,,,,,,,,,,,,,,,,,,,,,,,,,,,,,,,,,,,,,,,,,,,,,,,,,,,,,,,,,,,,,,,,,,,,,,,,,,,,,,,,,,,,,,,,,,
1738755540.148845,1738755540.149092,21.000000,0.000000,4323.333496,4351.922852,4255.128418,4304.871582,4352.436035,4363.974121,4366.666504,4552.051270,4537.948730,4560.000000,4494.743652,5662.692383,4306.922852,4256.153809,0.000000,3.000000,74.000000,,,,0.000000,0.000000,0.000000,0.000000,0.000000,0.000000,0.000000,0.000000,0.000000,0.000000,0.000000,0.000000,0.000000,0.000000,0.000000,0.000000,,,,,,,,,,,,,,,,,,,,,,,,,,,,,,,,,,,,,,,,,,,,,,,,,,,,,,,,,,,,,,,,,,,,,,,,,,,,,,,,,,,,,,,,,,,,,,,,,,,,,,,,,,,,,,,,,,,,,,,,,,,,,,,,,
1738755540.156653,1738755540.156800,22.000000,0.000000,4321.666504,4350.769043,4255.769043,4301.922852,4351.922852,4364.230957,4364.358887,4550.256348,4539.487305,4559.102539,4497.820313,5660.384766,4312.179688,4256.922852,0.000000,3.000000,74.000000,,,,0.000000,0.000000,0.000000,0.000000,0.000000,0.000000,0.000000,0.000000,0.000000,0.000000,0.000000,0.000000,0.000000,0.000000,0.000000,0.000000,,,,,,,,,,,,,,,,,,,,,,,,,,,,,,,,,,,,,,,,,,,,,,,,,,,,,,,,,,,,,,,,,,,,,,,,,,,,,,,,,,,,,,,,,,,,,,,,,,,,,,,,,,,,,,,,,,,,,,,,,,,,,,,,,
1738755540.164461,1738755540.164608,23.000000,0.000000,4321.025879,4348.205078,4255.897461,4304.358887,4352.436035,4362.820313,4365.641113,4550.769043,4539.102539,4561.153809,4495.512695,5663.077148,4309.358887,4254.358887,0.000000,3.000000,74.000000,,,,0.000000,0.000000,0.000000,0.000000,0.000000,0.000000,0.000000,0.000000,0.000000,0.000000,0.000000,0.000000,0.000000,0.000000,0.000000,0.000000,,,,,,,,,,,,,,,,,,,,,,,,,,,,,,,,,,,,,,,,,,,,,,,,,,,,,,,,,,,,,,,,,,,,,,,,,,,,,,,,,,,,,,,,,,,,,,,,,,,,,,,,,,,,,,,,,,,,,,,,,,,,,,,,,
1738755540.172269,1738755540.172316,24.000000,0.000000,4321.666504,4350.769043,4256.153809,4303.974121,4352.948730,4361.666504,4365.641113,4551.025879,4541.282227,4564.487305,4494.487305,5662.307617,4311.153809,4256.666504,0.000000,3.000000,74.000000,,,,0.000000,0.000000,0.000000,0.000000,0.000000,0.000000,0.000000,0.000000,0.000000,0.000000,0.000000,0.000000,0.000000,0.000000,0.000000,0.000000,,,,,,,,,,,,,,,,,6.000000,0.000000,0.785117,-0.615845,-0.060974,0.024658,0.052741,-0.979123,0.233915,4.669764,-15.131252,22.586163,,,,,,,,,,,,,,,,,,,,,,,,,,,,,,,,,,,,,,,,,,,,,,,,,,,,,,,,,,,,,,,,,,,,,,,,,,,,,,,,,,,,,,,,,,,,,,,,,,,,,
1738755540.180077,1738755540.180224,25.000000,0.000000,4324.358887,4352.692383,4257.692383,4304.358887,4352.051270,4360.512695,4365.641113,4551.025879,4544.871582,4560.384766,4496.666504,5661.282227,4310.128418,4256.794922,0.000000,3.000000,74.000000,,,,0.000000,0.000000,0.000000,0.000000,0.000000,0.000000,0.000000,0.000000,0.000000,0.000000,0.000000,0.000000,0.000000,0.000000,0.000000,0.000000,,,,,,,,,,,,,,,,,,,,,,,,,,,,,,,,,,,,,,,,,,,,,,,,,,,,,,,,,,,,,,,,,,,,,,,,,,,,,,,,,,,,,,,,,,,,,,,,,,,,,,,,,,,,,,,,,,,,,,,,,,,,,,,,,
1738755540.187885,1738755540.188032,26.000000,0.000000,4322.307617,4350.641113,4256.922852,4304.230957,4350.256348,4358.974121,4363.717773,4550.641113,4543.974121,4556.282227,4499.871582,5661.282227,4310.000000,4253.461426,0.000000,3.000000,74.000000,,,,0.000000,0.000000,0.000000,0.000000,0.000000,0.000000,0.000000,0.000000,0.000000,0.000000,0.000000,0.000000,0.000000,0.000000,0.000000,0.000000,,,,,,,,,,,,,,,,,,,,,,,,,,,,,,,,,,,,,,,,,,,,,,,,,,,,,,,,,,,,,,,,,,,,,,,,,,,,,,,,,,,,,,,,,,,,,,,,,,,,,,,,,,,,,,,,,,,,,,,,,,,,,,,,,
1738755540.195694,1738755540.195940,27.000000,0.000000,4319.871582,4348.333496,4254.743652,4301.025879,4350.897461,4359.487305,4364.102539,4549.615234,4541.538574,4559.358887,4499.871582,5661.538574,4312.179688,4254.358887,0.000000,3.000000,74.000000,,,,0.000000,0.000000,0.000000,0.000000,0.000000,0.000000,0.000000,0.000000,0.000000,0.000000,0.000000,0.000000,0.000000,0.000000,0.000000,0.000000,,,,,,,,,,,,,,,,,,,,,,,,,,,,,,,,,,,,,,,,,,,,,,,,,,,,,,,,,,,,,,,,,,,,,,,,,,,,,,,,,,,,,,,,,,,,,,,,,,,,,,,,,,,,,,,,,,,,,,,,,,,,,,,,,
1738755540.203502,1738755540.203749,28.000000,0.000000,4323.205078,4346.538574,4256.025879,4302.948730,4352.820313,4361.538574,4368.205078,4548.205078,4541.410156,4559.871582,4495.769043,5664.358887,4305.128418,4254.102539,0.000000,3.000000,74.000000,,,,0.000000,0.000000,0.000000,0.000000,0.000000,0.000000,0.000000,0.000000,0.000000,0.000000,0.000000,0.000000,0.000000,0.000000,0.000000,0.000000,,,,,,,,,,,,,,,,,7.000000,0.000000,0.785163,-0.615784,-0.060974,0.024719,0.067879,-0.976193,0.228055,4.502788,-15.218127,22.594213,,,,,,,,,,,,,,,,,,,,,,,,,,,,,,,,,,,,,,,,,,,,,,,,,,,,,,,,,,,,,,,,,,,,,,,,,,,,,,,,,,,,,,,,,,,,,,,,,,,,,
1738755540.211310,1738755540.211657,29.000000,0.000000,4324.487305,4347.307617,4257.051270,4302.820313,4353.461426,4362.179688,4365.641113,4547.307617,4540.512695,4558.589844,4494.615234,5660.384766,4307.307617,4256.666504,0.000000,3.000000,74.000000,,,,0.000000,0.000000,0.000000,0.000000,0.000000,0.000000,0.000000,0.000000,0.000000,0.000000,0.000000,0.000000,0.000000,0.000000,0.000000,0.000000,,,,,,,,,,,,,,,,,,,,,,,,,,,,,,,,,,,,,,,,,,,,,,,,,,,,,,,,,,,,,,,,,,,,,,,,,,,,,,,,,,,,,,,,,,,,,,,,,,,,,,,,,,,,,,,,,,,,,,,,,,,,,,,,,
1738755540.219118,1738755540.219465,30.000000,0.000000,4323.077148,4347.051270,4253.846191,4301.025879,4353.589844,4363.077148,4363.974121,4551.153809,4536.410156,4558.461426,4496.922852,5662.563965,4309.230957,4256.922852,0.000000,3.000000,74.000000,,,,0.000000,0.000000,0.000000,0.000000,0.000000,0.000000,0.000000,0.000000,0.000000,0.000000,0.000000,0.000000,0.000000,0.000000,0.000000,0.000000,1.000000,0.000000,0.000000,0.000000,0.000000,0.000000,0.000000,0.000000,0.000000,0.000000,0.000000,0.000000,0.000000,0.000000,0.000000,0.000000,,,,,,,,,,,,,,,,,,,,,,,,,,,,,,,,,,,,,,,,,,,,0.041506,0.026006,0.037334,0.028196,0.021957,0.020862,0.017716,0.019246,0.011879,0.018341,0.023571,0.021488,0.020332,0.024419,0.026914,0.033458,0.024739,0.020846,0.033868,0.029604,0.022090,0.013480,0.016934,0.014252,0.021999,0.005793,0.039408,0.014783,0.028250,0.027135,0.042632,0.012745,0.021137,0.039403,0.017794,0.027231,0.011120,0.018441,0.029240,0.024063,0.014927,0.015241,0.023886,0.022192,0.026749,0.037885,0.022941,0.019689,0.021063,0.022391,0.016632,0.010081,0.018513,0.022010,0.025645,0.018999,0.035818,0.034506,0.027790,0.029487,0.033947,0.039601,0.023159,0.039058,0.068963,0.030786,0.051602,0.038269,0.020324,0.025976
1738755540.226926,1738755540.227373,31.000000,0.000000,4322.820313,4350.641113,4252.820313,4302.563965,4352.563965,4363.333496,4365.512695,4550.641113,4538.846191,4560.384766,4498.974121,5667.179688,4307.051270,4255.769043,0.000000,3.000000,74.000000,,,,0.000000,0.000000,0.000000,0.000000,0.000000,0.000000,0.000000,0.000000,0.000000,0.000000,0.000000,0.000000,0.000000,0.000000,0.000000,0.000000,,,,,,,,,,,,,,,,,,,,,,,,,,,,,,,,,,,,,,,,,,,,,,,,,,,,,,,,,,,,,,,,,,,,,,,,,,,,,,,,,,,,,,,,,,,,,,,,,,,,,,,,,,,,,,,,,,,,,,,,,,,,,,,,,
1738755540.234734,1738755540.235181,32.000000,0.000000,4323.461426,4354.743652,4255.897461,4303.461426,4352.307617,4360.769043,4363.589844,4546.794922,4542.820313,4562.692383,4496.410156,5661.794922,4306.666504,4256.153809,0.000000,3.000000,74.000000,,,,0.000000,0.000000,0.000000,0.000000,0.000000,0.000000,0.000000,0.000000,0.000000,0.000000,0.000000,0.000000,0.000000,0.000000,0.000000,0.000000,,,,,,,,,,,,,,,,,8.000000,0.000000,0.785163,-0.615784,-0.060974,0.024719,0.057136,-0.977170,0.222683,4.569175,-15.246315,22.684792,,,,,,,,,,,,,,,,,,,,,,,,,,,,,,,,,,,,,,,,,,,,,,,,,,,,,,,,,,,,,,,,,,,,,,,,,,,,,,,,,,,,,,,,,,,,,,,,,,,,,
1738755540.242542,1738755540.243089,33.000000,0.000000,4322.820313,4349.871582,4256.794922,4303.717773,4353.461426,4359.615234,4363.846191,4552.436035,4537.692383,4560.512695,4494.102539,5664.230957,4304.230957,4256.282227,0.000000,3.000000,74.000000,,,,0.000000,0.000000,0.000000,0.000000,0.000000,0.000000,0.000000,0.000000,0.000000,0.000000,0.000000,0.000000,0.000000,0.000000,0.000000,0.000000,,,,,,,,,,,,,,,,,,,,,,,,,,,,,,,,,,,,,,,,,,,,,,,,,,,,,,,,,,,,,,,,,,,,,,,,,,,,,,,,,,,,,,,,,,,,,,,,,,,,,,,,,,,,,,,,,,,,,,,,,,,,,,,,,
1738755540.250350,1738755540.250897,34.000000,0.000000,4319.615234,4350.384766,4255.384766,4301.922852,4352.563965,4360.512695,4364.871582,4553.333496,4538.205078,4558.461426,4497.051270,5666.922852,4314.230957,4258.846191,0.000000,3.000000,74.000000,,,,0.000000,0.000000,0.000000,0.000000,0.000000,0.000000,0.000000,0.000000,0.000000,0.000000,0.000000,0.000000,0.000000,0.000000,0.000000,0.000000,,,,,,,,,,,,,,,,,,,,,,,,,,,,,,,,,,,,,,,,,,,,,,,,,,,,,,,,,,,,,,,,,,,,,,,,,,,,,,,,,,,,,,,,,,,,,,,,,,,,,,,,,,,,,,,,,,,,,,,,,,,,,,,,,
1738755540.258158,1738755540.258606,35.000000,0.000000,4319.230957,4353.717773,4256.410156,4302.307617,4351.794922,4359.871582,4366.794922,4547.307617,4540.769043,4560.128418,4497.948730,5663.974121,4312.436035,4255.512695,0.000000,3.000000,74.000000,,,,0.000000,0.000000,0.000000,0.000000,0.000000,0.000000,0.000000,0.000000,0.000000,0.000000,0.000000,0.000000,0.000000,0.000000,0.000000,0.000000,,,,,,,,,,,,,,,,,,,,,,,,,,,,,,,,,,,,,,,,,,,,,,,,,,,,,,,,,,,,,,,,,,,,,,,,,,,,,,,,,,,,,,,,,,,,,,,,,,,,,,,,,,,,,,,,,,,,,,,,,,,,,,,,,
1738755540.265967,1738755540.266414,36.000000,0.000000,4322.307617,4350.769043,4255.897461,4302.820313,4352.179688,4359.743652,4365.256348,4548.974121,4536.282227,4560.769043,4496.025879,5662.307617,4303.974121,4252.179688,0.000000,3.000000,74.000000,,,,0.000000,0.000000,0.000000,0.000000,0.000000,0.000000,0.000000,0.000000,0.000000,0.000000,0.000000,0.000000,0.000000,0.000000,0.000000,0.000000,,,,,,,,,,,,,,,,,9.000000,0.000000,0.785120,-0.615845,-0.060913,0.024719,0.059578,-0.970333,0.234404,4.712258,-15.055017,22.799646,,,,,,,,,,,,,,,,,,,,,,,,,,,,,,,,,,,,,,,,,,,,,,,,,,,,,,,,,,,,,,,,,,,,,,,,,,,,,,,,,,,,,,,,,,,,,,,,,,,,,
1738755540.273775,1738755540.274122,37.000000,0.000000,4323.717773,4350.000000,4251.410156,4301.794922,4351.538574,4360.000000,4361.025879,4551.282227,4536.794922,4559.487305,4496.025879,5661.153809,4313.077148,4255.256348,0.000000,3.000000,74.000000,,,,0.000000,0.000000,0.000000,0.000000,0.000000,0.000000,0.000000,0.000000,0.000000,0.000000,0.000000,0.000000,0.000000,0.000000,0.000000,0.000000,,,,,,,,,,,,,,,,,,,,,,,,,,,,,,,,,,,,,,,,,,,,,,,,,,,,,,,,,,,,,,,,,,,,,,,,,,,,,,,,,,,,,,,,,,,,,,,,,,,,,,,,,,,,,,,,,,,,,,,,,,,,,,,,,
1738755540.281583,1738755540.281930,38.000000,0.000000,4323.974121,4350.769043,4252.820313,4305.000000,4352.436035,4359.871582,4365.512695,4551.410156,4538.846191,4559.230957,4494.615234,5663.461426,4312.051270,4256.666504,0.000000,3.000000,74.000000,,,,0.000000,0.000000,0.000000,0.000000,0.000000,0.000000,0.000000,0.000000,0.000000,0.000000,0.000000,0.000000,0.000000,0.000000,0.000000,0.000000,,,,,,,,,,,,,,,,,,,,,,,,,,,,,,,,,,,,,,,,,,,,,,,,,,,,,,,,,,,,,,,,,,,,,,,,,,,,,,,,,,,,,,,,,,,,,,,,,,,,,,,,,,,,,,,,,,,,,,,,,,,,,,,,,
1738755540.289391,1738755540.289639,39.000000,0.000000,4321.666504,4350.512695,4256.666504,4303.846191,4352.179688,4359.230957,4367.563965,4550.641113,4539.615234,4561.794922,4493.974121,5662.051270,4310.000000,4258.205078,0.000000,3.000000,74.000000,,,,0.000000,0.000000,0.000000,0.000000,0.000000,0.000000,0.000000,0.000000,0.000000,0.000000,0.000000,0.000000,0.000000,0.000000,0.000000,0.000000,,,,,,,,,,,,,,,,,,,,,,,,,,,,,,,,,,,,,,,,,,,,,,,,,,,,,,,,,,,,,,,,,,,,,,,,,,,,,,,,,,,,,,,,,,,,,,,,,,,,,,,,,,,,,,,,,,,,,,,,,,,,,,,,,
1738755540.297199,1738755540.297447,40.000000,0.000000,4321.666504,4351.282227,4256.410156,4302.307617,4349.615234,4360.000000,4365.769043,4550.512695,4542.307617,4562.051270,4494.358887,5663.333496,4312.051270,4256.538574,0.000000,3.000000,74.000000,,,,0.000000,0.000000,0.000000,0.000000,0.000000,0.000000,0.000000,0.000000,0.000000,0.000000,0.000000,0.000000,0.000000,0.000000,0.000000,0.000000,,,,,,,,,,,,,,,,,10.000000,0.000000,0.785112,-0.615845,-0.060974,0.024841,0.053229,-0.967403,0.238310,4.657699,-15.166182,22.853016,,,,,,,,,,,,,,,,,,,,,,,,,,,,,,,,,,,,,,,,,,,,,,,,,,,,,,,,,,,,,,,,,,,,,,,,,,,,,,,,,,,,,,,,,,,,,,,,,,,,,
1738755540.305007,1738755540.305155,41.000000,0.000000,4322.948730,4351.538574,4255.128418,4304.102539,4349.743652,4361.538574,4367.307617,4550.641113,4540.512695,4560.128418,4496.282227,5668.461426,4308.077148,4255.384766,0.000000,3.000000,74.000000,,,,0.000000,0.000000,0.000000,0.000000,0.000000,0.000000,0.000000,0.000000,0.000000,0.000000,0.000000,0.000000,0.000000,0.000000,0.000000,0.000000,,,,,,,,,,,,,,,,,,,,,,,,,,,,,,,,,,,,,,,,,,,,,,,,,,,,,,,,,,,,,,,,,,,,,,,,,,,,,,,,,,,,,,,,,,,,,,,,,,,,,,,,,,,,,,,,,,,,,,,,,,,,,,,,,
1738755540.312815,1738755540.313063,42.000000,0.000000,4320.256348,4350.769043,4253.717773,4300.641113,4350.769043,4359.743652,4366.666504,4548.205078,4538.717773,4558.333496,4498.717773,5662.563965,4311.025879,4260.000000,0.000000,3.000000,74.000000,,,,0.000000,0.000000,0.000000,0.000000,0.000000,0.000000,0.000000,0.000000,0.000000,0.000000,0.000000,0.000000,0.000000,0.000000,0.000000,0.000000,,,,,,,,,,,,,,,,,,,,,,,,,,,,,,,,,,,,,,,,,,,,,,,,,,,,,,,,,,,,,,,,,,,,,,,,,,,,,,,,,,,,,,,,,,,,,,,,,,,,,,,,,,,,,,,,,,,,,,,,,,,,,,,,,
1738755540.320623,1738755540.320871,43.000000,0.000000,4323.205078,4350.769043,4254.743652,4301.666504,4351.794922,4361.666504,4367.820313,4551.153809,4540.512695,4556.922852,4494.102539,5660.769043,4307.563965,4253.846191,0.000000,3.000000,74.000000,,,,0.000000,0.000000,0.000000,0.000000,0.000000,0.000000,0.000000,0.000000,0.000000,0.000000,0.000000,0.000000,0.000000,0.000000,0.000000,0.000000,,,,,,,,,,,,,,,,,,,,,,,,,,,,,,,,,,,,,,,,,,,,,,,,,,,,,,,,,,,,,,,,,,,,,,,,,,,,,,,,,,,,,,,,,,,,,,,,,,,,,,,,,,,,,,,,,,,,,,,,,,,,,,,,,
1738755540.328431,1738755540.328779,44.000000,0.000000,4325.897461,4351.153809,4256.922852,4302.692383,4352.051270,4363.974121,4367.692383,4552.051270,4542.436035,4560.128418,4494.743652,5664.487305,4306.922852,4251.153809,0.000000,3.000000,74.000000,,,,0.000000,0.000000,0.000000,0.000000,0.000000,0.000000,0.000000,0.000000,0.000000,0.000000,0.000000,0.000000,0.000000,0.000000,0.000000,0.000000,,,,,,,,,,,,,,,,,11.000000,0.000000,0.785163,-0.615784,-0.060974,0.024719,0.065438,-0.961543,0.227078,4.675262,-15.249563,22.867714,,,,,,,,,,,,,,,,,,,,,,,,,,,,,,,,,,,,,,,,,,,,,,,,,,,,,,,,,,,,,,,,,,,,,,,,,,,,,,,,,,,,,,,,,,,,,,,,,,,,,
1738755540.336239,1738755540.336587,45.000000,0.000000,4321.538574,4350.641113,4257.051270,4300.128418,4350.769043,4360.128418,4366.666504,4550.384766,4540.128418,4561.666504,4500.512695,5663.333496,4310.512695,4258.333496,0.000000,3.000000,74.000000,,,,0.000000,0.000000,0.000000,0.000000,0.000000,0.000000,0.000000,0.000000,0.000000,0.000000,0.000000,0.000000,0.000000,0.000000,0.000000,0.000000,,,,,,,,,,,,,,,,,,,,,,,,,,,,,,,,,,,,,,,,,,,,,,,,,,,,,,,,,,,,,,,,,,,,,,,,,,,,,,,,,,,,,,,,,,,,,,,,,,,,,,,,,,,,,,,,,,,,,,,,,,,,,,,,,
1738755540.344047,1738755540.344495,46.000000,0.000000,4320.128418,4351.153809,4255.000000,4301.282227,4350.384766,4358.461426,4367.948730,4552.436035,4538.589844,4558.717773,4496.282227,5664.230957,4304.743652,4256.410156,0.000000,3.000000,74.000000,,,,0.000000,0.000000,0.000000,0.000000,0.000000,0.000000,0.000000,0.000000,0.000000,0.000000,0.000000,0.000000,0.000000,0.000000,0.000000,0.000000,,,,,,,,,,,,,,,,,,,,,,,,,,,,,,,,,,,,,,,,,,,,,,,,,,,,,,,,,,,,0.036939,0.021652,0.032469,0.027829,0.023745,0.021681,0.019833,0.019794,0.012419,0.018293,0.019461,0.018706,0.022428,0.021827,0.026418,0.029830,0.020392,0.021447,0.032178,0.029602,0.020898,0.014272,0.015309,0.015802,0.024563,0.005063,0.034195,0.016203,0.033754,0.025019,0.047983,0.014020,0.021447,0.036882,0.018204,0.028448,0.009461,0.019674,0.031679,0.026787,0.016911,0.013279,0.028338,0.020086,0.027644,0.041797,0.018918,0.016823,0.018109,0.022823,0.014813,0.010425,0.020607,0.019648,0.024257,0.018378,0.034629,0.031463,0.026923,0.026731,0.028428,0.035278,0.020549,0.035310,0.072532,0.027801,0.049322,0.031680,0.017963,0.025332
1738755540.351856,1738755540.352304,47.000000,0.000000,4321.538574,4353.846191,4254.615234,4302.820313,4350.128418,4361.282227,4366.538574,4551.282227,4541.922852,4558.461426,4495.512695,5663.077148,4311.794922,4257.179688,0.000000,3.000000,74.000000,,,,0.000000,0.000000,0.000000,0.000000,0.000000,0.000000,0.000000,0.000000,0.000000,0.000000,0.000000,0.000000,0.000000,0.000000,0.000000,0.000000,,,,,,,,,,,,,,,,,,,,,,,,,,,,,,,,,,,,,,,,,,,,,,,,,,,,,,,,,,,,,,,,,,,,,,,,,,,,,,,,,,,,,,,,,,,,,,,,,,,,,,,,,,,,,,,,,,,,,,,,,,,,,,,,,
1738755540.359664,1738755540.360112,48.000000,0.000000,4322.563965,4352.820313,4257.820313,4303.717773,4349.487305,4361.410156,4368.333496,4550.641113,4540.512695,4559.743652,4498.589844,5663.717773,4314.871582,4260.384766,0.000000,3.000000,74.000000,,,,0.000000,0.000000,0.000000,0.000000,0.000000,0.000000,0.000000,0.000000,0.000000,0.000000,0.000000,0.000000,0.000000,0.000000,0.000000,0.000000,,,,,,,,,,,,,,,,,12.000000,0.000000,0.785163,-0.615784,-0.060974,0.024719,0.056159,-0.971798,0.224148,4.607736,-15.007940,22.847609,,,,,,,,,,,,,,,,,,,,,,,,,,,,,,,,,,,,,,,,,,,,,,,,,,,,,,,,,,,,,,,,,,,,,,,,,,,,,,,,,,,,,,,,,,,,,,,,,,,,,
1738755540.367472,1738755540.367820,49.000000,0.000000,4323.461426,4350.769043,4257.820313,4300.897461,4351.153809,4359.615234,4369.102539,4550.769043,4537.820313,4559.615234,4497.692383,5664.358887,4310.256348,4258.974121,0.000000,3.000000,74.000000,,,,0.000000,0.000000,0.000000,0.000000,0.000000,0.000000,0.000000,0.000000,0.000000,0.000000,0.000000,0.000000,0.000000,0.000000,0.000000,0.000000,,,,,,,,,,,,,,,,,,,,,,,,,,,,,,,,,,,,,,,,,,,,,,,,,,,,,,,,,,,,,,,,,,,,,,,,,,,,,,,,,,,,,,,,,,,,,,,,,,,,,,,,,,,,,,,,,,,,,,,,,,,,,,,,,
1738755540.375280,1738755540.375728,50.000000,0.000000,4324.743652,4350.256348,4253.974121,4302.436035,4353.333496,4361.025879,4364.358887,4550.256348,4538.589844,4558.846191,4498.461426,5663.974121,4312.563965,4257.692383,0.000000,3.000000,74.000000,,,,0.000000,0.000000,0.000000,0.000000,0.000000,0.000000,0.000000,0.000000,0.000000,0.000000,0.000000,0.000000,0.000000,0.000000,0.000000,0.000000,,,,,,,,,,,,,,,,,,,,,,,,,,,,,,,,,,,,,,,,,,,,,,,,,,,,,,,,,,,,,,,,,,,,,,,,,,,,,,,,,,,,,,,,,,,,,,,,,,,,,,,,,,,,,,,,,,,,,,,,,,,,,,,,,
1738755540.383088,1738755540.383536,51.000000,0.000000,4325.000000,4348.205078,4254.487305,4307.436035,4353.333496,4361.025879,4364.102539,4552.820313,4538.846191,4558.333496,4497.179688,5668.974121,4312.051270,4254.871582,0.000000,3.000000,74.000000,,,,0.000000,0.000000,0.000000,0.000000,0.000000,0.000000,0.000000,0.000000,0.000000,0.000000,0.000000,0.000000,0.000000,0.000000,0.000000,0.000000,,,,,,,,,,,,,,,,,,,,,,,,,,,,,,,,,,,,,,,,,,,,,,,,,,,,,,,,,,,,,,,,,,,,,,,,,,,,,,,,,,,,,,,,,,,,,,,,,,,,,,,,,,,,,,,,,,,,,,,,,,,,,,,,,
1738755540.390896,1738755540.391444,52.000000,0.000000,4323.717773,4348.846191,4256.282227,4304.358887,4352.820313,4359.743652,4365.384766,4552.948730,4540.769043,4560.128418,4495.512695,5666.025879,4316.666504,4256.666504,0.000000,3.000000,74.000000,,,,0.000000,0.000000,0.000000,0.000000,0.000000,0.000000,0.000000,0.000000,0.000000,0.000000,0.000000,0.000000,0.000000,0.000000,0.000000,0.000000,,,,,,,,,,,,,,,,,13.000000,0.000000,0.785069,-0.615906,-0.060913,0.024841,0.058113,-0.969357,0.233915,4.563629,-14.957147,22.846182,,,,,,,,,,,,,,,,,,,,,,,,,,,,,,,,,,,,,,,,,,,,,,,,,,,,,,,,,,,,,,,,,,,,,,,,,,,,,,,,,,,,,,,,,,,,,,,,,,,,,
1738755540.398704,1738755540.399252,53.000000,0.000000,4325.256348,4350.256348,4255.897461,4303.077148,4353.205078,4361.025879,4366.410156,4552.692383,4539.487305,4561.410156,4496.922852,5662.436035,4311.666504,4256.794922,0.000000,3.000000,74.000000,,,,0.000000,0.000000,0.000000,0.000000,0.000000,0.000000,0.000000,0.000000,0.000000,0.000000,0.000000,0.000000,0.000000,0.000000,0.000000,0.000000,,,,,,,,,,,,,,,,,,,,,,,,,,,,,,,,,,,,,,,,,,,,,,,,,,,,,,,,,,,,,,,,,,,,,,,,,,,,,,,,,,,,,,,,,,,,,,,,,,,,,,,,,,,,,,,,,,,,,,,,,,,,,,,,,
1738755540.406512,1738755540.407161,54.000000,0.000000,4326.282227,4348.974121,4253.974121,4305.641113,4350.512695,4360.512695,4365.384766,4552.820313,4538.846191,4560.256348,4497.179688,5662.948730,4307.307617,4254.743652,0.000000,3.000000,74.000000,,,,0.000000,0.000000,0.000000,0.000000,0.000000,0.000000,0.000000,0.000000,0.000000,0.000000,0.000000,0.000000,0.000000,0.000000,0.000000,0.000000,,,,,,,,,,,,,,,,,,,,,,,,,,,,,,,,,,,,,,,,,,,,,,,,,,,,,,,,,,,,,,,,,,,,,,,,,,,,,,,,,,,,,,,,,,,,,,,,,,,,,,,,,,,,,,,,,,,,,,,,,,,,,,,,,
1738755540.414320,1738755540.414969,55.000000,0.000000,4323.589844,4349.871582,4252.692383,4303.846191,4348.333496,4360.256348,4364.102539,4551.410156,4543.077148,4560.000000,4493.846191,5661.538574,4314.487305,4258.205078,0.000000,3.000000,74.000000,,,,0.000000,0.000000,0.000000,0.000000,0.000000,0.000000,0.000000,0.000000,0.000000,0.000000,0.000000,0.000000,0.000000,0.000000,0.000000,0.000000,,,,,,,,,,,,,,,,,,,,,,,,,,,,,,,,,,,,,,,,,,,,,,,,,,,,,,,,,,,,,,,,,,,,,,,,,,,,,,,,,,,,,,,,,,,,,,,,,,,,,,,,,,,,,,,,,,,,,,,,,,,,,,,,,
