title:bread1, start timestamp:1738755263.773259, stop timestamp:1738755264.788312, headset type:EPOCX, headset serial:E50208A5, headset firmware:720, channels:168, sampling rate:eeg_128;mot_32;pm_0.1;pow_8, samples:131       , version:2.2, 
Timestamp,OriginalTimestamp,EEG.Counter,EEG.Interpolated,EEG.AF3,EEG.F7,EEG.F3,EEG.FC5,EEG.T7,EEG.P7,EEG.O1,EEG.O2,EEG.P8,EEG.T8,EEG.FC6,EEG.F4,EEG.F8,EEG.AF4,EEG.RawCq,EEG.Battery,EEG.BatteryPercent,MarkerIndex,MarkerType,MarkerValueInt,EEG.MarkerHardware,CQ.AF3,CQ.F7,CQ.F3,CQ.FC5,CQ.T7,CQ.P7,CQ.O1,CQ.O2,CQ.P8,CQ.T8,CQ.FC6,CQ.F4,CQ.F8,CQ.AF4,CQ.Overall,EQ.SampleRateQuality,EQ.OVERALL,EQ.AF3,EQ.F7,EQ.F3,EQ.FC5,EQ.T7,EQ.P7,EQ.O1,EQ.O2,EQ.P8,EQ.T8,EQ.FC6,EQ.F4,EQ.F8,EQ.AF4,MOT.CounterMems,MOT.InterpolatedMems,MOT.Q0,MOT.Q1,MOT.Q2,MOT.Q3,MOT.AccX,MOT.AccY,MOT.AccZ,MOT.MagX,MOT.MagY,MOT.MagZ,PM.Attention.IsActive,PM.Attention.Scaled,PM.Attention.Raw,PM.Attention.Min,PM.Attention.Max,PM.Engagement.IsActive,PM.Engagement.Scaled,PM.Engagement.Raw,PM.Engagement.Min,PM.Engagement.Max,PM.Excitement.IsActive,PM.Excitement.Scaled,PM.Excitement.Raw,PM.Excitement.Min,PM.Excitement.Max,PM.LongTermExcitement,PM.Stress.IsActive,PM.Stress.Scaled,PM.Stress.Raw,PM.Stress.Min,PM.Stress.Max,PM.Relaxation.IsActive,PM.Relaxation.Scaled,PM.Relaxation.Raw,PM.Relaxation.Min,PM.Relaxation.Max,PM.Interest.IsActive,PM.Interest.Scaled,PM.Interest.Raw,PM.Interest.Min,PM.Interest.Max,POW.AF3.Theta,POW.AF3.Alpha,POW.AF3.BetaL,POW.AF3.BetaH,POW.AF3.Gamma,POW.F7.Theta,POW.F7.Alpha,POW.F7.BetaL,POW.F7.BetaH,POW.F7.Gamma,POW.F3.Theta,POW.F3.Alpha,POW.F3.BetaL,POW.F3.BetaH,POW.F3.Gamma,POW.FC5.Theta,POW.FC5.Alpha,POW.FC5.BetaL,POW.FC5.BetaH,POW.FC5.Gamma,POW.T7.Theta,POW.T7.Alpha,POW.T7.BetaL,POW.T7.BetaH,POW.T7.Gamma,POW.P7.Theta,POW.P7.Alpha,POW.P7.BetaL,POW.P7.BetaH,POW.P7.Gamma,POW.O1.Theta,POW.O1.Alpha,POW.O1.BetaL,POW.O1.BetaH,POW.O1.Gamma,POW.O2.Theta,POW.O2.Alpha,POW.O2.BetaL,POW.O2.BetaH,POW.O2.Gamma,POW.P8.Theta,POW.P8.Alpha,POW.P8.BetaL,POW.P8.BetaH,POW.P8.Gamma,POW.T8.Theta,POW.T8.Alpha,POW.T8.BetaL,POW.T8.BetaH,POW.T8.Gamma,POW.FC6.Theta,POW.FC6.Alpha,POW.FC6.BetaL,POW.FC6.BetaH,POW.FC6.Gamma,POW.F4.Theta,POW.F4.Alpha,POW.F4.BetaL,POW.F4.BetaH,POW.F4.Gamma,POW.F8.Theta,POW.F8.Alpha,POW.F8.BetaL,POW.F8.BetaH,POW.F8.Gamma,POW.AF4.Theta,POW.AF4.Alpha,POW.AF4.BetaL,POW.AF4.BetaH,POW.AF4.Gamma
1738755263.773259,1738755263.774155,81.000000,0.000000,4322.948730,4349.230957,4251.922852,4302.307617,4351.282227,4361.282227,4364.487305,4546.922852,4542.436035,4558.974121,4493.974121,5660.384766,4309.871582,4254.871582,0.000000,4.000000,75.000000,,,,0.000000,0.000000,0.000000,0.000000,0.000000,0.000000,0.000000,0.000000,0.000000,0.000000,0.000000,0.000000,0.000000,0.000000,0.000000,0.000000,,,,,,,,,,,,,,,,,,,,,,,,,,,,,,,,,,,,,,,,,,,,,,,,,,,,,,,,,,,,,,,,,,,,,,,,,,,,,,,,,,,,,,,,,,,,,,,,,,,,,,,,,,,,,,,,,,,,,,,,,,,,,,,,,
1738755263.781067,1738755263.781863,82.000000,0.000000,4322.436035,4349.871582,4251.922852,4302.563965,4353.846191,4360.769043,4367.051270,4550.128418,4542.563965,4559.230957,4489.871582,5664.358887,4308.461426,4254.358887,0.000000,4.000000,75.000000,,,,0.000000,0.000000,0.000000,0.000000,0.000000,0.000000,0.000000,0.000000,0.000000,0.000000,0.000000,0.000000,0.000000,0.000000,0.000000,0.000000,,,,,,,,,,,,,,,,,,,,,,,,,,,,,,,,,,,,,,,,,,,,,,,,,,,,,,,,,,,,,,,,,,,,,,,,,,,,,,,,,,,,,,,,,,,,,,,,,,,,,,,,,,,,,,,,,,,,,,,,,,,,,,,,,
1738755263.788875,1738755263.789671,83.000000,0.000000,4321.794922,4348.717773,4251.666504,4304.743652,4352.563965,4359.743652,4366.153809,4548.974121,4541.282227,4558.333496,4496.282227,5665.769043,4309.871582,4256.025879,0.000000,4.000000,75.000000,,,,0.000000,0.000000,0.000000,0.000000,0.000000,0.000000,0.000000,0.000000,0.000000,0.000000,0.000000,0.000000,0.000000,0.000000,0.000000,0.000000,,,,,,,,,,,,,,,,,,,,,,,,,,,,,,,,,,,,,,,,,,,,,,,,,,,,,,,,,,,,,,,,,,,,,,,,,,,,,,,,,,,,,,,,,,,,,,,,,,,,,,,,,,,,,,,,,,,,,,,,,,,,,,,,,
1738755263.796683,1738755263.797379,84.000000,0.000000,4323.205078,4345.384766,4252.563965,4304.615234,4350.769043,4359.102539,4365.897461,4548.077148,4539.358887,4558.846191,4500.000000,5662.563965,4311.666504,4257.563965,0.000000,4.000000,75.000000,,,,0.000000,0.000000,0.000000,0.000000,0.000000,0.000000,0.000000,0.000000,0.000000,0.000000,0.000000,0.000000,0.000000,0.000000,0.000000,0.000000,,,,,,,,,,,,,,,,,21.000000,0.000000,0.785352,-0.615479,-0.060852,0.026550,0.052741,-0.961055,0.234892,4.478087,-14.919792,22.808525,,,,,,,,,,,,,,,,,,,,,,,,,,,,,,,,,,,,,,,,,,,,,,,,,,,,,,,,,,,,,,,,,,,,,,,,,,,,,,,,,,,,,,,,,,,,,,,,,,,,,
1738755263.804491,1738755263.805187,85.000000,0.000000,4322.436035,4346.025879,4252.436035,4304.102539,4350.769043,4357.948730,4365.897461,4550.641113,4540.897461,4560.384766,4497.563965,5659.743652,4310.512695,4258.461426,0.000000,4.000000,75.000000,,,,0.000000,0.000000,0.000000,0.000000,0.000000,0.000000,0.000000,0.000000,0.000000,0.000000,0.000000,0.000000,0.000000,0.000000,0.000000,0.000000,,,,,,,,,,,,,,,,,,,,,,,,,,,,,,,,,,,,,,,,,,,,,,,,,,,,,,,,,,,,,,,,,,,,,,,,,,,,,,,,,,,,,,,,,,,,,,,,,,,,,,,,,,,,,,,,,,,,,,,,,,,,,,,,,
1738755263.812299,1738755263.812895,86.000000,0.000000,4320.256348,4350.128418,4250.384766,4305.000000,4350.000000,4359.615234,4363.589844,4549.615234,4541.282227,4559.615234,4497.436035,5662.051270,4307.051270,4258.333496,0.000000,4.000000,75.000000,,,,0.000000,0.000000,0.000000,0.000000,0.000000,0.000000,0.000000,0.000000,0.000000,0.000000,0.000000,0.000000,0.000000,0.000000,0.000000,0.000000,,,,,,,,,,,,,,,,,,,,,,,,,,,,,,,,,,,,,,,,,,,,,,,,,,,,,,,,,,,,,,,,,,,,,,,,,,,,,,,,,,,,,,,,,,,,,,,,,,,,,,,,,,,,,,,,,,,,,,,,,,,,,,,,,
1738755263.820107,1738755263.820803,87.000000,0.000000,4321.153809,4350.769043,4250.128418,4305.641113,4349.743652,4361.538574,4362.692383,4549.230957,4539.487305,4558.717773,4497.948730,5662.307617,4310.128418,4258.205078,0.000000,4.000000,75.000000,,,,0.000000,0.000000,0.000000,0.000000,0.000000,0.000000,0.000000,0.000000,0.000000,0.000000,0.000000,0.000000,0.000000,0.000000,0.000000,0.000000,,,,,,,,,,,,,,,,,,,,,,,,,,,,,,,,,,,,,,,,,,,,,,,,,,,,,,,,,,,,,,,,,,,,,,,,,,,,,,,,,,,,,,,,,,,,,,,,,,,,,,,,,,,,,,,,,,,,,,,,,,,,,,,,,
1738755263.827916,1738755263.828612,88.000000,0.000000,4322.179688,4348.589844,4253.717773,4305.769043,4351.025879,4358.974121,4363.717773,4553.205078,4541.282227,4557.820313,4494.871582,5659.615234,4312.051270,4255.641113,0.000000,4.000000,75.000000,,,,0.000000,0.000000,0.000000,0.000000,0.000000,0.000000,0.000000,0.000000,0.000000,0.000000,0.000000,0.000000,0.000000,0.000000,0.000000,0.000000,,,,,,,,,,,,,,,,,22.000000,0.000000,0.785402,-0.615417,-0.060852,0.026489,0.055183,-0.983030,0.235380,4.380279,-14.894480,22.961006,,,,,,,,,,,,,,,,,,,,,,,,,,,,,,,,,,,,,,,,,,,,,,,,,,,,,,,,,,,,,,,,,,,,,,,,,,,,,,,,,,,,,,,,,,,,,,,,,,,,,
1738755263.835724,1738755263.836520,89.000000,0.000000,4321.153809,4347.692383,4254.871582,4305.256348,4351.666504,4357.179688,4362.692383,4551.922852,4543.205078,4557.436035,4494.615234,5663.589844,4305.897461,4252.307617,0.000000,4.000000,75.000000,,,,0.000000,0.000000,0.000000,0.000000,0.000000,0.000000,0.000000,0.000000,0.000000,0.000000,0.000000,0.000000,0.000000,0.000000,0.000000,0.000000,,,,,,,,,,,,,,,,,,,,,,,,,,,,,,,,,,,,,,,,,,,,,,,,,,,,,,,,,,,,,,,,,,,,,,,,,,,,,,,,,,,,,,,,,,,,,,,,,,,,,,,,,,,,,,,,,,,,,,,,,,,,,,,,,
1738755263.843532,1738755263.844328,90.000000,0.000000,4320.769043,4350.128418,4251.922852,4303.461426,4349.358887,4359.102539,4363.717773,4550.000000,4538.846191,4559.743652,4496.282227,5664.487305,4304.487305,4254.871582,0.000000,4.000000,75.000000,,,,0.000000,0.000000,0.000000,0.000000,0.000000,0.000000,0.000000,0.000000,0.000000,0.000000,0.000000,0.000000,0.000000,0.000000,0.000000,0.000000,,,,,,,,,,,,,,,,,,,,,,,,,,,,,,,,,,,,,,,,,,,,,,,,,,,,,,,,,,,,,,,,,,,,,,,,,,,,,,,,,,,,,,,,,,,,,,,,,,,,,,,,,,,,,,,,,,,,,,,,,,,,,,,,,
1738755263.851340,1738755263.852236,91.000000,0.000000,4320.769043,4353.974121,4249.230957,4302.307617,4349.615234,4360.769043,4367.051270,4552.948730,4536.922852,4561.666504,4494.358887,5659.487305,4308.205078,4258.589844,0.000000,4.000000,75.000000,,,,0.000000,0.000000,0.000000,0.000000,0.000000,0.000000,0.000000,0.000000,0.000000,0.000000,0.000000,0.000000,0.000000,0.000000,0.000000,0.000000,,,,,,,,,,,,,,,,,,,,,,,,,,,,,,,,,,,,,,,,,,,,,,,,,,,,,,,,,,,,,,,,,,,,,,,,,,,,,,,,,,,,,,,,,,,,,,,,,,,,,,,,,,,,,,,,,,,,,,,,,,,,,,,,,
1738755263.859148,1738755263.860044,92.000000,0.000000,4321.410156,4352.436035,4251.153809,4301.410156,4351.282227,4359.230957,4363.846191,4550.897461,4540.256348,4559.615234,4494.230957,5659.743652,4308.461426,4255.000000,0.000000,4.000000,75.000000,,,,0.000000,0.000000,0.000000,0.000000,0.000000,0.000000,0.000000,0.000000,0.000000,0.000000,0.000000,0.000000,0.000000,0.000000,0.000000,0.000000,,,,,,,,,,,,,,,,,23.000000,0.000000,0.785357,-0.615479,-0.060791,0.026550,0.071786,-0.982053,0.231474,4.392251,-14.855032,23.031572,,,,,,,,,,,,,,,,,,,,,,,,,,,,,,,,,,,,,,,,,,,,,,,,,,,,,,,,,,,,,,,,,,,,,,,,,,,,,,,,,,,,,,,,,,,,,,,,,,,,,
1738755263.866956,1738755263.867952,93.000000,0.000000,4322.948730,4347.051270,4254.743652,4300.256348,4349.230957,4357.436035,4359.871582,4549.615234,4539.871582,4558.846191,4496.922852,5662.692383,4307.948730,4250.128418,0.000000,4.000000,75.000000,,,,0.000000,0.000000,0.000000,0.000000,0.000000,0.000000,0.000000,0.000000,0.000000,0.000000,0.000000,0.000000,0.000000,0.000000,0.000000,0.000000,,,,,,,,,,,,,,,,,,,,,,,,,,,,,,,,,,,,,,,,,,,,,,,,,,,,,,,,,,,,,,,,,,,,,,,,,,,,,,,,,,,,,,,,,,,,,,,,,,,,,,,,,,,,,,,,,,,,,,,,,,,,,,,,,
1738755263.874764,1738755263.875761,94.000000,0.000000,4320.897461,4348.461426,4253.717773,4298.974121,4349.615234,4357.307617,4361.922852,4553.077148,4539.615234,4560.256348,4497.179688,5662.179688,4310.256348,4254.230957,0.000000,4.000000,75.000000,,,,0.000000,0.000000,0.000000,0.000000,0.000000,0.000000,0.000000,0.000000,0.000000,0.000000,0.000000,0.000000,0.000000,0.000000,0.000000,0.000000,1.000000,0.000000,0.000000,0.000000,0.000000,0.000000,0.000000,0.000000,0.000000,0.000000,0.000000,0.000000,0.000000,0.000000,0.000000,0.000000,,,,,,,,,,,,,,,,,,,,,,,,,,,,,,,,,,,,,,,,,,,,0.024378,0.013559,0.014739,0.023599,0.028966,0.029599,0.021969,0.025552,0.017707,0.021392,0.012679,0.030263,0.050873,0.013461,0.022500,0.029515,0.037754,0.007912,0.037373,0.032501,0.021077,0.050426,0.031267,0.031382,0.044431,0.010749,0.024928,0.010609,0.015031,0.024446,0.037187,0.036928,0.039131,0.027211,0.031426,0.033541,0.024737,0.023365,0.017443,0.026114,0.034694,0.015820,0.022879,0.022524,0.018026,0.029007,0.022741,0.013505,0.017381,0.018862,0.018887,0.040435,0.023647,0.025105,0.021970,0.051163,0.111036,0.033881,0.033944,0.022977,0.028008,0.059400,0.046034,0.016048,0.039724,0.040473,0.030346,0.053627,0.020997,0.038415
1738755263.882572,1738755263.883469,95.000000,0.000000,4317.051270,4353.974121,4249.615234,4298.461426,4353.589844,4359.230957,4363.717773,4551.025879,4541.025879,4561.153809,4495.128418,5659.487305,4309.487305,4258.589844,0.000000,4.000000,75.000000,,,,0.000000,0.000000,0.000000,0.000000,0.000000,0.000000,0.000000,0.000000,0.000000,0.000000,0.000000,0.000000,0.000000,0.000000,0.000000,0.000000,,,,,,,,,,,,,,,,,,,,,,,,,,,,,,,,,,,,,,,,,,,,,,,,,,,,,,,,,,,,,,,,,,,,,,,,,,,,,,,,,,,,,,,,,,,,,,,,,,,,,,,,,,,,,,,,,,,,,,,,,,,,,,,,,
1738755263.890380,1738755263.891277,96.000000,0.000000,4318.589844,4352.948730,4250.897461,4299.743652,4353.461426,4360.256348,4361.794922,4548.589844,4540.256348,4562.051270,4494.102539,5662.436035,4303.461426,4255.512695,0.000000,4.000000,75.000000,,,,0.000000,0.000000,0.000000,0.000000,0.000000,0.000000,0.000000,0.000000,0.000000,0.000000,0.000000,0.000000,0.000000,0.000000,0.000000,0.000000,,,,,,,,,,,,,,,,,24.000000,0.000000,0.785364,-0.615479,-0.060730,0.026489,0.066903,-0.974240,0.234404,4.303026,-14.786195,22.911747,,,,,,,,,,,,,,,,,,,,,,,,,,,,,,,,,,,,,,,,,,,,,,,,,,,,,,,,,,,,,,,,,,,,,,,,,,,,,,,,,,,,,,,,,,,,,,,,,,,,,
1738755263.898188,1738755263.898985,97.000000,0.000000,4322.051270,4348.717773,4255.256348,4299.615234,4350.000000,4360.769043,4361.794922,4550.256348,4540.256348,4561.794922,4496.025879,5665.641113,4307.820313,4256.922852,0.000000,4.000000,75.000000,,,,0.000000,0.000000,0.000000,0.000000,0.000000,0.000000,0.000000,0.000000,0.000000,0.000000,0.000000,0.000000,0.000000,0.000000,0.000000,0.000000,,,,,,,,,,,,,,,,,,,,,,,,,,,,,,,,,,,,,,,,,,,,,,,,,,,,,,,,,,,,,,,,,,,,,,,,,,,,,,,,,,,,,,,,,,,,,,,,,,,,,,,,,,,,,,,,,,,,,,,,,,,,,,,,,
1738755263.905996,1738755263.906794,98.000000,0.000000,4321.666504,4350.128418,4253.846191,4301.025879,4350.000000,4360.384766,4365.897461,4548.205078,4540.641113,4560.384766,4498.077148,5661.153809,4314.358887,4259.743652,0.000000,4.000000,75.000000,,,,0.000000,0.000000,0.000000,0.000000,0.000000,0.000000,0.000000,0.000000,0.000000,0.000000,0.000000,0.000000,0.000000,0.000000,0.000000,0.000000,,,,,,,,,,,,,,,,,,,,,,,,,,,,,,,,,,,,,,,,,,,,,,,,,,,,,,,,,,,,,,,,,,,,,,,,,,,,,,,,,,,,,,,,,,,,,,,,,,,,,,,,,,,,,,,,,,,,,,,,,,,,,,,,,
1738755263.913805,1738755263.914502,99.000000,0.000000,4320.769043,4352.436035,4252.436035,4305.000000,4350.512695,4360.384766,4368.333496,4547.179688,4539.102539,4558.333496,4498.077148,5658.333496,4311.025879,4256.794922,0.000000,4.000000,75.000000,,,,0.000000,0.000000,0.000000,0.000000,0.000000,0.000000,0.000000,0.000000,0.000000,0.000000,0.000000,0.000000,0.000000,0.000000,0.000000,0.000000,,,,,,,,,,,,,,,,,,,,,,,,,,,,,,,,,,,,,,,,,,,,,,,,,,,,,,,,,,,,,,,,,,,,,,,,,,,,,,,,,,,,,,,,,,,,,,,,,,,,,,,,,,,,,,,,,,,,,,,,,,,,,,,,,
1738755263.921613,1738755263.922310,100.000000,0.000000,4321.153809,4349.871582,4256.410156,4305.897461,4349.487305,4361.922852,4368.077148,4549.487305,4539.871582,4559.487305,4498.461426,5660.897461,4308.974121,4256.153809,0.000000,4.000000,75.000000,,,,0.000000,0.000000,0.000000,0.000000,0.000000,0.000000,0.000000,0.000000,0.000000,0.000000,0.000000,0.000000,0.000000,0.000000,0.000000,0.000000,,,,,,,,,,,,,,,,,25.000000,0.000000,0.785410,-0.615417,-0.060730,0.026550,0.071298,-0.975217,0.239775,4.239390,-14.890909,22.820574,,,,,,,,,,,,,,,,,,,,,,,,,,,,,,,,,,,,,,,,,,,,,,,,,,,,,,,,,,,,,,,,,,,,,,,,,,,,,,,,,,,,,,,,,,,,,,,,,,,,,
1738755263.929421,1738755263.930018,101.000000,0.000000,4322.307617,4348.974121,4255.769043,4304.487305,4351.025879,4361.410156,4366.538574,4550.128418,4540.641113,4561.922852,4497.436035,5663.589844,4309.871582,4255.769043,0.000000,4.000000,75.000000,,,,0.000000,0.000000,0.000000,0.000000,0.000000,0.000000,0.000000,0.000000,0.000000,0.000000,0.000000,0.000000,0.000000,0.000000,0.000000,0.000000,,,,,,,,,,,,,,,,,,,,,,,,,,,,,,,,,,,,,,,,,,,,,,,,,,,,,,,,,,,,,,,,,,,,,,,,,,,,,,,,,,,,,,,,,,,,,,,,,,,,,,,,,,,,,,,,,,,,,,,,,,,,,,,,,
1738755263.937229,1738755263.937826,102.000000,0.000000,4322.436035,4348.846191,4251.282227,4302.051270,4352.051270,4359.102539,4363.846191,4548.205078,4540.128418,4560.769043,4497.820313,5661.922852,4311.794922,4253.846191,0.000000,4.000000,75.000000,,,,0.000000,0.000000,0.000000,0.000000,0.000000,0.000000,0.000000,0.000000,0.000000,0.000000,0.000000,0.000000,0.000000,0.000000,0.000000,0.000000,,,,,,,,,,,,,,,,,,,,,,,,,,,,,,,,,,,,,,,,,,,,,,,,,,,,,,,,,,,,,,,,,,,,,,,,,,,,,,,,,,,,,,,,,,,,,,,,,,,,,,,,,,,,,,,,,,,,,,,,,,,,,,,,,
1738755263.945037,1738755263.945534,103.000000,0.000000,4322.436035,4348.077148,4255.128418,4303.077148,4350.384766,4360.128418,4365.256348,4546.282227,4541.922852,4558.717773,4499.615234,5661.538574,4311.410156,4256.922852,0.000000,4.000000,75.000000,,,,0.000000,0.000000,0.000000,0.000000,0.000000,0.000000,0.000000,0.000000,0.000000,0.000000,0.000000,0.000000,0.000000,0.000000,0.000000,0.000000,,,,,,,,,,,,,,,,,,,,,,,,,,,,,,,,,,,,,,,,,,,,,,,,,,,,,,,,,,,,,,,,,,,,,,,,,,,,,,,,,,,,,,,,,,,,,,,,,,,,,,,,,,,,,,,,,,,,,,,,,,,,,,,,,
1738755263.952845,1738755263.953342,104.000000,0.000000,4324.102539,4348.589844,4261.025879,4305.000000,4349.871582,4361.794922,4368.846191,4550.897461,4542.051270,4560.000000,4498.589844,5665.128418,4307.692383,4259.743652,0.000000,4.000000,75.000000,,,,0.000000,0.000000,0.000000,0.000000,0.000000,0.000000,0.000000,0.000000,0.000000,0.000000,0.000000,0.000000,0.000000,0.000000,0.000000,0.000000,,,,,,,,,,,,,,,,,26.000000,0.000000,0.785453,-0.615356,-0.060791,0.026550,0.065926,-0.978635,0.226590,4.065451,-14.985151,22.788515,,,,,,,,,,,,,,,,,,,,,,,,,,,,,,,,,,,,,,,,,,,,,,,,,,,,,,,,,,,,,,,,,,,,,,,,,,,,,,,,,,,,,,,,,,,,,,,,,,,,,
1738755263.960653,1738755263.961050,105.000000,0.000000,4322.563965,4348.974121,4257.179688,4302.179688,4350.769043,4361.282227,4364.230957,4553.589844,4542.179688,4561.282227,4496.282227,5663.077148,4309.230957,4256.410156,0.000000,4.000000,75.000000,,,,0.000000,0.000000,0.000000,0.000000,0.000000,0.000000,0.000000,0.000000,0.000000,0.000000,0.000000,0.000000,0.000000,0.000000,0.000000,0.000000,,,,,,,,,,,,,,,,,,,,,,,,,,,,,,,,,,,,,,,,,,,,,,,,,,,,,,,,,,,,,,,,,,,,,,,,,,,,,,,,,,,,,,,,,,,,,,,,,,,,,,,,,,,,,,,,,,,,,,,,,,,,,,,,,
1738755263.968461,1738755263.968858,106.000000,0.000000,4320.641113,4348.974121,4254.358887,4301.282227,4351.538574,4362.436035,4361.025879,4548.717773,4542.179688,4559.230957,4496.794922,5662.051270,4311.282227,4255.769043,0.000000,4.000000,75.000000,,,,0.000000,0.000000,0.000000,0.000000,0.000000,0.000000,0.000000,0.000000,0.000000,0.000000,0.000000,0.000000,0.000000,0.000000,0.000000,0.000000,,,,,,,,,,,,,,,,,,,,,,,,,,,,,,,,,,,,,,,,,,,,,,,,,,,,,,,,,,,,,,,,,,,,,,,,,,,,,,,,,,,,,,,,,,,,,,,,,,,,,,,,,,,,,,,,,,,,,,,,,,,,,,,,,
1738755263.976269,1738755263.976566,107.000000,0.000000,4324.102539,4349.871582,4257.179688,4301.666504,4352.692383,4363.461426,4366.282227,4548.333496,4539.871582,4560.769043,4497.563965,5664.615234,4310.000000,4258.589844,0.000000,4.000000,75.000000,,,,0.000000,0.000000,0.000000,0.000000,0.000000,0.000000,0.000000,0.000000,0.000000,0.000000,0.000000,0.000000,0.000000,0.000000,0.000000,0.000000,,,,,,,,,,,,,,,,,,,,,,,,,,,,,,,,,,,,,,,,,,,,,,,,,,,,,,,,,,,,,,,,,,,,,,,,,,,,,,,,,,,,,,,,,,,,,,,,,,,,,,,,,,,,,,,,,,,,,,,,,,,,,,,,,
1738755263.984078,1738755263.984374,108.000000,0.000000,4323.077148,4350.769043,4255.256348,4301.025879,4351.666504,4362.436035,4367.179688,4551.282227,4540.128418,4562.820313,4496.666504,5663.589844,4310.128418,4257.179688,0.000000,4.000000,75.000000,,,,0.000000,0.000000,0.000000,0.000000,0.000000,0.000000,0.000000,0.000000,0.000000,0.000000,0.000000,0.000000,0.000000,0.000000,0.000000,0.000000,,,,,,,,,,,,,,,,,27.000000,0.000000,0.785448,-0.615356,-0.060852,0.026550,0.053229,-0.978147,0.230985,4.225573,-15.003303,22.692997,,,,,,,,,,,,,,,,,,,,,,,,,,,,,,,,,,,,,,,,,,,,,,,,,,,,,,,,,,,,,,,,,,,,,,,,,,,,,,,,,,,,,,,,,,,,,,,,,,,,,
1738755263.991886,1738755263.992082,109.000000,0.000000,4319.871582,4347.692383,4250.000000,4301.153809,4350.897461,4362.179688,4365.512695,4549.743652,4540.897461,4560.128418,4497.307617,5661.794922,4309.358887,4254.230957,0.000000,4.000000,75.000000,,,,0.000000,0.000000,0.000000,0.000000,0.000000,0.000000,0.000000,0.000000,0.000000,0.000000,0.000000,0.000000,0.000000,0.000000,0.000000,0.000000,,,,,,,,,,,,,,,,,,,,,,,,,,,,,,,,,,,,,,,,,,,,,,,,,,,,,,,,,,,,,,,,,,,,,,,,,,,,,,,,,,,,,,,,,,,,,,,,,,,,,,,,,,,,,,,,,,,,,,,,,,,,,,,,,
1738755263.999694,1738755263.999990,110.000000,0.000000,4324.230957,4345.256348,4251.922852,4300.512695,4352.179688,4360.000000,4365.769043,4548.717773,4540.384766,4559.102539,4497.820313,5662.563965,4309.871582,4257.051270,0.000000,4.000000,75.000000,,,,0.000000,0.000000,0.000000,0.000000,0.000000,0.000000,0.000000,0.000000,0.000000,0.000000,0.000000,0.000000,0.000000,0.000000,0.000000,0.000000,,,,,,,,,,,,,,,,,,,,,,,,,,,,,,,,,,,,,,,,,,,,,,,,,,,,,,,,,,,,0.026454,0.015722,0.014189,0.027531,0.029429,0.031670,0.021557,0.019894,0.016444,0.019708,0.016168,0.032264,0.050804,0.013145,0.023223,0.030674,0.045747,0.008479,0.036860,0.032795,0.020305,0.044960,0.035583,0.032289,0.046937,0.011135,0.021641,0.011354,0.013918,0.023517,0.037710,0.031849,0.038012,0.027484,0.033706,0.034905,0.024774,0.026479,0.015943,0.027951,0.027200,0.013470,0.022668,0.024886,0.021064,0.030329,0.024380,0.013351,0.016812,0.017639,0.020579,0.043557,0.025255,0.026675,0.023537,0.043196,0.097681,0.034732,0.033055,0.023627,0.033296,0.048412,0.051685,0.014509,0.039024,0.045366,0.022297,0.047064,0.023849,0.042597
1738755264.007502,1738755264.007798,111.000000,0.000000,4326.666504,4346.794922,4256.153809,4299.871582,4352.179688,4358.333496,4366.538574,4550.641113,4541.922852,4558.077148,4495.769043,5663.717773,4309.358887,4259.615234,0.000000,4.000000,75.000000,,,,0.000000,0.000000,0.000000,0.000000,0.000000,0.000000,0.000000,0.000000,0.000000,0.000000,0.000000,0.000000,0.000000,0.000000,0.000000,0.000000,,,,,,,,,,,,,,,,,,,,,,,,,,,,,,,,,,,,,,,,,,,,,,,,,,,,,,,,,,,,,,,,,,,,,,,,,,,,,,,,,,,,,,,,,,,,,,,,,,,,,,,,,,,,,,,,,,,,,,,,,,,,,,,,,
1738755264.015310,1738755264.015706,112.000000,0.000000,4321.538574,4348.077148,4253.974121,4302.436035,4351.922852,4360.897461,4364.102539,4551.153809,4542.179688,4556.794922,4495.000000,5663.974121,4308.205078,4258.077148,0.000000,4.000000,75.000000,,,,0.000000,0.000000,0.000000,0.000000,0.000000,0.000000,0.000000,0.000000,0.000000,0.000000,0.000000,0.000000,0.000000,0.000000,0.000000,0.000000,,,,,,,,,,,,,,,,,28.000000,0.000000,0.785539,-0.615234,-0.060913,0.026550,0.069344,-0.983030,0.246124,4.153015,-14.919640,22.640364,,,,,,,,,,,,,,,,,,,,,,,,,,,,,,,,,,,,,,,,,,,,,,,,,,,,,,,,,,,,,,,,,,,,,,,,,,,,,,,,,,,,,,,,,,,,,,,,,,,,,
1738755264.023118,1738755264.023515,113.000000,0.000000,4320.128418,4351.282227,4252.563965,4303.846191,4352.179688,4363.589844,4362.820313,4550.512695,4540.384766,4559.358887,4495.897461,5665.256348,4312.051270,4258.077148,0.000000,4.000000,75.000000,,,,0.000000,0.000000,0.000000,0.000000,0.000000,0.000000,0.000000,0.000000,0.000000,0.000000,0.000000,0.000000,0.000000,0.000000,0.000000,0.000000,,,,,,,,,,,,,,,,,,,,,,,,,,,,,,,,,,,,,,,,,,,,,,,,,,,,,,,,,,,,,,,,,,,,,,,,,,,,,,,,,,,,,,,,,,,,,,,,,,,,,,,,,,,,,,,,,,,,,,,,,,,,,,,,,
1738755264.030926,1738755264.031423,114.000000,0.000000,4322.307617,4351.666504,4255.128418,4302.179688,4350.128418,4361.666504,4366.153809,4549.230957,4539.102539,4560.897461,4497.436035,5665.897461,4311.794922,4256.538574,0.000000,4.000000,75.000000,,,,0.000000,0.000000,0.000000,0.000000,0.000000,0.000000,0.000000,0.000000,0.000000,0.000000,0.000000,0.000000,0.000000,0.000000,0.000000,0.000000,,,,,,,,,,,,,,,,,,,,,,,,,,,,,,,,,,,,,,,,,,,,,,,,,,,,,,,,,,,,,,,,,,,,,,,,,,,,,,,,,,,,,,,,,,,,,,,,,,,,,,,,,,,,,,,,,,,,,,,,,,,,,,,,,
1738755264.038734,1738755264.039231,115.000000,0.000000,4322.692383,4347.563965,4255.128418,4300.769043,4348.846191,4360.512695,4366.410156,4548.974121,4538.205078,4558.461426,4496.410156,5662.563965,4311.794922,4255.769043,0.000000,4.000000,75.000000,,,,0.000000,0.000000,0.000000,0.000000,0.000000,0.000000,0.000000,0.000000,0.000000,0.000000,0.000000,0.000000,0.000000,0.000000,0.000000,0.000000,,,,,,,,,,,,,,,,,,,,,,,,,,,,,,,,,,,,,,,,,,,,,,,,,,,,,,,,,,,,,,,,,,,,,,,,,,,,,,,,,,,,,,,,,,,,,,,,,,,,,,,,,,,,,,,,,,,,,,,,,,,,,,,,,
1738755264.046542,1738755264.047139,116.000000,0.000000,4323.333496,4347.051270,4252.948730,4300.641113,4350.000000,4359.615234,4365.000000,4550.384766,4540.256348,4557.563965,4496.282227,5662.563965,4315.512695,4257.051270,0.000000,4.000000,75.000000,,,,0.000000,0.000000,0.000000,0.000000,0.000000,0.000000,0.000000,0.000000,0.000000,0.000000,0.000000,0.000000,0.000000,0.000000,0.000000,0.000000,,,,,,,,,,,,,,,,,29.000000,0.000000,0.785587,-0.615173,-0.060913,0.026550,0.061043,-0.977658,0.237822,4.321047,-15.094342,22.576328,,,,,,,,,,,,,,,,,,,,,,,,,,,,,,,,,,,,,,,,,,,,,,,,,,,,,,,,,,,,,,,,,,,,,,,,,,,,,,,,,,,,,,,,,,,,,,,,,,,,,
1738755264.054351,1738755264.054947,117.000000,0.000000,4322.948730,4350.641113,4252.179688,4301.666504,4351.025879,4358.333496,4366.794922,4548.717773,4543.717773,4557.692383,4498.461426,5665.897461,4310.769043,4255.512695,0.000000,4.000000,75.000000,,,,0.000000,0.000000,0.000000,0.000000,0.000000,0.000000,0.000000,0.000000,0.000000,0.000000,0.000000,0.000000,0.000000,0.000000,0.000000,0.000000,,,,,,,,,,,,,,,,,,,,,,,,,,,,,,,,,,,,,,,,,,,,,,,,,,,,,,,,,,,,,,,,,,,,,,,,,,,,,,,,,,,,,,,,,,,,,,,,,,,,,,,,,,,,,,,,,,,,,,,,,,,,,,,,,
1738755264.062158,1738755264.062855,118.000000,0.000000,4323.974121,4351.282227,4252.436035,4300.641113,4351.538574,4360.897461,4368.333496,4547.820313,4541.282227,4558.333496,4497.948730,5666.922852,4307.563965,4255.128418,0.000000,4.000000,75.000000,,,,0.000000,0.000000,0.000000,0.000000,0.000000,0.000000,0.000000,0.000000,0.000000,0.000000,0.000000,0.000000,0.000000,0.000000,0.000000,0.000000,,,,,,,,,,,,,,,,,,,,,,,,,,,,,,,,,,,,,,,,,,,,,,,,,,,,,,,,,,,,,,,,,,,,,,,,,,,,,,,,,,,,,,,,,,,,,,,,,,,,,,,,,,,,,,,,,,,,,,,,,,,,,,,,,
1738755264.069967,1738755264.070664,119.000000,0.000000,4324.871582,4348.589844,4251.153809,4300.000000,4351.538574,4363.717773,4368.077148,4551.282227,4538.333496,4561.282227,4494.871582,5664.102539,4311.666504,4255.256348,0.000000,4.000000,75.000000,,,,0.000000,0.000000,0.000000,0.000000,0.000000,0.000000,0.000000,0.000000,0.000000,0.000000,0.000000,0.000000,0.000000,0.000000,0.000000,0.000000,,,,,,,,,,,,,,,,,,,,,,,,,,,,,,,,,,,,,,,,,,,,,,,,,,,,,,,,,,,,,,,,,,,,,,,,,,,,,,,,,,,,,,,,,,,,,,,,,,,,,,,,,,,,,,,,,,,,,,,,,,,,,,,,,
1738755264.077775,1738755264.078372,120.000000,0.000000,4320.384766,4348.333496,4250.641113,4303.077148,4351.153809,4361.666504,4367.307617,4550.769043,4541.153809,4559.230957,4495.384766,5662.692383,4311.666504,4255.256348,0.000000,4.000000,75.000000,,,,0.000000,0.000000,0.000000,0.000000,0.000000,0.000000,0.000000,0.000000,0.000000,0.000000,0.000000,0.000000,0.000000,0.000000,0.000000,0.000000,,,,,,,,,,,,,,,,,30.000000,0.000000,0.785593,-0.615173,-0.060852,0.026489,0.061531,-0.967403,0.239287,4.338942,-15.118241,22.518696,,,,,,,,,,,,,,,,,,,,,,,,,,,,,,,,,,,,,,,,,,,,,,,,,,,,,,,,,,,,,,,,,,,,,,,,,,,,,,,,,,,,,,,,,,,,,,,,,,,,,
1738755264.085583,1738755264.086180,121.000000,0.000000,4319.743652,4348.846191,4248.589844,4304.102539,4351.794922,4360.897461,4366.410156,4549.743652,4542.307617,4557.051270,4499.230957,5663.974121,4309.358887,4256.410156,0.000000,4.000000,75.000000,,,,0.000000,0.000000,0.000000,0.000000,0.000000,0.000000,0.000000,0.000000,0.000000,0.000000,0.000000,0.000000,0.000000,0.000000,0.000000,0.000000,,,,,,,,,,,,,,,,,,,,,,,,,,,,,,,,,,,,,,,,,,,,,,,,,,,,,,,,,,,,,,,,,,,,,,,,,,,,,,,,,,,,,,,,,,,,,,,,,,,,,,,,,,,,,,,,,,,,,,,,,,,,,,,,,
1738755264.093391,1738755264.093888,122.000000,0.000000,4324.487305,4348.205078,4245.769043,4302.051270,4353.717773,4362.948730,4364.871582,4552.179688,4541.282227,4561.025879,4498.974121,5664.487305,4307.692383,4255.384766,0.000000,4.000000,75.000000,,,,0.000000,0.000000,0.000000,0.000000,0.000000,0.000000,0.000000,0.000000,0.000000,0.000000,0.000000,0.000000,0.000000,0.000000,0.000000,0.000000,,,,,,,,,,,,,,,,,,,,,,,,,,,,,,,,,,,,,,,,,,,,,,,,,,,,,,,,,,,,,,,,,,,,,,,,,,,,,,,,,,,,,,,,,,,,,,,,,,,,,,,,,,,,,,,,,,,,,,,,,,,,,,,,,
1738755264.101199,1738755264.101696,123.000000,0.000000,4322.692383,4348.717773,4249.230957,4301.410156,4355.128418,4360.256348,4363.461426,4549.487305,4542.563965,4563.461426,4496.538574,5661.922852,4308.717773,4255.512695,0.000000,4.000000,75.000000,,,,0.000000,0.000000,0.000000,0.000000,0.000000,0.000000,0.000000,0.000000,0.000000,0.000000,0.000000,0.000000,0.000000,0.000000,0.000000,0.000000,,,,,,,,,,,,,,,,,,,,,,,,,,,,,,,,,,,,,,,,,,,,,,,,,,,,,,,,,,,,,,,,,,,,,,,,,,,,,,,,,,,,,,,,,,,,,,,,,,,,,,,,,,,,,,,,,,,,,,,,,,,,,,,,,
1738755264.109007,1738755264.109404,124.000000,0.000000,4320.384766,4348.846191,4255.769043,4302.436035,4353.333496,4359.102539,4364.358887,4548.461426,4540.897461,4560.384766,4493.974121,5661.538574,4310.384766,4255.769043,0.000000,4.000000,75.000000,,,,0.000000,0.000000,0.000000,0.000000,0.000000,0.000000,0.000000,0.000000,0.000000,0.000000,0.000000,0.000000,0.000000,0.000000,0.000000,0.000000,,,,,,,,,,,,,,,,,31.000000,0.000000,0.785589,-0.615173,-0.060913,0.026489,0.062019,-0.978147,0.240264,4.438381,-15.089750,22.433493,,,,,,,,,,,,,,,,,,,,,,,,,,,,,,,,,,,,,,,,,,,,,,,,,,,,,,,,,,,,,,,,,,,,,,,,,,,,,,,,,,,,,,,,,,,,,,,,,,,,,
1738755264.116815,1738755264.117212,125.000000,0.000000,4324.230957,4349.871582,4255.769043,4301.794922,4351.666504,4362.179688,4365.769043,4552.436035,4535.897461,4558.077148,4492.436035,5663.077148,4310.641113,4253.333496,0.000000,4.000000,75.000000,,,,0.000000,0.000000,0.000000,0.000000,0.000000,0.000000,0.000000,0.000000,0.000000,0.000000,0.000000,0.000000,0.000000,0.000000,0.000000,0.000000,,,,,,,,,,,,,,,,,,,,,,,,,,,,,,,,,,,,,,,,,,,,,,,,,,,,,,,,,,,,,,,,,,,,,,,,,,,,,,,,,,,,,,,,,,,,,,,,,,,,,,,,,,,,,,,,,,,,,,,,,,,,,,,,,
1738755264.124623,1738755264.124920,126.000000,0.000000,4324.487305,4349.871582,4252.179688,4300.128418,4351.922852,4363.205078,4364.871582,4551.153809,4537.307617,4559.743652,4496.282227,5663.846191,4311.666504,4254.358887,0.000000,4.000000,75.000000,,,,0.000000,0.000000,0.000000,0.000000,0.000000,0.000000,0.000000,0.000000,0.000000,0.000000,0.000000,0.000000,0.000000,0.000000,0.000000,0.000000,,,,,,,,,,,,,,,,,,,,,,,,,,,,,,,,,,,,,,,,,,,,,,,,,,,,,,,,,,,,0.027988,0.017656,0.013359,0.032094,0.030018,0.031914,0.020204,0.016519,0.014916,0.019064,0.018619,0.031909,0.047734,0.013003,0.024153,0.029622,0.051866,0.009802,0.034734,0.032765,0.020818,0.039661,0.041036,0.030837,0.046933,0.011499,0.016855,0.011079,0.013235,0.022097,0.036443,0.030809,0.040712,0.027279,0.036221,0.037214,0.025113,0.029921,0.014129,0.029523,0.020769,0.012512,0.022644,0.027637,0.025252,0.031397,0.025527,0.013769,0.015949,0.017193,0.021661,0.044582,0.026012,0.027859,0.025918,0.034218,0.078639,0.035669,0.031072,0.025071,0.041451,0.037521,0.055798,0.013805,0.037725,0.051168,0.018146,0.043097,0.027137,0.043441
1738755264.132431,1738755264.132828,127.000000,0.000000,4322.948730,4350.641113,4252.948730,4299.871582,4351.538574,4361.410156,4364.102539,4547.820313,4539.743652,4559.358887,4499.615234,5665.384766,4309.487305,4255.641113,75.000000,4.000000,75.000000,,,,0.000000,0.000000,0.000000,0.000000,0.000000,0.000000,0.000000,0.000000,0.000000,0.000000,0.000000,0.000000,0.000000,0.000000,0.000000,0.000000,,,,,,,,,,,,,,,,,,,,,,,,,,,,,,,,,,,,,,,,,,,,,,,,,,,,,,,,,,,,,,,,,,,,,,,,,,,,,,,,,,,,,,,,,,,,,,,,,,,,,,,,,,,,,,,,,,,,,,,,,,,,,,,,,
1738755264.140240,1738755264.140636,0.000000,0.000000,4323.589844,4353.077148,4255.256348,4299.487305,4350.512695,4361.282227,4363.846191,4548.846191,4537.051270,4558.589844,4496.666504,5661.794922,4308.077148,4255.641113,0.000000,4.000000,75.000000,,,,0.000000,0.000000,0.000000,0.000000,0.000000,0.000000,0.000000,0.000000,0.000000,0.000000,0.000000,0.000000,0.000000,0.000000,0.000000,0.000000,,,,,,,,,,,,,,,,,0.000000,0.000000,0.785589,-0.615173,-0.060913,0.026489,0.068856,-0.970333,0.231474,4.427876,-15.314109,22.456810,,,,,,,,,,,,,,,,,,,,,,,,,,,,,,,,,,,,,,,,,,,,,,,,,,,,,,,,,,,,,,,,,,,,,,,,,,,,,,,,,,,,,,,,,,,,,,,,,,,,,
1738755264.148048,1738755264.148445,1.000000,0.000000,4323.717773,4350.769043,4253.205078,4301.410156,4352.051270,4363.077148,4364.615234,4550.256348,4538.717773,4560.128418,4493.205078,5661.153809,4311.410156,4259.487305,0.000000,4.000000,75.000000,,,,0.000000,0.000000,0.000000,0.000000,0.000000,0.000000,0.000000,0.000000,0.000000,0.000000,0.000000,0.000000,0.000000,0.000000,0.000000,0.000000,,,,,,,,,,,,,,,,,,,,,,,,,,,,,,,,,,,,,,,,,,,,,,,,,,,,,,,,,,,,,,,,,,,,,,,,,,,,,,,,,,,,,,,,,,,,,,,,,,,,,,,,,,,,,,,,,,,,,,,,,,,,,,,,,
1738755264.155856,1738755264.156153,2.000000,0.000000,4323.205078,4348.974121,4251.153809,4304.358887,4353.205078,4362.948730,4365.128418,4549.487305,4542.692383,4562.820313,4496.538574,5665.384766,4311.410156,4260.384766,0.000000,4.000000,75.000000,,,,0.000000,0.000000,0.000000,0.000000,0.000000,0.000000,0.000000,0.000000,0.000000,0.000000,0.000000,0.000000,0.000000,0.000000,0.000000,0.000000,,,,,,,,,,,,,,,,,,,,,,,,,,,,,,,,,,,,,,,,,,,,,,,,,,,,,,,,,,,,,,,,,,,,,,,,,,,,,,,,,,,,,,,,,,,,,,,,,,,,,,,,,,,,,,,,,,,,,,,,,,,,,,,,,
1738755264.163664,1738755264.164061,3.000000,0.000000,4324.871582,4351.410156,4252.436035,4300.512695,4352.436035,4360.769043,4365.000000,4549.487305,4538.461426,4562.948730,4501.025879,5664.230957,4308.846191,4258.333496,0.000000,4.000000,75.000000,,,,0.000000,0.000000,0.000000,0.000000,0.000000,0.000000,0.000000,0.000000,0.000000,0.000000,0.000000,0.000000,0.000000,0.000000,0.000000,0.000000,,,,,,,,,,,,,,,,,,,,,,,,,,,,,,,,,,,,,,,,,,,,,,,,,,,,,,,,,,,,,,,,,,,,,,,,,,,,,,,,,,,,,,,,,,,,,,,,,,,,,,,,,,,,,,,,,,,,,,,,,,,,,,,,,
1738755264.171472,1738755264.171869,4.000000,0.000000,4323.461426,4350.641113,4252.948730,4297.563965,4352.051270,4359.871582,4364.871582,4551.025879,4536.025879,4558.974121,4498.461426,5662.820313,4309.102539,4259.230957,0.000000,4.000000,75.000000,,,,0.000000,0.000000,0.000000,0.000000,0.000000,0.000000,0.000000,0.000000,0.000000,0.000000,0.000000,0.000000,0.000000,0.000000,0.000000,0.000000,,,,,,,,,,,,,,,,,1.000000,0.000000,0.785586,-0.615173,-0.060974,0.026428,0.074228,-0.966915,0.236357,4.351756,-15.232697,22.461128,,,,,,,,,,,,,,,,,,,,,,,,,,,,,,,,,,,,,,,,,,,,,,,,,,,,,,,,,,,,,,,,,,,,,,,,,,,,,,,,,,,,,,,,,,,,,,,,,,,,,
1738755264.179280,1738755264.179777,5.000000,0.000000,4319.230957,4348.461426,4252.307617,4303.461426,4352.948730,4361.666504,4363.461426,4550.128418,4540.384766,4558.846191,4496.153809,5663.077148,4312.820313,4257.820313,0.000000,4.000000,75.000000,,,,0.000000,0.000000,0.000000,0.000000,0.000000,0.000000,0.000000,0.000000,0.000000,0.000000,0.000000,0.000000,0.000000,0.000000,0.000000,0.000000,,,,,,,,,,,,,,,,,,,,,,,,,,,,,,,,,,,,,,,,,,,,,,,,,,,,,,,,,,,,,,,,,,,,,,,,,,,,,,,,,,,,,,,,,,,,,,,,,,,,,,,,,,,,,,,,,,,,,,,,,,,,,,,,,
1738755264.187088,1738755264.187585,6.000000,0.000000,4319.871582,4349.230957,4253.461426,4306.922852,4355.512695,4362.179688,4363.077148,4549.743652,4539.102539,4558.717773,4497.563965,5663.846191,4312.820313,4253.589844,0.000000,4.000000,75.000000,,,,0.000000,0.000000,0.000000,0.000000,0.000000,0.000000,0.000000,0.000000,0.000000,0.000000,0.000000,0.000000,0.000000,0.000000,0.000000,0.000000,,,,,,,,,,,,,,,,,,,,,,,,,,,,,,,,,,,,,,,,,,,,,,,,,,,,,,,,,,,,,,,,,,,,,,,,,,,,,,,,,,,,,,,,,,,,,,,,,,,,,,,,,,,,,,,,,,,,,,,,,,,,,,,,,
1738755264.194896,1738755264.195494,7.000000,0.000000,4322.436035,4348.717773,4254.230957,4302.948730,4353.974121,4360.769043,4364.615234,4551.410156,4536.282227,4556.025879,4496.794922,5665.641113,4309.871582,4254.743652,0.000000,4.000000,75.000000,,,,0.000000,0.000000,0.000000,0.000000,0.000000,0.000000,0.000000,0.000000,0.000000,0.000000,0.000000,0.000000,0.000000,0.000000,0.000000,0.000000,,,,,,,,,,,,,,,,,,,,,,,,,,,,,,,,,,,,,,,,,,,,,,,,,,,,,,,,,,,,,,,,,,,,,,,,,,,,,,,,,,,,,,,,,,,,,,,,,,,,,,,,,,,,,,,,,,,,,,,,,,,,,,,,,
1738755264.202704,1738755264.203302,8.000000,0.000000,4320.769043,4348.333496,4252.948730,4301.410156,4353.333496,4360.000000,4365.000000,4549.743652,4540.769043,4556.025879,4495.897461,5663.333496,4311.025879,4258.974121,0.000000,4.000000,75.000000,,,,0.000000,0.000000,0.000000,0.000000,0.000000,0.000000,0.000000,0.000000,0.000000,0.000000,0.000000,0.000000,0.000000,0.000000,0.000000,0.000000,,,,,,,,,,,,,,,,,2.000000,0.000000,0.785540,-0.615234,-0.060974,0.026367,0.069833,-0.975705,0.243194,4.266580,-15.359428,22.431683,,,,,,,,,,,,,,,,,,,,,,,,,,,,,,,,,,,,,,,,,,,,,,,,,,,,,,,,,,,,,,,,,,,,,,,,,,,,,,,,,,,,,,,,,,,,,,,,,,,,,
1738755264.210513,1738755264.211210,9.000000,0.000000,4320.128418,4350.641113,4252.948730,4302.563965,4356.025879,4360.512695,4364.230957,4549.102539,4542.051270,4560.256348,4496.922852,5661.538574,4310.000000,4256.410156,0.000000,4.000000,75.000000,,,,0.000000,0.000000,0.000000,0.000000,0.000000,0.000000,0.000000,0.000000,0.000000,0.000000,0.000000,0.000000,0.000000,0.000000,0.000000,0.000000,,,,,,,,,,,,,,,,,,,,,,,,,,,,,,,,,,,,,,,,,,,,,,,,,,,,,,,,,,,,,,,,,,,,,,,,,,,,,,,,,,,,,,,,,,,,,,,,,,,,,,,,,,,,,,,,,,,,,,,,,,,,,,,,,
1738755264.218320,1738755264.219018,10.000000,0.000000,4322.692383,4352.307617,4252.563965,4301.794922,4354.358887,4362.436035,4361.794922,4551.025879,4538.717773,4561.794922,4497.563965,5665.128418,4309.230957,4255.897461,0.000000,4.000000,75.000000,,,,0.000000,0.000000,0.000000,0.000000,0.000000,0.000000,0.000000,0.000000,0.000000,0.000000,0.000000,0.000000,0.000000,0.000000,0.000000,0.000000,,,,,,,,,,,,,,,,,,,,,,,,,,,,,,,,,,,,,,,,,,,,,,,,,,,,,,,,,,,,,,,,,,,,,,,,,,,,,,,,,,,,,,,,,,,,,,,,,,,,,,,,,,,,,,,,,,,,,,,,,,,,,,,,,
1738755264.226129,1738755264.226926,11.000000,0.000000,4323.589844,4351.282227,4251.794922,4302.307617,4351.922852,4363.077148,4361.282227,4550.641113,4537.563965,4556.922852,4498.077148,5667.179688,4312.563965,4258.589844,0.000000,4.000000,75.000000,,,,0.000000,0.000000,0.000000,0.000000,0.000000,0.000000,0.000000,0.000000,0.000000,0.000000,0.000000,0.000000,0.000000,0.000000,0.000000,0.000000,,,,,,,,,,,,,,,,,,,,,,,,,,,,,,,,,,,,,,,,,,,,,,,,,,,,,,,,,,,,,,,,,,,,,,,,,,,,,,,,,,,,,,,,,,,,,,,,,,,,,,,,,,,,,,,,,,,,,,,,,,,,,,,,,
1738755264.233937,1738755264.234734,12.000000,0.000000,4324.358887,4348.461426,4253.461426,4302.820313,4353.077148,4361.153809,4365.897461,4548.974121,4538.205078,4555.641113,4496.538574,5665.256348,4314.358887,4257.179688,0.000000,4.000000,75.000000,,,,0.000000,0.000000,0.000000,0.000000,0.000000,0.000000,0.000000,0.000000,0.000000,0.000000,0.000000,0.000000,0.000000,0.000000,0.000000,0.000000,,,,,,,,,,,,,,,,,3.000000,0.000000,0.785583,-0.615173,-0.061035,0.026367,0.061531,-0.991332,0.234892,4.273255,-15.340152,22.488514,,,,,,,,,,,,,,,,,,,,,,,,,,,,,,,,,,,,,,,,,,,,,,,,,,,,,,,,,,,,,,,,,,,,,,,,,,,,,,,,,,,,,,,,,,,,,,,,,,,,,
1738755264.241745,1738755264.242642,13.000000,0.000000,4324.615234,4350.000000,4254.487305,4301.410156,4355.000000,4359.871582,4367.820313,4548.205078,4539.871582,4559.615234,4495.512695,5663.205078,4315.384766,4257.307617,0.000000,4.000000,75.000000,,,,0.000000,0.000000,0.000000,0.000000,0.000000,0.000000,0.000000,0.000000,0.000000,0.000000,0.000000,0.000000,0.000000,0.000000,0.000000,0.000000,,,,,,,,,,,,,,,,,,,,,,,,,,,,,,,,,,,,,,,,,,,,,,,,,,,,,,,,,,,,,,,,,,,,,,,,,,,,,,,,,,,,,,,,,,,,,,,,,,,,,,,,,,,,,,,,,,,,,,,,,,,,,,,,,
1738755264.249553,1738755264.250451,14.000000,0.000000,4322.307617,4350.384766,4253.589844,4301.794922,4353.974121,4360.769043,4365.000000,4548.589844,4538.461426,4562.179688,4495.897461,5663.461426,4313.461426,4258.974121,0.000000,4.000000,75.000000,,,,0.000000,0.000000,0.000000,0.000000,0.000000,0.000000,0.000000,0.000000,0.000000,0.000000,0.000000,0.000000,0.000000,0.000000,0.000000,0.000000,,,,,,,,,,,,,,,,,,,,,,,,,,,,,,,,,,,,,,,,,,,,,,,,,,,,,,,,,,,,0.028550,0.018485,0.012385,0.036166,0.030348,0.030108,0.017215,0.015211,0.013400,0.019237,0.019448,0.029529,0.042171,0.013123,0.025067,0.028074,0.055324,0.011652,0.031277,0.031930,0.022056,0.034178,0.044808,0.027424,0.043780,0.011743,0.011756,0.009965,0.013343,0.020704,0.033961,0.034775,0.046344,0.026565,0.038405,0.041081,0.026055,0.032606,0.012485,0.030630,0.017410,0.012493,0.022200,0.030271,0.029351,0.032847,0.026448,0.014604,0.015296,0.017299,0.022329,0.043304,0.026877,0.028714,0.028501,0.025820,0.058209,0.035916,0.029020,0.027408,0.051454,0.030079,0.057491,0.014087,0.036184,0.054496,0.017072,0.043179,0.030338,0.041171
1738755264.257361,1738755264.258359,15.000000,0.000000,4320.641113,4348.846191,4253.205078,4303.974121,4352.563965,4360.256348,4364.230957,4549.871582,4537.820313,4560.512695,4496.410156,5664.871582,4312.436035,4259.615234,0.000000,4.000000,75.000000,,,,0.000000,0.000000,0.000000,0.000000,0.000000,0.000000,0.000000,0.000000,0.000000,0.000000,0.000000,0.000000,0.000000,0.000000,0.000000,0.000000,,,,,,,,,,,,,,,,,,,,,,,,,,,,,,,,,,,,,,,,,,,,,,,,,,,,,,,,,,,,,,,,,,,,,,,,,,,,,,,,,,,,,,,,,,,,,,,,,,,,,,,,,,,,,,,,,,,,,,,,,,,,,,,,,
1738755264.265169,1738755264.266167,16.000000,0.000000,4321.794922,4349.358887,4253.717773,4303.846191,4354.871582,4361.025879,4365.128418,4551.282227,4542.307617,4558.333496,4497.820313,5663.589844,4313.589844,4259.358887,0.000000,4.000000,75.000000,,,,0.000000,0.000000,0.000000,0.000000,0.000000,0.000000,0.000000,0.000000,0.000000,0.000000,0.000000,0.000000,0.000000,0.000000,0.000000,0.000000,,,,,,,,,,,,,,,,,4.000000,0.000000,0.785645,-0.615112,-0.060852,0.026367,0.066414,-0.977170,0.232450,4.429263,-15.389470,22.656330,,,,,,,,,,,,,,,,,,,,,,,,,,,,,,,,,,,,,,,,,,,,,,,,,,,,,,,,,,,,,,,,,,,,,,,,,,,,,,,,,,,,,,,,,,,,,,,,,,,,,
1738755264.272977,1738755264.273875,17.000000,0.000000,4323.333496,4349.230957,4253.461426,4302.179688,4356.666504,4363.717773,4366.282227,4553.461426,4540.769043,4558.589844,4498.717773,5663.717773,4311.922852,4258.717773,0.000000,4.000000,75.000000,,,,0.000000,0.000000,0.000000,0.000000,0.000000,0.000000,0.000000,0.000000,0.000000,0.000000,0.000000,0.000000,0.000000,0.000000,0.000000,0.000000,,,,,,,,,,,,,,,,,,,,,,,,,,,,,,,,,,,,,,,,,,,,,,,,,,,,,,,,,,,,,,,,,,,,,,,,,,,,,,,,,,,,,,,,,,,,,,,,,,,,,,,,,,,,,,,,,,,,,,,,,,,,,,,,,
1738755264.280785,1738755264.281683,18.000000,0.000000,4323.333496,4349.871582,4252.179688,4299.102539,4350.641113,4362.820313,4365.512695,4551.666504,4536.410156,4559.487305,4497.436035,5665.384766,4310.128418,4260.641113,0.000000,4.000000,75.000000,,,,0.000000,0.000000,0.000000,0.000000,0.000000,0.000000,0.000000,0.000000,0.000000,0.000000,0.000000,0.000000,0.000000,0.000000,0.000000,0.000000,,,,,,,,,,,,,,,,,,,,,,,,,,,,,,,,,,,,,,,,,,,,,,,,,,,,,,,,,,,,,,,,,,,,,,,,,,,,,,,,,,,,,,,,,,,,,,,,,,,,,,,,,,,,,,,,,,,,,,,,,,,,,,,,,
1738755264.288593,1738755264.289392,19.000000,0.000000,4322.307617,4349.871582,4253.974121,4300.641113,4347.179688,4360.384766,4365.128418,4547.692383,4537.436035,4561.922852,4495.256348,5664.615234,4308.846191,4259.743652,0.000000,4.000000,75.000000,,,,0.000000,0.000000,0.000000,0.000000,0.000000,0.000000,0.000000,0.000000,0.000000,0.000000,0.000000,0.000000,0.000000,0.000000,0.000000,0.000000,,,,,,,,,,,,,,,,,,,,,,,,,,,,,,,,,,,,,,,,,,,,,,,,,,,,,,,,,,,,,,,,,,,,,,,,,,,,,,,,,,,,,,,,,,,,,,,,,,,,,,,,,,,,,,,,,,,,,,,,,,,,,,,,,
1738755264.296402,1738755264.297300,20.000000,0.000000,4322.179688,4349.102539,4255.384766,4306.922852,4354.743652,4361.794922,4366.922852,4549.487305,4540.641113,4562.179688,4494.615234,5661.282227,4310.000000,4257.307617,0.000000,4.000000,75.000000,,,,0.000000,0.000000,0.000000,0.000000,0.000000,0.000000,0.000000,0.000000,0.000000,0.000000,0.000000,0.000000,0.000000,0.000000,0.000000,0.000000,,,,,,,,,,,,,,,,,5.000000,0.000000,0.785641,-0.615112,-0.060913,0.026367,0.063484,-0.980100,0.224637,4.319670,-15.300523,22.840696,,,,,,,,,,,,,,,,,,,,,,,,,,,,,,,,,,,,,,,,,,,,,,,,,,,,,,,,,,,,,,,,,,,,,,,,,,,,,,,,,,,,,,,,,,,,,,,,,,,,,
1738755264.304210,1738755264.305108,21.000000,0.000000,4322.563965,4350.769043,4252.820313,4306.666504,4357.051270,4362.692383,4365.897461,4552.179688,4541.153809,4559.615234,4496.538574,5661.922852,4309.743652,4257.820313,0.000000,4.000000,75.000000,,,,0.000000,0.000000,0.000000,0.000000,0.000000,0.000000,0.000000,0.000000,0.000000,0.000000,0.000000,0.000000,0.000000,0.000000,0.000000,0.000000,,,,,,,,,,,,,,,,,,,,,,,,,,,,,,,,,,,,,,,,,,,,,,,,,,,,,,,,,,,,,,,,,,,,,,,,,,,,,,,,,,,,,,,,,,,,,,,,,,,,,,,,,,,,,,,,,,,,,,,,,,,,,,,,,
1738755264.312018,1738755264.313016,22.000000,0.000000,4321.025879,4351.410156,4252.948730,4303.205078,4349.743652,4360.512695,4364.615234,4552.563965,4539.358887,4558.077148,4498.205078,5666.410156,4307.307617,4257.436035,0.000000,4.000000,75.000000,,,,0.000000,0.000000,0.000000,0.000000,0.000000,0.000000,0.000000,0.000000,0.000000,0.000000,0.000000,0.000000,0.000000,0.000000,0.000000,0.000000,,,,,,,,,,,,,,,,,,,,,,,,,,,,,,,,,,,,,,,,,,,,,,,,,,,,,,,,,,,,,,,,,,,,,,,,,,,,,,,,,,,,,,,,,,,,,,,,,,,,,,,,,,,,,,,,,,,,,,,,,,,,,,,,,
1738755264.319826,1738755264.320824,23.000000,0.000000,4320.256348,4351.410156,4255.128418,4303.205078,4349.230957,4360.256348,4365.256348,4551.282227,4539.871582,4560.256348,4499.102539,5665.897461,4311.922852,4256.025879,0.000000,4.000000,75.000000,,,,0.000000,0.000000,0.000000,0.000000,0.000000,0.000000,0.000000,0.000000,0.000000,0.000000,0.000000,0.000000,0.000000,0.000000,0.000000,0.000000,,,,,,,,,,,,,,,,,,,,,,,,,,,,,,,,,,,,,,,,,,,,,,,,,,,,,,,,,,,,,,,,,,,,,,,,,,,,,,,,,,,,,,,,,,,,,,,,,,,,,,,,,,,,,,,,,,,,,,,,,,,,,,,,,
1738755264.327634,1738755264.328632,24.000000,0.000000,4322.563965,4349.230957,4255.512695,4305.128418,4355.000000,4361.282227,4364.358887,4550.000000,4541.410156,4561.922852,4498.205078,5663.333496,4314.487305,4256.922852,0.000000,4.000000,75.000000,,,,0.000000,0.000000,0.000000,0.000000,0.000000,0.000000,0.000000,0.000000,0.000000,0.000000,0.000000,0.000000,0.000000,0.000000,0.000000,0.000000,,,,,,,,,,,,,,,,,6.000000,0.000000,0.785641,-0.615112,-0.060913,0.026367,0.055183,-0.968868,0.236357,4.371037,-15.420471,22.939960,,,,,,,,,,,,,,,,,,,,,,,,,,,,,,,,,,,,,,,,,,,,,,,,,,,,,,,,,,,,,,,,,,,,,,,,,,,,,,,,,,,,,,,,,,,,,,,,,,,,,
1738755264.335442,1738755264.336340,25.000000,0.000000,4322.692383,4346.410156,4253.589844,4304.358887,4353.974121,4361.538574,4363.205078,4549.615234,4541.922852,4559.871582,4496.025879,5665.000000,4311.666504,4257.820313,0.000000,4.000000,75.000000,,,,0.000000,0.000000,0.000000,0.000000,0.000000,0.000000,0.000000,0.000000,0.000000,0.000000,0.000000,0.000000,0.000000,0.000000,0.000000,0.000000,,,,,,,,,,,,,,,,,,,,,,,,,,,,,,,,,,,,,,,,,,,,,,,,,,,,,,,,,,,,,,,,,,,,,,,,,,,,,,,,,,,,,,,,,,,,,,,,,,,,,,,,,,,,,,,,,,,,,,,,,,,,,,,,,
1738755264.343250,1738755264.344148,26.000000,0.000000,4319.615234,4347.692383,4251.922852,4301.282227,4351.153809,4361.922852,4362.436035,4548.461426,4542.436035,4559.615234,4496.025879,5663.461426,4312.948730,4257.948730,0.000000,4.000000,75.000000,,,,0.000000,0.000000,0.000000,0.000000,0.000000,0.000000,0.000000,0.000000,0.000000,0.000000,0.000000,0.000000,0.000000,0.000000,0.000000,0.000000,,,,,,,,,,,,,,,,,,,,,,,,,,,,,,,,,,,,,,,,,,,,,,,,,,,,,,,,,,,,,,,,,,,,,,,,,,,,,,,,,,,,,,,,,,,,,,,,,,,,,,,,,,,,,,,,,,,,,,,,,,,,,,,,,
1738755264.351058,1738755264.351857,27.000000,0.000000,4321.282227,4351.282227,4253.974121,4304.487305,4353.846191,4361.666504,4361.153809,4547.820313,4542.948730,4560.897461,4496.282227,5659.487305,4310.897461,4259.743652,0.000000,4.000000,75.000000,,,,0.000000,0.000000,0.000000,0.000000,0.000000,0.000000,0.000000,0.000000,0.000000,0.000000,0.000000,0.000000,0.000000,0.000000,0.000000,0.000000,,,,,,,,,,,,,,,,,,,,,,,,,,,,,,,,,,,,,,,,,,,,,,,,,,,,,,,,,,,,,,,,,,,,,,,,,,,,,,,,,,,,,,,,,,,,,,,,,,,,,,,,,,,,,,,,,,,,,,,,,,,,,,,,,
1738755264.358866,1738755264.359664,28.000000,0.000000,4326.025879,4352.179688,4256.282227,4306.538574,4354.615234,4360.769043,4361.410156,4549.358887,4541.410156,4560.641113,4496.025879,5661.282227,4306.025879,4259.615234,0.000000,4.000000,75.000000,,,,0.000000,0.000000,0.000000,0.000000,0.000000,0.000000,0.000000,0.000000,0.000000,0.000000,0.000000,0.000000,0.000000,0.000000,0.000000,0.000000,,,,,,,,,,,,,,,,,7.000000,0.000000,0.785641,-0.615112,-0.060913,0.026367,0.059578,-0.977170,0.230985,4.383933,-15.461757,23.012630,,,,,,,,,,,,,,,,,,,,,,,,,,,,,,,,,,,,,,,,,,,,,,,,,,,,,,,,,,,,,,,,,,,,,,,,,,,,,,,,,,,,,,,,,,,,,,,,,,,,,
1738755264.366675,1738755264.367373,29.000000,0.000000,4324.358887,4350.128418,4254.487305,4302.820313,4350.128418,4360.128418,4365.256348,4551.025879,4539.358887,4560.512695,4496.794922,5663.974121,4306.666504,4257.563965,0.000000,4.000000,75.000000,,,,0.000000,0.000000,0.000000,0.000000,0.000000,0.000000,0.000000,0.000000,0.000000,0.000000,0.000000,0.000000,0.000000,0.000000,0.000000,0.000000,,,,,,,,,,,,,,,,,,,,,,,,,,,,,,,,,,,,,,,,,,,,,,,,,,,,,,,,,,,,,,,,,,,,,,,,,,,,,,,,,,,,,,,,,,,,,,,,,,,,,,,,,,,,,,,,,,,,,,,,,,,,,,,,,
1738755264.374483,1738755264.375281,30.000000,0.000000,4320.897461,4348.589844,4251.666504,4302.948730,4348.846191,4359.230957,4365.512695,4549.230957,4538.846191,4562.436035,4498.205078,5661.025879,4311.153809,4258.974121,0.000000,4.000000,75.000000,,,,0.000000,0.000000,0.000000,0.000000,0.000000,0.000000,0.000000,0.000000,0.000000,0.000000,0.000000,0.000000,0.000000,0.000000,0.000000,0.000000,1.000000,0.000000,0.000000,0.000000,0.000000,0.000000,0.000000,0.000000,0.000000,0.000000,0.000000,0.000000,0.000000,0.000000,0.000000,0.000000,,,,,,,,,,,,,,,,,,,,,,,,,,,,,,,,,,,,,,,,,,,,0.027931,0.018022,0.011495,0.038527,0.030056,0.026951,0.013028,0.015335,0.012533,0.019992,0.019611,0.026891,0.035637,0.013902,0.026168,0.028442,0.057433,0.013563,0.027049,0.030069,0.023225,0.029223,0.044666,0.023230,0.038089,0.012105,0.007574,0.008536,0.014445,0.019696,0.031771,0.042758,0.053079,0.025355,0.039612,0.046256,0.027353,0.033551,0.011396,0.031215,0.017612,0.012591,0.020734,0.032177,0.031981,0.034894,0.027303,0.015333,0.015185,0.017615,0.023001,0.040077,0.028392,0.029244,0.030717,0.019024,0.040065,0.034601,0.027646,0.030371,0.060683,0.027170,0.056010,0.015250,0.034848,0.053270,0.018074,0.046519,0.033000,0.037126
1738755264.382291,1738755264.383089,31.000000,0.000000,4320.256348,4349.871582,4251.794922,4305.128418,4350.641113,4360.000000,4364.230957,4545.897461,4539.358887,4564.230957,4498.205078,5658.333496,4312.307617,4258.205078,0.000000,4.000000,75.000000,,,,0.000000,0.000000,0.000000,0.000000,0.000000,0.000000,0.000000,0.000000,0.000000,0.000000,0.000000,0.000000,0.000000,0.000000,0.000000,0.000000,,,,,,,,,,,,,,,,,,,,,,,,,,,,,,,,,,,,,,,,,,,,,,,,,,,,,,,,,,,,,,,,,,,,,,,,,,,,,,,,,,,,,,,,,,,,,,,,,,,,,,,,,,,,,,,,,,,,,,,,,,,,,,,,,
1738755264.390099,1738755264.390897,32.000000,0.000000,4321.666504,4351.666504,4252.436035,4305.769043,4350.641113,4362.051270,4366.282227,4544.487305,4540.641113,4562.051270,4495.512695,5661.794922,4305.897461,4253.589844,0.000000,4.000000,75.000000,,,,0.000000,0.000000,0.000000,0.000000,0.000000,0.000000,0.000000,0.000000,0.000000,0.000000,0.000000,0.000000,0.000000,0.000000,0.000000,0.000000,,,,,,,,,,,,,,,,,8.000000,0.000000,0.785602,-0.615173,-0.060791,0.026367,0.062996,-0.977170,0.239287,4.462206,-15.432248,23.061367,,,,,,,,,,,,,,,,,,,,,,,,,,,,,,,,,,,,,,,,,,,,,,,,,,,,,,,,,,,,,,,,,,,,,,,,,,,,,,,,,,,,,,,,,,,,,,,,,,,,,
1738755264.397907,1738755264.398605,33.000000,0.000000,4322.692383,4352.051270,4254.102539,4304.487305,4352.307617,4361.153809,4366.794922,4546.538574,4541.410156,4559.102539,4494.615234,5662.820313,4305.897461,4255.000000,0.000000,4.000000,75.000000,,,,0.000000,0.000000,0.000000,0.000000,0.000000,0.000000,0.000000,0.000000,0.000000,0.000000,0.000000,0.000000,0.000000,0.000000,0.000000,0.000000,,,,,,,,,,,,,,,,,,,,,,,,,,,,,,,,,,,,,,,,,,,,,,,,,,,,,,,,,,,,,,,,,,,,,,,,,,,,,,,,,,,,,,,,,,,,,,,,,,,,,,,,,,,,,,,,,,,,,,,,,,,,,,,,,
1738755264.405715,1738755264.406513,34.000000,0.000000,4322.436035,4352.692383,4256.025879,4302.179688,4354.230957,4360.641113,4365.512695,4550.769043,4541.282227,4559.871582,4497.436035,5660.000000,4311.666504,4257.692383,0.000000,4.000000,75.000000,,,,0.000000,0.000000,0.000000,0.000000,0.000000,0.000000,0.000000,0.000000,0.000000,0.000000,0.000000,0.000000,0.000000,0.000000,0.000000,0.000000,,,,,,,,,,,,,,,,,,,,,,,,,,,,,,,,,,,,,,,,,,,,,,,,,,,,,,,,,,,,,,,,,,,,,,,,,,,,,,,,,,,,,,,,,,,,,,,,,,,,,,,,,,,,,,,,,,,,,,,,,,,,,,,,,
1738755264.413523,1738755264.414421,35.000000,0.000000,4322.179688,4353.333496,4254.487305,4301.410156,4353.974121,4361.538574,4365.641113,4551.282227,4539.743652,4561.025879,4498.461426,5662.307617,4308.974121,4254.615234,0.000000,4.000000,75.000000,,,,0.000000,0.000000,0.000000,0.000000,0.000000,0.000000,0.000000,0.000000,0.000000,0.000000,0.000000,0.000000,0.000000,0.000000,0.000000,0.000000,,,,,,,,,,,,,,,,,,,,,,,,,,,,,,,,,,,,,,,,,,,,,,,,,,,,,,,,,,,,,,,,,,,,,,,,,,,,,,,,,,,,,,,,,,,,,,,,,,,,,,,,,,,,,,,,,,,,,,,,,,,,,,,,,
1738755264.421331,1738755264.422230,36.000000,0.000000,4322.179688,4351.410156,4253.205078,4302.179688,4352.307617,4360.512695,4365.384766,4549.102539,4538.077148,4561.153809,4495.256348,5663.974121,4306.153809,4253.974121,0.000000,4.000000,75.000000,,,,0.000000,0.000000,0.000000,0.000000,0.000000,0.000000,0.000000,0.000000,0.000000,0.000000,0.000000,0.000000,0.000000,0.000000,0.000000,0.000000,,,,,,,,,,,,,,,,,9.000000,0.000000,0.785647,-0.615112,-0.060852,0.026306,0.068856,-0.970822,0.236357,4.449319,-15.405690,23.055231,,,,,,,,,,,,,,,,,,,,,,,,,,,,,,,,,,,,,,,,,,,,,,,,,,,,,,,,,,,,,,,,,,,,,,,,,,,,,,,,,,,,,,,,,,,,,,,,,,,,,
1738755264.429139,1738755264.430038,37.000000,0.000000,4322.307617,4350.256348,4253.077148,4302.307617,4351.410156,4360.897461,4365.256348,4549.102539,4537.307617,4561.025879,4494.615234,5662.948730,4305.897461,4255.384766,0.000000,4.000000,75.000000,,,,0.000000,0.000000,0.000000,0.000000,0.000000,0.000000,0.000000,0.000000,0.000000,0.000000,0.000000,0.000000,0.000000,0.000000,0.000000,0.000000,,,,,,,,,,,,,,,,,,,,,,,,,,,,,,,,,,,,,,,,,,,,,,,,,,,,,,,,,,,,,,,,,,,,,,,,,,,,,,,,,,,,,,,,,,,,,,,,,,,,,,,,,,,,,,,,,,,,,,,,,,,,,,,,,
1738755264.436947,1738755264.437746,38.000000,0.000000,4321.153809,4349.102539,4252.948730,4299.358887,4352.692383,4363.333496,4365.512695,4550.897461,4538.846191,4559.230957,4499.871582,5663.589844,4307.307617,4256.282227,0.000000,4.000000,75.000000,,,,0.000000,0.000000,0.000000,0.000000,0.000000,0.000000,0.000000,0.000000,0.000000,0.000000,0.000000,0.000000,0.000000,0.000000,0.000000,0.000000,,,,,,,,,,,,,,,,,,,,,,,,,,,,,,,,,,,,,,,,,,,,,,,,,,,,,,,,,,,,,,,,,,,,,,,,,,,,,,,,,,,,,,,,,,,,,,,,,,,,,,,,,,,,,,,,,,,,,,,,,,,,,,,,,
1738755264.444755,1738755264.445554,39.000000,0.000000,4319.743652,4347.563965,4254.615234,4299.487305,4351.666504,4362.436035,4363.205078,4551.538574,4541.153809,4558.717773,4501.153809,5663.717773,4310.000000,4256.922852,0.000000,4.000000,75.000000,,,,0.000000,0.000000,0.000000,0.000000,0.000000,0.000000,0.000000,0.000000,0.000000,0.000000,0.000000,0.000000,0.000000,0.000000,0.000000,0.000000,,,,,,,,,,,,,,,,,,,,,,,,,,,,,,,,,,,,,,,,,,,,,,,,,,,,,,,,,,,,,,,,,,,,,,,,,,,,,,,,,,,,,,,,,,,,,,,,,,,,,,,,,,,,,,,,,,,,,,,,,,,,,,,,,
1738755264.452564,1738755264.453263,40.000000,0.000000,4320.512695,4349.743652,4256.153809,4305.897461,4349.102539,4359.102539,4364.358887,4550.641113,4540.512695,4560.384766,4496.538574,5662.820313,4307.563965,4253.077148,0.000000,4.000000,75.000000,,,,0.000000,0.000000,0.000000,0.000000,0.000000,0.000000,0.000000,0.000000,0.000000,0.000000,0.000000,0.000000,0.000000,0.000000,0.000000,0.000000,,,,,,,,,,,,,,,,,10.000000,0.000000,0.785647,-0.615112,-0.060852,0.026306,0.047857,-0.968868,0.238310,4.537720,-15.265121,22.833042,,,,,,,,,,,,,,,,,,,,,,,,,,,,,,,,,,,,,,,,,,,,,,,,,,,,,,,,,,,,,,,,,,,,,,,,,,,,,,,,,,,,,,,,,,,,,,,,,,,,,
1738755264.460372,1738755264.461071,41.000000,0.000000,4321.666504,4351.538574,4256.538574,4305.769043,4351.410156,4359.743652,4367.820313,4549.230957,4541.666504,4561.282227,4495.897461,5661.794922,4306.282227,4252.307617,0.000000,4.000000,75.000000,,,,0.000000,0.000000,0.000000,0.000000,0.000000,0.000000,0.000000,0.000000,0.000000,0.000000,0.000000,0.000000,0.000000,0.000000,0.000000,0.000000,,,,,,,,,,,,,,,,,,,,,,,,,,,,,,,,,,,,,,,,,,,,,,,,,,,,,,,,,,,,,,,,,,,,,,,,,,,,,,,,,,,,,,,,,,,,,,,,,,,,,,,,,,,,,,,,,,,,,,,,,,,,,,,,,
1738755264.468180,1738755264.468779,42.000000,0.000000,4323.205078,4350.000000,4256.410156,4300.384766,4354.102539,4360.897461,4367.692383,4551.410156,4542.307617,4560.384766,4498.461426,5662.692383,4307.563965,4253.717773,0.000000,4.000000,75.000000,,,,0.000000,0.000000,0.000000,0.000000,0.000000,0.000000,0.000000,0.000000,0.000000,0.000000,0.000000,0.000000,0.000000,0.000000,0.000000,0.000000,,,,,,,,,,,,,,,,,,,,,,,,,,,,,,,,,,,,,,,,,,,,,,,,,,,,,,,,,,,,,,,,,,,,,,,,,,,,,,,,,,,,,,,,,,,,,,,,,,,,,,,,,,,,,,,,,,,,,,,,,,,,,,,,,
1738755264.475988,1738755264.476587,43.000000,0.000000,4324.102539,4348.461426,4253.205078,4300.769043,4352.179688,4360.256348,4365.384766,4552.948730,4539.871582,4559.230957,4499.743652,5663.077148,4308.205078,4253.589844,0.000000,4.000000,75.000000,,,,0.000000,0.000000,0.000000,0.000000,0.000000,0.000000,0.000000,0.000000,0.000000,0.000000,0.000000,0.000000,0.000000,0.000000,0.000000,0.000000,,,,,,,,,,,,,,,,,,,,,,,,,,,,,,,,,,,,,,,,,,,,,,,,,,,,,,,,,,,,,,,,,,,,,,,,,,,,,,,,,,,,,,,,,,,,,,,,,,,,,,,,,,,,,,,,,,,,,,,,,,,,,,,,,
1738755264.483796,1738755264.484295,44.000000,0.000000,4323.846191,4348.333496,4250.128418,4300.641113,4350.256348,4360.769043,4363.077148,4552.563965,4539.102539,4559.102539,4498.205078,5662.179688,4311.666504,4254.487305,0.000000,4.000000,75.000000,,,,0.000000,0.000000,0.000000,0.000000,0.000000,0.000000,0.000000,0.000000,0.000000,0.000000,0.000000,0.000000,0.000000,0.000000,0.000000,0.000000,,,,,,,,,,,,,,,,,11.000000,0.000000,0.785650,-0.615112,-0.060791,0.026367,0.061043,-0.969845,0.235380,4.600615,-15.121943,22.816404,,,,,,,,,,,,,,,,,,,,,,,,,,,,,,,,,,,,,,,,,,,,,,,,,,,,,,,,,,,,,,,,,,,,,,,,,,,,,,,,,,,,,,,,,,,,,,,,,,,,,
1738755264.491604,1738755264.492103,45.000000,0.000000,4323.333496,4350.897461,4253.461426,4298.974121,4350.897461,4360.512695,4364.358887,4551.025879,4540.000000,4560.384766,4494.230957,5663.717773,4310.384766,4252.820313,0.000000,4.000000,75.000000,,,,0.000000,0.000000,0.000000,0.000000,0.000000,0.000000,0.000000,0.000000,0.000000,0.000000,0.000000,0.000000,0.000000,0.000000,0.000000,0.000000,,,,,,,,,,,,,,,,,,,,,,,,,,,,,,,,,,,,,,,,,,,,,,,,,,,,,,,,,,,,,,,,,,,,,,,,,,,,,,,,,,,,,,,,,,,,,,,,,,,,,,,,,,,,,,,,,,,,,,,,,,,,,,,,,
1738755264.499412,1738755264.499811,46.000000,0.000000,4322.051270,4350.641113,4256.794922,4301.153809,4352.307617,4358.333496,4363.717773,4546.794922,4540.256348,4561.794922,4493.461426,5662.307617,4306.153809,4255.256348,0.000000,4.000000,75.000000,,,,0.000000,0.000000,0.000000,0.000000,0.000000,0.000000,0.000000,0.000000,0.000000,0.000000,0.000000,0.000000,0.000000,0.000000,0.000000,0.000000,,,,,,,,,,,,,,,,,,,,,,,,,,,,,,,,,,,,,,,,,,,,,,,,,,,,,,,,,,,,0.026255,0.016851,0.011032,0.038487,0.029125,0.023486,0.009181,0.016528,0.012891,0.021262,0.020666,0.026224,0.030258,0.015589,0.027763,0.031842,0.059812,0.015248,0.022853,0.027554,0.023694,0.025820,0.039930,0.019617,0.031410,0.012769,0.004881,0.007507,0.016421,0.019142,0.030928,0.051778,0.059021,0.023777,0.039308,0.051445,0.028269,0.032156,0.011064,0.031318,0.020265,0.012123,0.018406,0.033036,0.032452,0.037381,0.027921,0.015659,0.015832,0.017973,0.023999,0.035687,0.030154,0.029403,0.032219,0.014222,0.026311,0.031025,0.026992,0.033315,0.066232,0.027748,0.051761,0.016869,0.034025,0.047580,0.020447,0.050912,0.034633,0.032949
1738755264.507220,1738755264.507619,47.000000,0.000000,4323.461426,4349.230957,4255.256348,4303.589844,4350.769043,4359.487305,4362.563965,4547.563965,4540.000000,4562.051270,4496.538574,5660.256348,4303.974121,4257.563965,0.000000,4.000000,75.000000,,,,0.000000,0.000000,0.000000,0.000000,0.000000,0.000000,0.000000,0.000000,0.000000,0.000000,0.000000,0.000000,0.000000,0.000000,0.000000,0.000000,,,,,,,,,,,,,,,,,,,,,,,,,,,,,,,,,,,,,,,,,,,,,,,,,,,,,,,,,,,,,,,,,,,,,,,,,,,,,,,,,,,,,,,,,,,,,,,,,,,,,,,,,,,,,,,,,,,,,,,,,,,,,,,,,
1738755264.515028,1738755264.515327,48.000000,0.000000,4324.615234,4351.794922,4252.948730,4300.769043,4348.717773,4363.461426,4366.666504,4549.615234,4539.743652,4561.794922,4497.307617,5663.589844,4303.717773,4252.563965,0.000000,4.000000,75.000000,,,,0.000000,0.000000,0.000000,0.000000,0.000000,0.000000,0.000000,0.000000,0.000000,0.000000,0.000000,0.000000,0.000000,0.000000,0.000000,0.000000,,,,,,,,,,,,,,,,,12.000000,0.000000,0.785652,-0.615112,-0.060791,0.026306,0.062508,-0.977658,0.230497,4.423887,-15.093081,22.651430,,,,,,,,,,,,,,,,,,,,,,,,,,,,,,,,,,,,,,,,,,,,,,,,,,,,,,,,,,,,,,,,,,,,,,,,,,,,,,,,,,,,,,,,,,,,,,,,,,,,,
1738755264.522837,1738755264.523135,49.000000,0.000000,4322.179688,4351.794922,4252.820313,4299.871582,4350.641113,4363.333496,4368.589844,4546.794922,4539.358887,4560.000000,4495.769043,5664.230957,4307.692383,4255.256348,0.000000,4.000000,75.000000,,,,0.000000,0.000000,0.000000,0.000000,0.000000,0.000000,0.000000,0.000000,0.000000,0.000000,0.000000,0.000000,0.000000,0.000000,0.000000,0.000000,,,,,,,,,,,,,,,,,,,,,,,,,,,,,,,,,,,,,,,,,,,,,,,,,,,,,,,,,,,,,,,,,,,,,,,,,,,,,,,,,,,,,,,,,,,,,,,,,,,,,,,,,,,,,,,,,,,,,,,,,,,,,,,,,
1738755264.530645,1738755264.530843,50.000000,0.000000,4322.436035,4349.871582,4254.871582,4303.077148,4350.897461,4360.256348,4364.615234,4548.717773,4542.051270,4559.871582,4494.487305,5661.922852,4308.717773,4260.000000,0.000000,4.000000,75.000000,,,,0.000000,0.000000,0.000000,0.000000,0.000000,0.000000,0.000000,0.000000,0.000000,0.000000,0.000000,0.000000,0.000000,0.000000,0.000000,0.000000,,,,,,,,,,,,,,,,,,,,,,,,,,,,,,,,,,,,,,,,,,,,,,,,,,,,,,,,,,,,,,,,,,,,,,,,,,,,,,,,,,,,,,,,,,,,,,,,,,,,,,,,,,,,,,,,,,,,,,,,,,,,,,,,,
1738755264.538453,1738755264.538651,51.000000,0.000000,4324.487305,4350.512695,4256.666504,4305.128418,4347.692383,4359.871582,4362.307617,4551.538574,4543.846191,4562.307617,4496.025879,5662.179688,4307.436035,4254.871582,0.000000,4.000000,75.000000,,,,0.000000,0.000000,0.000000,0.000000,0.000000,0.000000,0.000000,0.000000,0.000000,0.000000,0.000000,0.000000,0.000000,0.000000,0.000000,0.000000,,,,,,,,,,,,,,,,,,,,,,,,,,,,,,,,,,,,,,,,,,,,,,,,,,,,,,,,,,,,,,,,,,,,,,,,,,,,,,,,,,,,,,,,,,,,,,,,,,,,,,,,,,,,,,,,,,,,,,,,,,,,,,,,,
1738755264.546261,1738755264.546359,52.000000,0.000000,4323.974121,4352.051270,4255.384766,4307.563965,4349.102539,4360.641113,4365.000000,4549.230957,4539.230957,4561.025879,4497.563965,5662.948730,4307.051270,4253.205078,0.000000,4.000000,75.000000,,,,0.000000,0.000000,0.000000,0.000000,0.000000,0.000000,0.000000,0.000000,0.000000,0.000000,0.000000,0.000000,0.000000,0.000000,0.000000,0.000000,,,,,,,,,,,,,,,,,13.000000,0.000000,0.785643,-0.615112,-0.060913,0.026306,0.072274,-0.975705,0.238310,4.414832,-15.183773,22.769621,,,,,,,,,,,,,,,,,,,,,,,,,,,,,,,,,,,,,,,,,,,,,,,,,,,,,,,,,,,,,,,,,,,,,,,,,,,,,,,,,,,,,,,,,,,,,,,,,,,,,
1738755264.554069,1738755264.554167,53.000000,0.000000,4322.820313,4352.948730,4254.358887,4307.820313,4351.538574,4358.974121,4364.743652,4549.743652,4538.205078,4558.589844,4496.538574,5662.948730,4307.179688,4260.256348,0.000000,4.000000,75.000000,,,,0.000000,0.000000,0.000000,0.000000,0.000000,0.000000,0.000000,0.000000,0.000000,0.000000,0.000000,0.000000,0.000000,0.000000,0.000000,0.000000,,,,,,,,,,,,,,,,,,,,,,,,,,,,,,,,,,,,,,,,,,,,,,,,,,,,,,,,,,,,,,,,,,,,,,,,,,,,,,,,,,,,,,,,,,,,,,,,,,,,,,,,,,,,,,,,,,,,,,,,,,,,,,,,,
1738755264.561877,1738755264.561875,54.000000,0.000000,4321.410156,4351.922852,4253.333496,4305.000000,4348.461426,4356.922852,4361.282227,4550.128418,4540.897461,4561.922852,4495.641113,5663.077148,4309.743652,4260.128418,0.000000,4.000000,75.000000,,,,0.000000,0.000000,0.000000,0.000000,0.000000,0.000000,0.000000,0.000000,0.000000,0.000000,0.000000,0.000000,0.000000,0.000000,0.000000,0.000000,,,,,,,,,,,,,,,,,,,,,,,,,,,,,,,,,,,,,,,,,,,,,,,,,,,,,,,,,,,,,,,,,,,,,,,,,,,,,,,,,,,,,,,,,,,,,,,,,,,,,,,,,,,,,,,,,,,,,,,,,,,,,,,,,
1738755264.569685,1738755264.569783,55.000000,0.000000,4320.641113,4351.282227,4253.717773,4302.563965,4347.692383,4357.820313,4361.410156,4547.820313,4538.589844,4565.128418,4495.384766,5662.820313,4310.384766,4254.615234,0.000000,4.000000,75.000000,,,,0.000000,0.000000,0.000000,0.000000,0.000000,0.000000,0.000000,0.000000,0.000000,0.000000,0.000000,0.000000,0.000000,0.000000,0.000000,0.000000,,,,,,,,,,,,,,,,,,,,,,,,,,,,,,,,,,,,,,,,,,,,,,,,,,,,,,,,,,,,,,,,,,,,,,,,,,,,,,,,,,,,,,,,,,,,,,,,,,,,,,,,,,,,,,,,,,,,,,,,,,,,,,,,,
1738755264.577493,1738755264.577591,56.000000,0.000000,4321.666504,4353.333496,4256.410156,4301.153809,4351.794922,4358.205078,4362.563965,4550.256348,4536.153809,4561.922852,4496.282227,5660.384766,4310.256348,4255.384766,0.000000,4.000000,75.000000,,,,0.000000,0.000000,0.000000,0.000000,0.000000,0.000000,0.000000,0.000000,0.000000,0.000000,0.000000,0.000000,0.000000,0.000000,0.000000,0.000000,,,,,,,,,,,,,,,,,14.000000,0.000000,0.785643,-0.615112,-0.060913,0.026306,0.059089,-0.965938,0.248565,4.340015,-15.282063,22.659325,,,,,,,,,,,,,,,,,,,,,,,,,,,,,,,,,,,,,,,,,,,,,,,,,,,,,,,,,,,,,,,,,,,,,,,,,,,,,,,,,,,,,,,,,,,,,,,,,,,,,
1738755264.585301,1738755264.585500,57.000000,0.000000,4321.922852,4354.487305,4257.051270,4301.410156,4352.563965,4357.436035,4362.820313,4551.153809,4539.102539,4558.333496,4497.307617,5661.794922,4309.230957,4257.436035,0.000000,4.000000,75.000000,,,,0.000000,0.000000,0.000000,0.000000,0.000000,0.000000,0.000000,0.000000,0.000000,0.000000,0.000000,0.000000,0.000000,0.000000,0.000000,0.000000,,,,,,,,,,,,,,,,,,,,,,,,,,,,,,,,,,,,,,,,,,,,,,,,,,,,,,,,,,,,,,,,,,,,,,,,,,,,,,,,,,,,,,,,,,,,,,,,,,,,,,,,,,,,,,,,,,,,,,,,,,,,,,,,,
1738755264.593109,1738755264.593308,58.000000,0.000000,4321.666504,4348.589844,4253.077148,4301.410156,4351.794922,4358.717773,4365.000000,4548.974121,4541.666504,4560.128418,4495.641113,5665.384766,4306.666504,4255.769043,0.000000,4.000000,75.000000,,,,0.000000,0.000000,0.000000,0.000000,0.000000,0.000000,0.000000,0.000000,0.000000,0.000000,0.000000,0.000000,0.000000,0.000000,0.000000,0.000000,,,,,,,,,,,,,,,,,,,,,,,,,,,,,,,,,,,,,,,,,,,,,,,,,,,,,,,,,,,,,,,,,,,,,,,,,,,,,,,,,,,,,,,,,,,,,,,,,,,,,,,,,,,,,,,,,,,,,,,,,,,,,,,,,
1738755264.600917,1738755264.601216,59.000000,0.000000,4323.717773,4345.256348,4250.897461,4302.820313,4351.794922,4359.358887,4366.153809,4547.436035,4540.769043,4561.666504,4495.384766,5663.461426,4308.077148,4254.871582,0.000000,4.000000,75.000000,,,,0.000000,0.000000,0.000000,0.000000,0.000000,0.000000,0.000000,0.000000,0.000000,0.000000,0.000000,0.000000,0.000000,0.000000,0.000000,0.000000,,,,,,,,,,,,,,,,,,,,,,,,,,,,,,,,,,,,,,,,,,,,,,,,,,,,,,,,,,,,,,,,,,,,,,,,,,,,,,,,,,,,,,,,,,,,,,,,,,,,,,,,,,,,,,,,,,,,,,,,,,,,,,,,,
1738755264.608726,1738755264.609024,60.000000,0.000000,4325.512695,4349.487305,4253.717773,4304.743652,4351.410156,4358.461426,4364.743652,4547.948730,4539.230957,4559.102539,4498.974121,5663.461426,4308.461426,4254.230957,0.000000,4.000000,75.000000,,,,0.000000,0.000000,0.000000,0.000000,0.000000,0.000000,0.000000,0.000000,0.000000,0.000000,0.000000,0.000000,0.000000,0.000000,0.000000,0.000000,,,,,,,,,,,,,,,,,15.000000,0.000000,0.785591,-0.615173,-0.060913,0.026428,0.064461,-0.968868,0.234404,4.356013,-15.237189,22.843393,,,,,,,,,,,,,,,,,,,,,,,,,,,,,,,,,,,,,,,,,,,,,,,,,,,,,,,,,,,,,,,,,,,,,,,,,,,,,,,,,,,,,,,,,,,,,,,,,,,,,
1738755264.616534,1738755264.616932,61.000000,0.000000,4323.974121,4352.820313,4255.641113,4304.743652,4351.153809,4358.974121,4365.641113,4552.051270,4540.000000,4560.384766,4500.897461,5666.794922,4307.179688,4253.846191,0.000000,4.000000,75.000000,,,,0.000000,0.000000,0.000000,0.000000,0.000000,0.000000,0.000000,0.000000,0.000000,0.000000,0.000000,0.000000,0.000000,0.000000,0.000000,0.000000,,,,,,,,,,,,,,,,,,,,,,,,,,,,,,,,,,,,,,,,,,,,,,,,,,,,,,,,,,,,,,,,,,,,,,,,,,,,,,,,,,,,,,,,,,,,,,,,,,,,,,,,,,,,,,,,,,,,,,,,,,,,,,,,,
1738755264.624342,1738755264.624740,62.000000,0.000000,4322.307617,4352.692383,4255.256348,4304.743652,4351.538574,4359.487305,4367.051270,4552.436035,4541.153809,4563.461426,4497.820313,5665.000000,4310.384766,4253.589844,0.000000,4.000000,75.000000,,,,0.000000,0.000000,0.000000,0.000000,0.000000,0.000000,0.000000,0.000000,0.000000,0.000000,0.000000,0.000000,0.000000,0.000000,0.000000,0.000000,,,,,,,,,,,,,,,,,,,,,,,,,,,,,,,,,,,,,,,,,,,,,,,,,,,,,,,,,,,,0.023942,0.015770,0.011060,0.036203,0.027919,0.020757,0.007364,0.018451,0.014606,0.022868,0.023588,0.028526,0.027517,0.018061,0.029869,0.037462,0.062954,0.016542,0.019478,0.025344,0.022899,0.024292,0.032134,0.017504,0.025737,0.013678,0.003515,0.007391,0.018818,0.018800,0.032122,0.058522,0.062896,0.022078,0.037332,0.055075,0.028171,0.028470,0.011655,0.030944,0.023661,0.011289,0.016373,0.032908,0.031033,0.039680,0.027817,0.015660,0.017368,0.018469,0.025302,0.030808,0.031080,0.029295,0.032909,0.012048,0.017627,0.025284,0.026572,0.035558,0.065753,0.029924,0.046291,0.018489,0.033860,0.039324,0.024423,0.053937,0.034698,0.029802
1738755264.632150,1738755264.632649,63.000000,0.000000,4323.461426,4351.666504,4255.512695,4303.205078,4351.410156,4359.358887,4365.897461,4549.358887,4539.871582,4560.641113,4496.025879,5662.179688,4311.025879,4253.846191,0.000000,4.000000,75.000000,,,,0.000000,0.000000,0.000000,0.000000,0.000000,0.000000,0.000000,0.000000,0.000000,0.000000,0.000000,0.000000,0.000000,0.000000,0.000000,0.000000,,,,,,,,,,,,,,,,,,,,,,,,,,,,,,,,,,,,,,,,,,,,,,,,,,,,,,,,,,,,,,,,,,,,,,,,,,,,,,,,,,,,,,,,,,,,,,,,,,,,,,,,,,,,,,,,,,,,,,,,,,,,,,,,,
1738755264.639958,1738755264.640457,64.000000,0.000000,4325.128418,4353.077148,4254.487305,4300.384766,4348.846191,4360.256348,4364.487305,4548.461426,4541.282227,4558.589844,4497.948730,5660.512695,4309.487305,4257.307617,0.000000,4.000000,75.000000,,,,0.000000,0.000000,0.000000,0.000000,0.000000,0.000000,0.000000,0.000000,0.000000,0.000000,0.000000,0.000000,0.000000,0.000000,0.000000,0.000000,,,,,,,,,,,,,,,,,16.000000,0.000000,0.785591,-0.615173,-0.060913,0.026428,0.065438,-0.969357,0.238310,4.320412,-15.263471,22.859053,,,,,,,,,,,,,,,,,,,,,,,,,,,,,,,,,,,,,,,,,,,,,,,,,,,,,,,,,,,,,,,,,,,,,,,,,,,,,,,,,,,,,,,,,,,,,,,,,,,,,
1738755264.647766,1738755264.648365,65.000000,0.000000,4324.358887,4352.051270,4254.102539,4303.717773,4347.948730,4360.000000,4365.769043,4549.230957,4541.794922,4560.128418,4498.589844,5660.128418,4307.563965,4258.717773,0.000000,4.000000,75.000000,,,,0.000000,0.000000,0.000000,0.000000,0.000000,0.000000,0.000000,0.000000,0.000000,0.000000,0.000000,0.000000,0.000000,0.000000,0.000000,0.000000,,,,,,,,,,,,,,,,,,,,,,,,,,,,,,,,,,,,,,,,,,,,,,,,,,,,,,,,,,,,,,,,,,,,,,,,,,,,,,,,,,,,,,,,,,,,,,,,,,,,,,,,,,,,,,,,,,,,,,,,,,,,,,,,,
1738755264.655574,1738755264.656173,66.000000,0.000000,4321.538574,4350.256348,4255.897461,4308.205078,4350.000000,4358.846191,4366.282227,4550.256348,4538.846191,4560.128418,4497.692383,5662.307617,4304.615234,4256.282227,0.000000,4.000000,75.000000,,,,0.000000,0.000000,0.000000,0.000000,0.000000,0.000000,0.000000,0.000000,0.000000,0.000000,0.000000,0.000000,0.000000,0.000000,0.000000,0.000000,,,,,,,,,,,,,,,,,,,,,,,,,,,,,,,,,,,,,,,,,,,,,,,,,,,,,,,,,,,,,,,,,,,,,,,,,,,,,,,,,,,,,,,,,,,,,,,,,,,,,,,,,,,,,,,,,,,,,,,,,,,,,,,,,
1738755264.663382,1738755264.663881,67.000000,0.000000,4319.743652,4352.820313,4257.179688,4304.487305,4351.025879,4359.615234,4362.820313,4550.128418,4540.769043,4560.384766,4497.563965,5664.358887,4305.512695,4253.974121,0.000000,4.000000,75.000000,,,,0.000000,0.000000,0.000000,0.000000,0.000000,0.000000,0.000000,0.000000,0.000000,0.000000,0.000000,0.000000,0.000000,0.000000,0.000000,0.000000,,,,,,,,,,,,,,,,,,,,,,,,,,,,,,,,,,,,,,,,,,,,,,,,,,,,,,,,,,,,,,,,,,,,,,,,,,,,,,,,,,,,,,,,,,,,,,,,,,,,,,,,,,,,,,,,,,,,,,,,,,,,,,,,,
1738755264.671190,1738755264.671690,68.000000,0.000000,4319.487305,4351.410156,4256.025879,4301.538574,4350.512695,4360.897461,4362.692383,4549.615234,4544.230957,4560.769043,4497.563965,5665.128418,4308.205078,4253.717773,0.000000,4.000000,75.000000,,,,0.000000,0.000000,0.000000,0.000000,0.000000,0.000000,0.000000,0.000000,0.000000,0.000000,0.000000,0.000000,0.000000,0.000000,0.000000,0.000000,,,,,,,,,,,,,,,,,17.000000,0.000000,0.785641,-0.615112,-0.060852,0.026489,0.058601,-0.960078,0.230009,4.288371,-15.287124,22.956482,,,,,,,,,,,,,,,,,,,,,,,,,,,,,,,,,,,,,,,,,,,,,,,,,,,,,,,,,,,,,,,,,,,,,,,,,,,,,,,,,,,,,,,,,,,,,,,,,,,,,
1738755264.678998,1738755264.679398,69.000000,0.000000,4320.769043,4347.820313,4254.615234,4302.948730,4352.179688,4359.358887,4364.358887,4550.897461,4542.692383,4560.384766,4497.179688,5665.384766,4312.307617,4257.948730,0.000000,4.000000,75.000000,,,,0.000000,0.000000,0.000000,0.000000,0.000000,0.000000,0.000000,0.000000,0.000000,0.000000,0.000000,0.000000,0.000000,0.000000,0.000000,0.000000,,,,,,,,,,,,,,,,,,,,,,,,,,,,,,,,,,,,,,,,,,,,,,,,,,,,,,,,,,,,,,,,,,,,,,,,,,,,,,,,,,,,,,,,,,,,,,,,,,,,,,,,,,,,,,,,,,,,,,,,,,,,,,,,,
1738755264.686807,1738755264.687206,70.000000,0.000000,4323.205078,4348.717773,4253.461426,4302.051270,4352.563965,4358.461426,4363.205078,4552.051270,4538.333496,4561.025879,4496.922852,5666.538574,4312.051270,4256.666504,0.000000,4.000000,75.000000,,,,0.000000,0.000000,0.000000,0.000000,0.000000,0.000000,0.000000,0.000000,0.000000,0.000000,0.000000,0.000000,0.000000,0.000000,0.000000,0.000000,,,,,,,,,,,,,,,,,,,,,,,,,,,,,,,,,,,,,,,,,,,,,,,,,,,,,,,,,,,,,,,,,,,,,,,,,,,,,,,,,,,,,,,,,,,,,,,,,,,,,,,,,,,,,,,,,,,,,,,,,,,,,,,,,
1738755264.694615,1738755264.694914,71.000000,0.000000,4323.589844,4351.538574,4251.666504,4302.307617,4348.974121,4359.615234,4362.307617,4551.025879,4536.666504,4560.256348,4497.692383,5666.410156,4308.333496,4250.000000,0.000000,4.000000,75.000000,,,,0.000000,0.000000,0.000000,0.000000,0.000000,0.000000,0.000000,0.000000,0.000000,0.000000,0.000000,0.000000,0.000000,0.000000,0.000000,0.000000,,,,,,,,,,,,,,,,,,,,,,,,,,,,,,,,,,,,,,,,,,,,,,,,,,,,,,,,,,,,,,,,,,,,,,,,,,,,,,,,,,,,,,,,,,,,,,,,,,,,,,,,,,,,,,,,,,,,,,,,,,,,,,,,,
1738755264.702423,1738755264.702722,72.000000,0.000000,4321.666504,4353.077148,4249.102539,4303.205078,4348.846191,4358.077148,4362.307617,4550.384766,4540.000000,4558.974121,4497.563965,5663.077148,4308.461426,4253.077148,0.000000,4.000000,75.000000,,,,0.000000,0.000000,0.000000,0.000000,0.000000,0.000000,0.000000,0.000000,0.000000,0.000000,0.000000,0.000000,0.000000,0.000000,0.000000,0.000000,,,,,,,,,,,,,,,,,18.000000,0.000000,0.785689,-0.615051,-0.060852,0.026489,0.066414,-0.968380,0.231962,4.342867,-15.275078,22.927500,,,,,,,,,,,,,,,,,,,,,,,,,,,,,,,,,,,,,,,,,,,,,,,,,,,,,,,,,,,,,,,,,,,,,,,,,,,,,,,,,,,,,,,,,,,,,,,,,,,,,
1738755264.710231,1738755264.710430,73.000000,0.000000,4322.307617,4352.307617,4251.410156,4302.692383,4350.897461,4355.512695,4364.487305,4550.897461,4540.769043,4559.230957,4495.128418,5664.102539,4307.307617,4260.769043,0.000000,4.000000,75.000000,,,,0.000000,0.000000,0.000000,0.000000,0.000000,0.000000,0.000000,0.000000,0.000000,0.000000,0.000000,0.000000,0.000000,0.000000,0.000000,0.000000,,,,,,,,,,,,,,,,,,,,,,,,,,,,,,,,,,,,,,,,,,,,,,,,,,,,,,,,,,,,,,,,,,,,,,,,,,,,,,,,,,,,,,,,,,,,,,,,,,,,,,,,,,,,,,,,,,,,,,,,,,,,,,,,,
1738755264.718039,1738755264.718238,74.000000,0.000000,4324.487305,4349.743652,4257.307617,4302.692383,4350.128418,4358.717773,4365.512695,4550.641113,4539.615234,4558.974121,4496.410156,5666.282227,4305.256348,4258.333496,0.000000,4.000000,75.000000,,,,0.000000,0.000000,0.000000,0.000000,0.000000,0.000000,0.000000,0.000000,0.000000,0.000000,0.000000,0.000000,0.000000,0.000000,0.000000,0.000000,,,,,,,,,,,,,,,,,,,,,,,,,,,,,,,,,,,,,,,,,,,,,,,,,,,,,,,,,,,,,,,,,,,,,,,,,,,,,,,,,,,,,,,,,,,,,,,,,,,,,,,,,,,,,,,,,,,,,,,,,,,,,,,,,
1738755264.725847,1738755264.725946,75.000000,0.000000,4323.589844,4350.512695,4255.641113,4301.922852,4349.871582,4361.666504,4364.230957,4549.743652,4540.384766,4558.077148,4499.230957,5666.922852,4303.974121,4252.820313,0.000000,4.000000,75.000000,,,,0.000000,0.000000,0.000000,0.000000,0.000000,0.000000,0.000000,0.000000,0.000000,0.000000,0.000000,0.000000,0.000000,0.000000,0.000000,0.000000,,,,,,,,,,,,,,,,,,,,,,,,,,,,,,,,,,,,,,,,,,,,,,,,,,,,,,,,,,,,,,,,,,,,,,,,,,,,,,,,,,,,,,,,,,,,,,,,,,,,,,,,,,,,,,,,,,,,,,,,,,,,,,,,,
1738755264.733655,1738755264.733854,76.000000,0.000000,4321.282227,4352.179688,4250.384766,4301.153809,4352.051270,4360.769043,4363.717773,4550.641113,4538.846191,4559.487305,4497.051270,5668.717773,4303.333496,4255.256348,0.000000,4.000000,75.000000,,,,0.000000,0.000000,0.000000,0.000000,0.000000,0.000000,0.000000,0.000000,0.000000,0.000000,0.000000,0.000000,0.000000,0.000000,0.000000,0.000000,,,,,,,,,,,,,,,,,19.000000,0.000000,0.785641,-0.615112,-0.060852,0.026489,0.060554,-0.978635,0.230497,4.475247,-15.264236,22.818083,,,,,,,,,,,,,,,,,,,,,,,,,,,,,,,,,,,,,,,,,,,,,,,,,,,,,,,,,,,,,,,,,,,,,,,,,,,,,,,,,,,,,,,,,,,,,,,,,,,,,
1738755264.741463,1738755264.741662,77.000000,0.000000,4320.897461,4350.000000,4252.948730,4301.025879,4350.897461,4360.128418,4363.974121,4553.077148,4537.820313,4560.128418,4495.641113,5666.282227,4308.205078,4258.333496,0.000000,4.000000,75.000000,,,,0.000000,0.000000,0.000000,0.000000,0.000000,0.000000,0.000000,0.000000,0.000000,0.000000,0.000000,0.000000,0.000000,0.000000,0.000000,0.000000,,,,,,,,,,,,,,,,,,,,,,,,,,,,,,,,,,,,,,,,,,,,,,,,,,,,,,,,,,,,,,,,,,,,,,,,,,,,,,,,,,,,,,,,,,,,,,,,,,,,,,,,,,,,,,,,,,,,,,,,,,,,,,,,,
1738755264.749271,1738755264.749570,78.000000,0.000000,4322.820313,4349.230957,4257.179688,4302.948730,4350.128418,4360.256348,4365.512695,4552.820313,4539.487305,4558.589844,4497.051270,5662.948730,4308.461426,4256.410156,0.000000,4.000000,75.000000,,,,0.000000,0.000000,0.000000,0.000000,0.000000,0.000000,0.000000,0.000000,0.000000,0.000000,0.000000,0.000000,0.000000,0.000000,0.000000,0.000000,,,,,,,,,,,,,,,,,,,,,,,,,,,,,,,,,,,,,,,,,,,,,,,,,,,,,,,,,,,,0.021607,0.015475,0.011759,0.032495,0.026870,0.019645,0.008445,0.020342,0.017313,0.024272,0.028139,0.032973,0.027377,0.021057,0.032011,0.043287,0.065872,0.017436,0.017444,0.024499,0.021110,0.024567,0.024353,0.017036,0.022699,0.014522,0.003144,0.008256,0.021114,0.018316,0.034723,0.060099,0.063867,0.020557,0.034044,0.056397,0.026851,0.023221,0.013324,0.030022,0.026167,0.010611,0.016065,0.032158,0.028670,0.040961,0.026563,0.015588,0.019810,0.019332,0.026463,0.025922,0.030198,0.029131,0.032946,0.012766,0.013561,0.018321,0.025672,0.036618,0.059044,0.032340,0.041635,0.019868,0.034389,0.031534,0.029934,0.054364,0.032853,0.028070
1738755264.757079,1738755264.757378,79.000000,0.000000,4323.077148,4350.128418,4255.384766,4304.102539,4352.179688,4359.743652,4364.615234,4549.487305,4539.230957,4557.820313,4496.666504,5665.256348,4304.102539,4255.512695,0.000000,4.000000,75.000000,,,,0.000000,0.000000,0.000000,0.000000,0.000000,0.000000,0.000000,0.000000,0.000000,0.000000,0.000000,0.000000,0.000000,0.000000,0.000000,0.000000,,,,,,,,,,,,,,,,,,,,,,,,,,,,,,,,,,,,,,,,,,,,,,,,,,,,,,,,,,,,,,,,,,,,,,,,,,,,,,,,,,,,,,,,,,,,,,,,,,,,,,,,,,,,,,,,,,,,,,,,,,,,,,,,,
1738755264.764887,1738755264.765286,80.000000,0.000000,4320.384766,4350.128418,4252.179688,4302.948730,4351.794922,4359.743652,4362.563965,4549.358887,4538.461426,4558.461426,4495.256348,5666.922852,4309.102539,4256.538574,0.000000,4.000000,75.000000,,,,0.000000,0.000000,0.000000,0.000000,0.000000,0.000000,0.000000,0.000000,0.000000,0.000000,0.000000,0.000000,0.000000,0.000000,0.000000,0.000000,,,,,,,,,,,,,,,,,20.000000,0.000000,0.785641,-0.615112,-0.060852,0.026489,0.060554,-0.970822,0.234892,4.427722,-15.204480,22.802942,,,,,,,,,,,,,,,,,,,,,,,,,,,,,,,,,,,,,,,,,,,,,,,,,,,,,,,,,,,,,,,,,,,,,,,,,,,,,,,,,,,,,,,,,,,,,,,,,,,,,
1738755264.772696,1738755264.773095,81.000000,0.000000,4321.153809,4350.000000,4254.487305,4302.948730,4350.769043,4359.743652,4362.692383,4551.153809,4537.820313,4559.358887,4496.153809,5665.641113,4313.205078,4256.410156,0.000000,4.000000,75.000000,,,,0.000000,0.000000,0.000000,0.000000,0.000000,0.000000,0.000000,0.000000,0.000000,0.000000,0.000000,0.000000,0.000000,0.000000,0.000000,0.000000,,,,,,,,,,,,,,,,,,,,,,,,,,,,,,,,,,,,,,,,,,,,,,,,,,,,,,,,,,,,,,,,,,,,,,,,,,,,,,,,,,,,,,,,,,,,,,,,,,,,,,,,,,,,,,,,,,,,,,,,,,,,,,,,,
1738755264.780504,1738755264.781003,82.000000,0.000000,4324.230957,4349.102539,4255.769043,4300.384766,4350.769043,4359.487305,4366.025879,4550.384766,4537.179688,4560.512695,4497.307617,5664.102539,4310.512695,4256.410156,0.000000,4.000000,75.000000,,,,0.000000,0.000000,0.000000,0.000000,0.000000,0.000000,0.000000,0.000000,0.000000,0.000000,0.000000,0.000000,0.000000,0.000000,0.000000,0.000000,,,,,,,,,,,,,,,,,,,,,,,,,,,,,,,,,,,,,,,,,,,,,,,,,,,,,,,,,,,,,,,,,,,,,,,,,,,,,,,,,,,,,,,,,,,,,,,,,,,,,,,,,,,,,,,,,,,,,,,,,,,,,,,,,
1738755264.788312,1738755264.788811,83.000000,0.000000,4324.487305,4347.692383,4253.846191,4300.000000,4350.897461,4360.769043,4366.666504,4551.153809,4538.717773,4561.666504,4498.717773,5664.230957,4308.077148,4257.051270,0.000000,4.000000,75.000000,,,,0.000000,0.000000,0.000000,0.000000,0.000000,0.000000,0.000000,0.000000,0.000000,0.000000,0.000000,0.000000,0.000000,0.000000,0.000000,0.000000,,,,,,,,,,,,,,,,,,,,,,,,,,,,,,,,,,,,,,,,,,,,,,,,,,,,,,,,,,,,,,,,,,,,,,,,,,,,,,,,,,,,,,,,,,,,,,,,,,,,,,,,,,,,,,,,,,,,,,,,,,,,,,,,,
