title:bread1, start timestamp:1738755228.051172, stop timestamp:1738755229.074033, headset type:EPOCX, headset serial:E50208A5, headset firmware:720, channels:168, sampling rate:eeg_128;mot_32;pm_0.1;pow_8, samples:132       , version:2.2, 
Timestamp,OriginalTimestamp,EEG.Counter,EEG.Interpolated,EEG.AF3,EEG.F7,EEG.F3,EEG.FC5,EEG.T7,EEG.P7,EEG.O1,EEG.O2,EEG.P8,EEG.T8,EEG.FC6,EEG.F4,EEG.F8,EEG.AF4,EEG.RawCq,EEG.Battery,EEG.BatteryPercent,MarkerIndex,MarkerType,MarkerValueInt,EEG.MarkerHardware,CQ.AF3,CQ.F7,CQ.F3,CQ.FC5,CQ.T7,CQ.P7,CQ.O1,CQ.O2,CQ.P8,CQ.T8,CQ.FC6,CQ.F4,CQ.F8,CQ.AF4,CQ.Overall,EQ.SampleRateQuality,EQ.OVERALL,EQ.AF3,EQ.F7,EQ.F3,EQ.FC5,EQ.T7,EQ.P7,EQ.O1,EQ.O2,EQ.P8,EQ.T8,EQ.FC6,EQ.F4,EQ.F8,EQ.AF4,MOT.CounterMems,MOT.InterpolatedMems,MOT.Q0,MOT.Q1,MOT.Q2,MOT.Q3,MOT.AccX,MOT.AccY,MOT.AccZ,MOT.MagX,MOT.MagY,MOT.MagZ,PM.Attention.IsActive,PM.Attention.Scaled,PM.Attention.Raw,PM.Attention.Min,PM.Attention.Max,PM.Engagement.IsActive,PM.Engagement.Scaled,PM.Engagement.Raw,PM.Engagement.Min,PM.Engagement.Max,PM.Excitement.IsActive,PM.Excitement.Scaled,PM.Excitement.Raw,PM.Excitement.Min,PM.Excitement.Max,PM.LongTermExcitement,PM.Stress.IsActive,PM.Stress.Scaled,PM.Stress.Raw,PM.Stress.Min,PM.Stress.Max,PM.Relaxation.IsActive,PM.Relaxation.Scaled,PM.Relaxation.Raw,PM.Relaxation.Min,PM.Relaxation.Max,PM.Interest.IsActive,PM.Interest.Scaled,PM.Interest.Raw,PM.Interest.Min,PM.Interest.Max,POW.AF3.Theta,POW.AF3.Alpha,POW.AF3.BetaL,POW.AF3.BetaH,POW.AF3.Gamma,POW.F7.Theta,POW.F7.Alpha,POW.F7.BetaL,POW.F7.BetaH,POW.F7.Gamma,POW.F3.Theta,POW.F3.Alpha,POW.F3.BetaL,POW.F3.BetaH,POW.F3.Gamma,POW.FC5.Theta,POW.FC5.Alpha,POW.FC5.BetaL,POW.FC5.BetaH,POW.FC5.Gamma,POW.T7.Theta,POW.T7.Alpha,POW.T7.BetaL,POW.T7.BetaH,POW.T7.Gamma,POW.P7.Theta,POW.P7.Alpha,POW.P7.BetaL,POW.P7.BetaH,POW.P7.Gamma,POW.O1.Theta,POW.O1.Alpha,POW.O1.BetaL,POW.O1.BetaH,POW.O1.Gamma,POW.O2.Theta,POW.O2.Alpha,POW.O2.BetaL,POW.O2.BetaH,POW.O2.Gamma,POW.P8.Theta,POW.P8.Alpha,POW.P8.BetaL,POW.P8.BetaH,POW.P8.Gamma,POW.T8.Theta,POW.T8.Alpha,POW.T8.BetaL,POW.T8.BetaH,POW.T8.Gamma,POW.FC6.Theta,POW.FC6.Alpha,POW.FC6.BetaL,POW.FC6.BetaH,POW.FC6.Gamma,POW.F4.Theta,POW.F4.Alpha,POW.F4.BetaL,POW.F4.BetaH,POW.F4.Gamma,POW.F8.Theta,POW.F8.Alpha,POW.F8.BetaL,POW.F8.BetaH,POW.F8.Gamma,POW.AF4.Theta,POW.AF4.Alpha,POW.AF4.BetaL,POW.AF4.BetaH,POW.AF4.Gamma
1738755228.051172,1738755228.051417,114.000000,0.000000,4322.307617,4349.102539,4255.000000,4303.461426,4352.820313,4362.948730,4363.974121,4551.666504,4541.666504,4558.589844,4496.410156,5666.153809,4311.282227,4254.102539,0.000000,4.000000,75.000000,,,,0.000000,0.000000,0.000000,0.000000,0.000000,0.000000,0.000000,0.000000,0.000000,0.000000,0.000000,0.000000,0.000000,0.000000,0.000000,0.000000,,,,,,,,,,,,,,,,,,,,,,,,,,,,,,,,,,,,,,,,,,,,,,,,,,,,,,,,,,,,,,,,,,,,,,,,,,,,,,,,,,,,,,,,,,,,,,,,,,,,,,,,,,,,,,,,,,,,,,,,,,,,,,,,,
1738755228.058980,1738755228.059325,115.000000,0.000000,4320.897461,4346.794922,4253.333496,4302.948730,4352.563965,4361.538574,4365.000000,4546.794922,4538.333496,4557.307617,4494.615234,5666.282227,4306.922852,4254.230957,0.000000,4.000000,75.000000,,,,0.000000,0.000000,0.000000,0.000000,0.000000,0.000000,0.000000,0.000000,0.000000,0.000000,0.000000,0.000000,0.000000,0.000000,0.000000,0.000000,,,,,,,,,,,,,,,,,,,,,,,,,,,,,,,,,,,,,,,,,,,,,,,,,,,,,,,,,,,,,,,,,,,,,,,,,,,,,,,,,,,,,,,,,,,,,,,,,,,,,,,,,,,,,,,,,,,,,,,,,,,,,,,,,
1738755228.066788,1738755228.067133,116.000000,0.000000,4320.256348,4347.948730,4251.410156,4303.205078,4353.717773,4360.128418,4364.487305,4547.820313,4538.077148,4557.948730,4493.333496,5662.179688,4309.358887,4256.794922,0.000000,4.000000,75.000000,,,,0.000000,0.000000,0.000000,0.000000,0.000000,0.000000,0.000000,0.000000,0.000000,0.000000,0.000000,0.000000,0.000000,0.000000,0.000000,0.000000,,,,,,,,,,,,,,,,,29.000000,0.000000,0.784988,-0.615967,-0.061035,0.025574,0.052741,-0.978635,0.240264,4.222662,-14.985580,22.843584,,,,,,,,,,,,,,,,,,,,,,,,,,,,,,,,,,,,,,,,,,,,,,,,,,,,,,,,,,,,,,,,,,,,,,,,,,,,,,,,,,,,,,,,,,,,,,,,,,,,,
1738755228.074596,1738755228.075041,117.000000,0.000000,4322.307617,4350.256348,4251.666504,4304.487305,4352.051270,4360.000000,4364.743652,4553.974121,4542.179688,4558.333496,4494.743652,5662.820313,4311.922852,4254.871582,0.000000,4.000000,75.000000,,,,0.000000,0.000000,0.000000,0.000000,0.000000,0.000000,0.000000,0.000000,0.000000,0.000000,0.000000,0.000000,0.000000,0.000000,0.000000,0.000000,,,,,,,,,,,,,,,,,,,,,,,,,,,,,,,,,,,,,,,,,,,,,,,,,,,,,,,,,,,,,,,,,,,,,,,,,,,,,,,,,,,,,,,,,,,,,,,,,,,,,,,,,,,,,,,,,,,,,,,,,,,,,,,,,
1738755228.082405,1738755228.082850,118.000000,0.000000,4322.948730,4347.692383,4255.128418,4304.102539,4353.461426,4361.282227,4368.077148,4553.333496,4543.205078,4557.820313,4495.641113,5664.358887,4308.717773,4252.436035,0.000000,4.000000,75.000000,,,,0.000000,0.000000,0.000000,0.000000,0.000000,0.000000,0.000000,0.000000,0.000000,0.000000,0.000000,0.000000,0.000000,0.000000,0.000000,0.000000,,,,,,,,,,,,,,,,,,,,,,,,,,,,,,,,,,,,,,,,,,,,,,,,,,,,,,,,,,,,,,,,,,,,,,,,,,,,,,,,,,,,,,,,,,,,,,,,,,,,,,,,,,,,,,,,,,,,,,,,,,,,,,,,,
1738755228.090212,1738755228.090758,119.000000,0.000000,4318.846191,4346.025879,4256.025879,4302.563965,4357.563965,4361.025879,4366.153809,4548.077148,4539.871582,4556.794922,4494.743652,5660.128418,4308.077148,4252.692383,0.000000,4.000000,75.000000,,,,0.000000,0.000000,0.000000,0.000000,0.000000,0.000000,0.000000,0.000000,0.000000,0.000000,0.000000,0.000000,0.000000,0.000000,0.000000,0.000000,,,,,,,,,,,,,,,,,,,,,,,,,,,,,,,,,,,,,,,,,,,,,,,,,,,,,,,,,,,,,,,,,,,,,,,,,,,,,,,,,,,,,,,,,,,,,,,,,,,,,,,,,,,,,,,,,,,,,,,,,,,,,,,,,
1738755228.098021,1738755228.098566,120.000000,0.000000,4318.846191,4349.102539,4254.871582,4302.563965,4353.846191,4360.384766,4363.717773,4547.692383,4536.666504,4556.922852,4495.384766,5659.230957,4306.794922,4251.794922,0.000000,4.000000,75.000000,,,,0.000000,0.000000,0.000000,0.000000,0.000000,0.000000,0.000000,0.000000,0.000000,0.000000,0.000000,0.000000,0.000000,0.000000,0.000000,0.000000,,,,,,,,,,,,,,,,,30.000000,0.000000,0.784983,-0.615967,-0.061096,0.025574,0.067879,-0.976682,0.238799,4.217062,-14.970356,22.759226,,,,,,,,,,,,,,,,,,,,,,,,,,,,,,,,,,,,,,,,,,,,,,,,,,,,,,,,,,,,,,,,,,,,,,,,,,,,,,,,,,,,,,,,,,,,,,,,,,,,,
1738755228.105829,1738755228.106474,121.000000,0.000000,4320.897461,4350.897461,4255.641113,4301.538574,4348.589844,4363.461426,4366.025879,4549.743652,4537.436035,4559.487305,4497.051270,5661.666504,4306.922852,4256.025879,0.000000,4.000000,75.000000,,,,0.000000,0.000000,0.000000,0.000000,0.000000,0.000000,0.000000,0.000000,0.000000,0.000000,0.000000,0.000000,0.000000,0.000000,0.000000,0.000000,,,,,,,,,,,,,,,,,,,,,,,,,,,,,,,,,,,,,,,,,,,,,,,,,,,,,,,,,,,,,,,,,,,,,,,,,,,,,,,,,,,,,,,,,,,,,,,,,,,,,,,,,,,,,,,,,,,,,,,,,,,,,,,,,
1738755228.113637,1738755228.114282,122.000000,0.000000,4320.384766,4348.461426,4255.256348,4300.256348,4351.922852,4364.487305,4365.256348,4551.153809,4538.205078,4559.487305,4495.256348,5663.589844,4309.102539,4258.077148,0.000000,4.000000,75.000000,,,,0.000000,0.000000,0.000000,0.000000,0.000000,0.000000,0.000000,0.000000,0.000000,0.000000,0.000000,0.000000,0.000000,0.000000,0.000000,0.000000,,,,,,,,,,,,,,,,,,,,,,,,,,,,,,,,,,,,,,,,,,,,,,,,,,,,,,,,,,,,,,,,,,,,,,,,,,,,,,,,,,,,,,,,,,,,,,,,,,,,,,,,,,,,,,,,,,,,,,,,,,,,,,,,,
1738755228.121445,1738755228.122190,123.000000,0.000000,4320.256348,4344.871582,4253.846191,4300.384766,4353.589844,4359.871582,4364.358887,4549.615234,4536.922852,4558.205078,4494.102539,5663.974121,4313.077148,4255.000000,0.000000,4.000000,75.000000,,,,0.000000,0.000000,0.000000,0.000000,0.000000,0.000000,0.000000,0.000000,0.000000,0.000000,0.000000,0.000000,0.000000,0.000000,0.000000,0.000000,,,,,,,,,,,,,,,,,,,,,,,,,,,,,,,,,,,,,,,,,,,,,,,,,,,,,,,,,,,,,,,,,,,,,,,,,,,,,,,,,,,,,,,,,,,,,,,,,,,,,,,,,,,,,,,,,,,,,,,,,,,,,,,,,
1738755228.129253,1738755228.129998,124.000000,0.000000,4322.436035,4346.153809,4255.384766,4302.179688,4351.922852,4358.461426,4364.615234,4547.820313,4537.563965,4559.358887,4499.743652,5663.205078,4313.461426,4257.051270,0.000000,4.000000,75.000000,,,,0.000000,0.000000,0.000000,0.000000,0.000000,0.000000,0.000000,0.000000,0.000000,0.000000,0.000000,0.000000,0.000000,0.000000,0.000000,0.000000,,,,,,,,,,,,,,,,,31.000000,0.000000,0.785036,-0.615906,-0.061035,0.025574,0.069344,-0.970333,0.232939,4.295356,-14.823320,22.766638,,,,,,,,,,,,,,,,,,,,,,,,,,,,,,,,,,,,,,,,,,,,,,,,,,,,,,,,,,,,,,,,,,,,,,,,,,,,,,,,,,,,,,,,,,,,,,,,,,,,,
1738755228.137061,1738755228.137707,125.000000,0.000000,4322.563965,4352.436035,4256.666504,4304.102539,4353.333496,4360.128418,4363.974121,4550.384766,4536.666504,4559.487305,4500.256348,5664.358887,4308.846191,4257.179688,0.000000,4.000000,75.000000,,,,0.000000,0.000000,0.000000,0.000000,0.000000,0.000000,0.000000,0.000000,0.000000,0.000000,0.000000,0.000000,0.000000,0.000000,0.000000,0.000000,,,,,,,,,,,,,,,,,,,,,,,,,,,,,,,,,,,,,,,,,,,,,,,,,,,,,,,,,,,,,,,,,,,,,,,,,,,,,,,,,,,,,,,,,,,,,,,,,,,,,,,,,,,,,,,,,,,,,,,,,,,,,,,,,
1738755228.144869,1738755228.145515,126.000000,0.000000,4320.128418,4351.538574,4253.974121,4302.307617,4352.051270,4358.461426,4362.948730,4549.871582,4538.333496,4558.974121,4496.153809,5662.436035,4312.563965,4256.282227,0.000000,4.000000,75.000000,,,,0.000000,0.000000,0.000000,0.000000,0.000000,0.000000,0.000000,0.000000,0.000000,0.000000,0.000000,0.000000,0.000000,0.000000,0.000000,0.000000,,,,,,,,,,,,,,,,,,,,,,,,,,,,,,,,,,,,,,,,,,,,,,,,,,,,,,,,,,,,0.046516,0.031704,0.024009,0.024508,0.021880,0.040962,0.014705,0.023152,0.013285,0.027315,0.027125,0.021390,0.021646,0.035431,0.028675,0.039189,0.021081,0.019411,0.026194,0.027181,0.029819,0.070648,0.042357,0.022938,0.032967,0.026723,0.010493,0.018268,0.016134,0.014001,0.031521,0.034367,0.032929,0.037703,0.036126,0.022973,0.067314,0.041026,0.013027,0.030585,0.041963,0.034230,0.021248,0.021825,0.031088,0.014036,0.020895,0.048329,0.011413,0.010648,0.014489,0.018741,0.011371,0.018959,0.024005,0.008716,0.012402,0.025033,0.021989,0.020512,0.056139,0.048411,0.044821,0.022747,0.044785,0.046249,0.036053,0.016106,0.014964,0.021606
1738755228.152677,1738755228.153223,127.000000,0.000000,4319.743652,4345.641113,4252.820313,4301.153809,4350.641113,4358.077148,4364.230957,4547.820313,4541.025879,4559.358887,4495.384766,5662.179688,4312.563965,4257.179688,75.000000,4.000000,75.000000,,,,0.000000,0.000000,0.000000,0.000000,0.000000,0.000000,0.000000,0.000000,0.000000,0.000000,0.000000,0.000000,0.000000,0.000000,0.000000,0.000000,,,,,,,,,,,,,,,,,,,,,,,,,,,,,,,,,,,,,,,,,,,,,,,,,,,,,,,,,,,,,,,,,,,,,,,,,,,,,,,,,,,,,,,,,,,,,,,,,,,,,,,,,,,,,,,,,,,,,,,,,,,,,,,,,
1738755228.160485,1738755228.161031,0.000000,0.000000,4321.025879,4348.717773,4254.487305,4302.436035,4354.102539,4360.897461,4363.846191,4551.025879,4538.717773,4560.000000,4495.512695,5664.871582,4308.589844,4255.384766,0.000000,4.000000,75.000000,,,,0.000000,0.000000,0.000000,0.000000,0.000000,0.000000,0.000000,0.000000,0.000000,0.000000,0.000000,0.000000,0.000000,0.000000,0.000000,0.000000,,,,,,,,,,,,,,,,,0.000000,0.000000,0.784992,-0.615967,-0.061035,0.025452,0.072763,-0.971798,0.236357,4.299154,-14.807654,22.756639,,,,,,,,,,,,,,,,,,,,,,,,,,,,,,,,,,,,,,,,,,,,,,,,,,,,,,,,,,,,,,,,,,,,,,,,,,,,,,,,,,,,,,,,,,,,,,,,,,,,,
1738755228.168294,1738755228.168739,1.000000,0.000000,4321.922852,4354.615234,4254.743652,4301.282227,4355.512695,4361.025879,4360.897461,4551.538574,4540.769043,4559.743652,4498.205078,5663.205078,4312.692383,4254.102539,0.000000,4.000000,75.000000,,,,0.000000,0.000000,0.000000,0.000000,0.000000,0.000000,0.000000,0.000000,0.000000,0.000000,0.000000,0.000000,0.000000,0.000000,0.000000,0.000000,,,,,,,,,,,,,,,,,,,,,,,,,,,,,,,,,,,,,,,,,,,,,,,,,,,,,,,,,,,,,,,,,,,,,,,,,,,,,,,,,,,,,,,,,,,,,,,,,,,,,,,,,,,,,,,,,,,,,,,,,,,,,,,,,
1738755228.176102,1738755228.176647,2.000000,0.000000,4323.205078,4349.743652,4252.051270,4301.538574,4351.025879,4358.974121,4364.871582,4548.589844,4544.487305,4558.974121,4498.846191,5666.282227,4311.410156,4255.897461,0.000000,4.000000,75.000000,,,,0.000000,0.000000,0.000000,0.000000,0.000000,0.000000,0.000000,0.000000,0.000000,0.000000,0.000000,0.000000,0.000000,0.000000,0.000000,0.000000,,,,,,,,,,,,,,,,,,,,,,,,,,,,,,,,,,,,,,,,,,,,,,,,,,,,,,,,,,,,,,,,,,,,,,,,,,,,,,,,,,,,,,,,,,,,,,,,,,,,,,,,,,,,,,,,,,,,,,,,,,,,,,,,,
1738755228.183910,1738755228.184455,3.000000,0.000000,4321.922852,4345.000000,4248.846191,4303.717773,4349.358887,4361.922852,4366.025879,4549.743652,4540.256348,4558.077148,4496.538574,5666.922852,4310.384766,4256.153809,0.000000,4.000000,75.000000,,,,0.000000,0.000000,0.000000,0.000000,0.000000,0.000000,0.000000,0.000000,0.000000,0.000000,0.000000,0.000000,0.000000,0.000000,0.000000,0.000000,,,,,,,,,,,,,,,,,,,,,,,,,,,,,,,,,,,,,,,,,,,,,,,,,,,,,,,,,,,,,,,,,,,,,,,,,,,,,,,,,,,,,,,,,,,,,,,,,,,,,,,,,,,,,,,,,,,,,,,,,,,,,,,,,
1738755228.191718,1738755228.192364,4.000000,0.000000,4320.769043,4349.615234,4250.384766,4303.717773,4351.666504,4363.333496,4363.589844,4550.641113,4537.307617,4558.717773,4497.563965,5662.436035,4314.230957,4253.974121,0.000000,4.000000,75.000000,,,,0.000000,0.000000,0.000000,0.000000,0.000000,0.000000,0.000000,0.000000,0.000000,0.000000,0.000000,0.000000,0.000000,0.000000,0.000000,0.000000,,,,,,,,,,,,,,,,,1.000000,0.000000,0.785039,-0.615906,-0.061035,0.025452,0.070809,-0.976682,0.241729,4.285905,-14.726890,22.680977,,,,,,,,,,,,,,,,,,,,,,,,,,,,,,,,,,,,,,,,,,,,,,,,,,,,,,,,,,,,,,,,,,,,,,,,,,,,,,,,,,,,,,,,,,,,,,,,,,,,,
1738755228.199526,1738755228.200172,5.000000,0.000000,4322.563965,4351.922852,4254.358887,4302.692383,4349.230957,4360.256348,4366.666504,4549.743652,4540.769043,4560.128418,4497.179688,5662.563965,4311.538574,4256.538574,0.000000,4.000000,75.000000,,,,0.000000,0.000000,0.000000,0.000000,0.000000,0.000000,0.000000,0.000000,0.000000,0.000000,0.000000,0.000000,0.000000,0.000000,0.000000,0.000000,,,,,,,,,,,,,,,,,,,,,,,,,,,,,,,,,,,,,,,,,,,,,,,,,,,,,,,,,,,,,,,,,,,,,,,,,,,,,,,,,,,,,,,,,,,,,,,,,,,,,,,,,,,,,,,,,,,,,,,,,,,,,,,,,
1738755228.207334,1738755228.207980,6.000000,0.000000,4323.333496,4350.256348,4253.333496,4300.897461,4349.102539,4360.256348,4366.666504,4549.102539,4540.000000,4559.358887,4494.358887,5663.205078,4308.589844,4259.102539,0.000000,4.000000,75.000000,,,,0.000000,0.000000,0.000000,0.000000,0.000000,0.000000,0.000000,0.000000,0.000000,0.000000,0.000000,0.000000,0.000000,0.000000,0.000000,0.000000,,,,,,,,,,,,,,,,,,,,,,,,,,,,,,,,,,,,,,,,,,,,,,,,,,,,,,,,,,,,,,,,,,,,,,,,,,,,,,,,,,,,,,,,,,,,,,,,,,,,,,,,,,,,,,,,,,,,,,,,,,,,,,,,,
1738755228.215142,1738755228.215688,7.000000,0.000000,4321.922852,4351.153809,4252.820313,4302.051270,4351.794922,4362.179688,4364.871582,4550.512695,4535.512695,4558.589844,4493.205078,5664.230957,4308.205078,4255.256348,0.000000,4.000000,75.000000,,,,0.000000,0.000000,0.000000,0.000000,0.000000,0.000000,0.000000,0.000000,0.000000,0.000000,0.000000,0.000000,0.000000,0.000000,0.000000,0.000000,,,,,,,,,,,,,,,,,,,,,,,,,,,,,,,,,,,,,,,,,,,,,,,,,,,,,,,,,,,,,,,,,,,,,,,,,,,,,,,,,,,,,,,,,,,,,,,,,,,,,,,,,,,,,,,,,,,,,,,,,,,,,,,,,
1738755228.222950,1738755228.223496,8.000000,0.000000,4321.025879,4353.077148,4254.487305,4301.794922,4350.256348,4360.769043,4366.410156,4551.538574,4537.948730,4558.589844,4494.358887,5666.025879,4313.461426,4257.179688,0.000000,4.000000,75.000000,,,,0.000000,0.000000,0.000000,0.000000,0.000000,0.000000,0.000000,0.000000,0.000000,0.000000,0.000000,0.000000,0.000000,0.000000,0.000000,0.000000,,,,,,,,,,,,,,,,,2.000000,0.000000,0.785039,-0.615906,-0.061035,0.025452,0.061043,-0.976682,0.234404,4.373981,-14.637534,22.712879,,,,,,,,,,,,,,,,,,,,,,,,,,,,,,,,,,,,,,,,,,,,,,,,,,,,,,,,,,,,,,,,,,,,,,,,,,,,,,,,,,,,,,,,,,,,,,,,,,,,,
1738755228.230758,1738755228.231204,9.000000,0.000000,4321.794922,4351.153809,4254.230957,4301.282227,4352.051270,4358.205078,4366.666504,4549.743652,4540.641113,4558.846191,4496.282227,5664.358887,4317.307617,4261.282227,0.000000,4.000000,75.000000,,,,0.000000,0.000000,0.000000,0.000000,0.000000,0.000000,0.000000,0.000000,0.000000,0.000000,0.000000,0.000000,0.000000,0.000000,0.000000,0.000000,,,,,,,,,,,,,,,,,,,,,,,,,,,,,,,,,,,,,,,,,,,,,,,,,,,,,,,,,,,,,,,,,,,,,,,,,,,,,,,,,,,,,,,,,,,,,,,,,,,,,,,,,,,,,,,,,,,,,,,,,,,,,,,,,
1738755228.238567,1738755228.239012,10.000000,0.000000,4324.230957,4347.179688,4253.589844,4305.256348,4352.307617,4360.384766,4364.358887,4549.230957,4538.717773,4557.820313,4497.179688,5664.102539,4310.000000,4257.948730,0.000000,4.000000,75.000000,,,,0.000000,0.000000,0.000000,0.000000,0.000000,0.000000,0.000000,0.000000,0.000000,0.000000,0.000000,0.000000,0.000000,0.000000,0.000000,0.000000,,,,,,,,,,,,,,,,,,,,,,,,,,,,,,,,,,,,,,,,,,,,,,,,,,,,,,,,,,,,,,,,,,,,,,,,,,,,,,,,,,,,,,,,,,,,,,,,,,,,,,,,,,,,,,,,,,,,,,,,,,,,,,,,,
1738755228.246374,1738755228.246720,11.000000,0.000000,4323.205078,4349.230957,4254.615234,4305.000000,4349.615234,4362.563965,4363.846191,4548.974121,4538.333496,4557.563965,4497.563965,5665.128418,4307.948730,4256.794922,0.000000,4.000000,75.000000,,,,0.000000,0.000000,0.000000,0.000000,0.000000,0.000000,0.000000,0.000000,0.000000,0.000000,0.000000,0.000000,0.000000,0.000000,0.000000,0.000000,,,,,,,,,,,,,,,,,,,,,,,,,,,,,,,,,,,,,,,,,,,,,,,,,,,,,,,,,,,,,,,,,,,,,,,,,,,,,,,,,,,,,,,,,,,,,,,,,,,,,,,,,,,,,,,,,,,,,,,,,,,,,,,,,
1738755228.254183,1738755228.254628,12.000000,0.000000,4320.769043,4352.307617,4257.051270,4303.974121,4352.948730,4361.666504,4364.743652,4550.512695,4538.589844,4558.846191,4495.769043,5663.974121,4312.692383,4257.692383,0.000000,4.000000,75.000000,,,,0.000000,0.000000,0.000000,0.000000,0.000000,0.000000,0.000000,0.000000,0.000000,0.000000,0.000000,0.000000,0.000000,0.000000,0.000000,0.000000,,,,,,,,,,,,,,,,,3.000000,0.000000,0.784942,-0.616028,-0.061035,0.025513,0.065926,-0.972775,0.237822,4.436583,-14.707113,22.558258,,,,,,,,,,,,,,,,,,,,,,,,,,,,,,,,,,,,,,,,,,,,,,,,,,,,,,,,,,,,,,,,,,,,,,,,,,,,,,,,,,,,,,,,,,,,,,,,,,,,,
1738755228.261991,1738755228.262436,13.000000,0.000000,4321.538574,4349.358887,4254.615234,4304.230957,4354.487305,4361.794922,4361.794922,4551.282227,4539.487305,4557.948730,4496.666504,5664.358887,4314.615234,4258.077148,0.000000,4.000000,75.000000,,,,0.000000,0.000000,0.000000,0.000000,0.000000,0.000000,0.000000,0.000000,0.000000,0.000000,0.000000,0.000000,0.000000,0.000000,0.000000,0.000000,,,,,,,,,,,,,,,,,,,,,,,,,,,,,,,,,,,,,,,,,,,,,,,,,,,,,,,,,,,,,,,,,,,,,,,,,,,,,,,,,,,,,,,,,,,,,,,,,,,,,,,,,,,,,,,,,,,,,,,,,,,,,,,,,
1738755228.269799,1738755228.270345,14.000000,0.000000,4322.948730,4345.769043,4251.538574,4303.077148,4349.102539,4362.436035,4361.666504,4551.410156,4540.769043,4557.692383,4498.205078,5665.384766,4312.820313,4261.282227,0.000000,4.000000,75.000000,,,,0.000000,0.000000,0.000000,0.000000,0.000000,0.000000,0.000000,0.000000,0.000000,0.000000,0.000000,0.000000,0.000000,0.000000,0.000000,0.000000,,,,,,,,,,,,,,,,,,,,,,,,,,,,,,,,,,,,,,,,,,,,,,,,,,,,,,,,,,,,0.060566,0.028375,0.027333,0.024528,0.022824,0.042943,0.019269,0.025933,0.015527,0.029028,0.027055,0.025683,0.024158,0.042713,0.029807,0.037339,0.020915,0.017151,0.028591,0.026245,0.034900,0.068992,0.050293,0.025307,0.033117,0.023905,0.012935,0.020137,0.015671,0.015309,0.036825,0.029210,0.040046,0.036900,0.033836,0.023416,0.061477,0.036359,0.014400,0.028216,0.042418,0.038456,0.029653,0.020389,0.037798,0.014739,0.022110,0.048121,0.011529,0.011134,0.015527,0.019277,0.011008,0.021564,0.021358,0.010888,0.013032,0.023903,0.024555,0.021177,0.063131,0.053745,0.056181,0.021578,0.041332,0.035596,0.039545,0.014684,0.015023,0.023611
1738755228.277607,1738755228.278153,15.000000,0.000000,4323.333496,4348.333496,4255.000000,4302.692383,4350.641113,4361.153809,4367.051270,4554.743652,4539.871582,4558.717773,4496.153809,5663.333496,4307.051270,4257.692383,0.000000,4.000000,75.000000,,,,0.000000,0.000000,0.000000,0.000000,0.000000,0.000000,0.000000,0.000000,0.000000,0.000000,0.000000,0.000000,0.000000,0.000000,0.000000,0.000000,,,,,,,,,,,,,,,,,,,,,,,,,,,,,,,,,,,,,,,,,,,,,,,,,,,,,,,,,,,,,,,,,,,,,,,,,,,,,,,,,,,,,,,,,,,,,,,,,,,,,,,,,,,,,,,,,,,,,,,,,,,,,,,,,
1738755228.285415,1738755228.286061,16.000000,0.000000,4322.179688,4352.563965,4256.410156,4303.589844,4354.871582,4360.256348,4365.512695,4552.948730,4539.871582,4560.128418,4496.538574,5662.307617,4308.461426,4255.128418,0.000000,4.000000,75.000000,,,,0.000000,0.000000,0.000000,0.000000,0.000000,0.000000,0.000000,0.000000,0.000000,0.000000,0.000000,0.000000,0.000000,0.000000,0.000000,0.000000,,,,,,,,,,,,,,,,,4.000000,0.000000,0.784990,-0.615967,-0.061035,0.025513,0.064949,-0.972287,0.238799,4.492925,-14.686402,22.635765,,,,,,,,,,,,,,,,,,,,,,,,,,,,,,,,,,,,,,,,,,,,,,,,,,,,,,,,,,,,,,,,,,,,,,,,,,,,,,,,,,,,,,,,,,,,,,,,,,,,,
1738755228.293223,1738755228.293869,17.000000,0.000000,4321.282227,4351.538574,4252.436035,4306.025879,4352.051270,4360.512695,4364.487305,4549.358887,4541.922852,4559.487305,4496.922852,5665.769043,4308.717773,4257.179688,0.000000,4.000000,75.000000,,,,0.000000,0.000000,0.000000,0.000000,0.000000,0.000000,0.000000,0.000000,0.000000,0.000000,0.000000,0.000000,0.000000,0.000000,0.000000,0.000000,,,,,,,,,,,,,,,,,,,,,,,,,,,,,,,,,,,,,,,,,,,,,,,,,,,,,,,,,,,,,,,,,,,,,,,,,,,,,,,,,,,,,,,,,,,,,,,,,,,,,,,,,,,,,,,,,,,,,,,,,,,,,,,,,
1738755228.301031,1738755228.301777,18.000000,0.000000,4321.153809,4349.358887,4251.538574,4304.871582,4354.871582,4361.794922,4370.000000,4550.897461,4541.282227,4561.025879,4496.794922,5665.000000,4308.077148,4257.563965,0.000000,4.000000,75.000000,,,,0.000000,0.000000,0.000000,0.000000,0.000000,0.000000,0.000000,0.000000,0.000000,0.000000,0.000000,0.000000,0.000000,0.000000,0.000000,0.000000,,,,,,,,,,,,,,,,,,,,,,,,,,,,,,,,,,,,,,,,,,,,,,,,,,,,,,,,,,,,,,,,,,,,,,,,,,,,,,,,,,,,,,,,,,,,,,,,,,,,,,,,,,,,,,,,,,,,,,,,,,,,,,,,,
1738755228.308839,1738755228.309585,19.000000,0.000000,4320.000000,4349.871582,4254.358887,4303.461426,4358.717773,4363.333496,4369.871582,4551.794922,4538.461426,4563.461426,4498.717773,5659.102539,4313.589844,4258.077148,0.000000,4.000000,75.000000,,,,0.000000,0.000000,0.000000,0.000000,0.000000,0.000000,0.000000,0.000000,0.000000,0.000000,0.000000,0.000000,0.000000,0.000000,0.000000,0.000000,,,,,,,,,,,,,,,,,,,,,,,,,,,,,,,,,,,,,,,,,,,,,,,,,,,,,,,,,,,,,,,,,,,,,,,,,,,,,,,,,,,,,,,,,,,,,,,,,,,,,,,,,,,,,,,,,,,,,,,,,,,,,,,,,
1738755228.316647,1738755228.317493,20.000000,0.000000,4319.615234,4350.641113,4254.615234,4306.025879,4352.307617,4362.307617,4366.666504,4550.000000,4538.717773,4560.769043,4498.333496,5660.769043,4307.051270,4254.487305,0.000000,4.000000,75.000000,,,,0.000000,0.000000,0.000000,0.000000,0.000000,0.000000,0.000000,0.000000,0.000000,0.000000,0.000000,0.000000,0.000000,0.000000,0.000000,0.000000,,,,,,,,,,,,,,,,,5.000000,0.000000,0.784990,-0.615967,-0.061035,0.025513,0.058113,-0.978147,0.235380,4.493632,-14.567762,22.622189,,,,,,,,,,,,,,,,,,,,,,,,,,,,,,,,,,,,,,,,,,,,,,,,,,,,,,,,,,,,,,,,,,,,,,,,,,,,,,,,,,,,,,,,,,,,,,,,,,,,,
1738755228.324456,1738755228.325302,21.000000,0.000000,4318.333496,4349.743652,4254.102539,4306.153809,4349.358887,4360.512695,4366.410156,4548.333496,4539.743652,4558.846191,4496.410156,5662.179688,4304.102539,4253.717773,0.000000,4.000000,75.000000,,,,0.000000,0.000000,0.000000,0.000000,0.000000,0.000000,0.000000,0.000000,0.000000,0.000000,0.000000,0.000000,0.000000,0.000000,0.000000,0.000000,,,,,,,,,,,,,,,,,,,,,,,,,,,,,,,,,,,,,,,,,,,,,,,,,,,,,,,,,,,,,,,,,,,,,,,,,,,,,,,,,,,,,,,,,,,,,,,,,,,,,,,,,,,,,,,,,,,,,,,,,,,,,,,,,
1738755228.332264,1738755228.333210,22.000000,0.000000,4320.384766,4348.846191,4254.743652,4301.794922,4353.846191,4360.641113,4368.333496,4551.153809,4538.333496,4561.025879,4496.410156,5663.846191,4311.794922,4257.051270,0.000000,4.000000,75.000000,,,,0.000000,0.000000,0.000000,0.000000,0.000000,0.000000,0.000000,0.000000,0.000000,0.000000,0.000000,0.000000,0.000000,0.000000,0.000000,0.000000,,,,,,,,,,,,,,,,,,,,,,,,,,,,,,,,,,,,,,,,,,,,,,,,,,,,,,,,,,,,,,,,,,,,,,,,,,,,,,,,,,,,,,,,,,,,,,,,,,,,,,,,,,,,,,,,,,,,,,,,,,,,,,,,,
1738755228.340072,1738755228.341018,23.000000,0.000000,4323.077148,4348.589844,4254.615234,4301.666504,4353.205078,4360.512695,4366.282227,4552.179688,4538.589844,4562.563965,4494.871582,5667.436035,4311.538574,4255.128418,0.000000,4.000000,75.000000,,,,0.000000,0.000000,0.000000,0.000000,0.000000,0.000000,0.000000,0.000000,0.000000,0.000000,0.000000,0.000000,0.000000,0.000000,0.000000,0.000000,,,,,,,,,,,,,,,,,,,,,,,,,,,,,,,,,,,,,,,,,,,,,,,,,,,,,,,,,,,,,,,,,,,,,,,,,,,,,,,,,,,,,,,,,,,,,,,,,,,,,,,,,,,,,,,,,,,,,,,,,,,,,,,,,
1738755228.347880,1738755228.348726,24.000000,0.000000,4322.307617,4349.230957,4254.871582,4304.871582,4347.563965,4359.615234,4363.333496,4550.641113,4541.538574,4559.358887,4492.948730,5663.974121,4309.102539,4254.615234,0.000000,4.000000,75.000000,,,,0.000000,0.000000,0.000000,0.000000,0.000000,0.000000,0.000000,0.000000,0.000000,0.000000,0.000000,0.000000,0.000000,0.000000,0.000000,0.000000,,,,,,,,,,,,,,,,,6.000000,0.000000,0.785042,-0.615906,-0.060974,0.025513,0.060066,-0.984495,0.230985,4.544269,-14.460986,22.643303,,,,,,,,,,,,,,,,,,,,,,,,,,,,,,,,,,,,,,,,,,,,,,,,,,,,,,,,,,,,,,,,,,,,,,,,,,,,,,,,,,,,,,,,,,,,,,,,,,,,,
1738755228.355688,1738755228.356535,25.000000,0.000000,4322.692383,4350.641113,4255.384766,4305.384766,4348.717773,4360.128418,4368.461426,4553.974121,4540.128418,4557.307617,4496.794922,5663.205078,4308.077148,4255.897461,0.000000,4.000000,75.000000,,,,0.000000,0.000000,0.000000,0.000000,0.000000,0.000000,0.000000,0.000000,0.000000,0.000000,0.000000,0.000000,0.000000,0.000000,0.000000,0.000000,,,,,,,,,,,,,,,,,,,,,,,,,,,,,,,,,,,,,,,,,,,,,,,,,,,,,,,,,,,,,,,,,,,,,,,,,,,,,,,,,,,,,,,,,,,,,,,,,,,,,,,,,,,,,,,,,,,,,,,,,,,,,,,,,
1738755228.363496,1738755228.364243,26.000000,0.000000,4323.333496,4351.666504,4254.487305,4302.051270,4353.205078,4362.051270,4369.615234,4553.205078,4537.436035,4560.769043,4499.358887,5663.589844,4310.000000,4257.436035,0.000000,4.000000,75.000000,,,,0.000000,0.000000,0.000000,0.000000,0.000000,0.000000,0.000000,0.000000,0.000000,0.000000,0.000000,0.000000,0.000000,0.000000,0.000000,0.000000,,,,,,,,,,,,,,,,,,,,,,,,,,,,,,,,,,,,,,,,,,,,,,,,,,,,,,,,,,,,,,,,,,,,,,,,,,,,,,,,,,,,,,,,,,,,,,,,,,,,,,,,,,,,,,,,,,,,,,,,,,,,,,,,,
1738755228.371304,1738755228.372051,27.000000,0.000000,4323.205078,4348.461426,4252.563965,4298.461426,4352.179688,4362.563965,4366.282227,4548.717773,4537.436035,4560.384766,4497.179688,5661.282227,4308.974121,4257.948730,0.000000,4.000000,75.000000,,,,0.000000,0.000000,0.000000,0.000000,0.000000,0.000000,0.000000,0.000000,0.000000,0.000000,0.000000,0.000000,0.000000,0.000000,0.000000,0.000000,,,,,,,,,,,,,,,,,,,,,,,,,,,,,,,,,,,,,,,,,,,,,,,,,,,,,,,,,,,,,,,,,,,,,,,,,,,,,,,,,,,,,,,,,,,,,,,,,,,,,,,,,,,,,,,,,,,,,,,,,,,,,,,,,
1738755228.379112,1738755228.379759,28.000000,0.000000,4322.692383,4345.769043,4251.666504,4300.384766,4348.461426,4360.256348,4365.512695,4549.487305,4536.666504,4556.666504,4493.717773,5664.615234,4306.666504,4254.615234,0.000000,4.000000,75.000000,,,,0.000000,0.000000,0.000000,0.000000,0.000000,0.000000,0.000000,0.000000,0.000000,0.000000,0.000000,0.000000,0.000000,0.000000,0.000000,0.000000,,,,,,,,,,,,,,,,,7.000000,0.000000,0.785040,-0.615906,-0.060974,0.025574,0.064949,-0.976193,0.235380,4.573175,-14.564887,22.678972,,,,,,,,,,,,,,,,,,,,,,,,,,,,,,,,,,,,,,,,,,,,,,,,,,,,,,,,,,,,,,,,,,,,,,,,,,,,,,,,,,,,,,,,,,,,,,,,,,,,,
1738755228.386920,1738755228.387567,29.000000,0.000000,4323.461426,4349.487305,4252.436035,4301.282227,4348.461426,4359.743652,4364.871582,4549.102539,4538.589844,4558.974121,4494.487305,5666.282227,4312.179688,4253.717773,0.000000,4.000000,75.000000,,,,0.000000,0.000000,0.000000,0.000000,0.000000,0.000000,0.000000,0.000000,0.000000,0.000000,0.000000,0.000000,0.000000,0.000000,0.000000,0.000000,,,,,,,,,,,,,,,,,,,,,,,,,,,,,,,,,,,,,,,,,,,,,,,,,,,,,,,,,,,,,,,,,,,,,,,,,,,,,,,,,,,,,,,,,,,,,,,,,,,,,,,,,,,,,,,,,,,,,,,,,,,,,,,,,
1738755228.394729,1738755228.395275,30.000000,0.000000,4323.461426,4350.000000,4254.615234,4302.436035,4351.922852,4361.410156,4365.641113,4547.948730,4539.743652,4562.307617,4498.333496,5664.487305,4311.410156,4257.692383,0.000000,4.000000,75.000000,,,,0.000000,0.000000,0.000000,0.000000,0.000000,0.000000,0.000000,0.000000,0.000000,0.000000,0.000000,0.000000,0.000000,0.000000,0.000000,0.000000,1.000000,0.000000,0.000000,0.000000,0.000000,0.000000,0.000000,0.000000,0.000000,0.000000,0.000000,0.000000,0.000000,0.000000,0.000000,0.000000,,,,,,,,,,,,,,,,,,,,,,,,,,,,,,,,,,,,,,,,,,,,0.071689,0.025563,0.030069,0.024870,0.024492,0.044337,0.025278,0.029248,0.018661,0.031320,0.027186,0.029784,0.025799,0.047353,0.030392,0.032452,0.022250,0.015411,0.030691,0.025331,0.039018,0.062884,0.060379,0.027606,0.034757,0.022034,0.016050,0.020819,0.014745,0.017387,0.042735,0.026601,0.045498,0.033484,0.031796,0.025082,0.053424,0.032145,0.015611,0.026335,0.040327,0.041232,0.037882,0.020168,0.044177,0.016219,0.023062,0.042829,0.013172,0.012395,0.018533,0.020993,0.011133,0.024498,0.019200,0.014883,0.014955,0.022210,0.027037,0.022145,0.071833,0.057597,0.061543,0.022424,0.039965,0.024522,0.040435,0.015561,0.014522,0.027296
1738755228.402537,1738755228.403083,31.000000,0.000000,4323.077148,4347.179688,4255.512695,4303.205078,4353.717773,4361.025879,4365.641113,4551.922852,4539.871582,4560.000000,4497.820313,5664.615234,4308.205078,4260.256348,0.000000,4.000000,75.000000,,,,0.000000,0.000000,0.000000,0.000000,0.000000,0.000000,0.000000,0.000000,0.000000,0.000000,0.000000,0.000000,0.000000,0.000000,0.000000,0.000000,,,,,,,,,,,,,,,,,,,,,,,,,,,,,,,,,,,,,,,,,,,,,,,,,,,,,,,,,,,,,,,,,,,,,,,,,,,,,,,,,,,,,,,,,,,,,,,,,,,,,,,,,,,,,,,,,,,,,,,,,,,,,,,,,
1738755228.410345,1738755228.410791,32.000000,0.000000,4323.333496,4346.922852,4256.538574,4300.512695,4352.179688,4360.512695,4364.102539,4554.743652,4540.512695,4558.717773,4494.358887,5664.487305,4311.538574,4256.666504,0.000000,4.000000,75.000000,,,,0.000000,0.000000,0.000000,0.000000,0.000000,0.000000,0.000000,0.000000,0.000000,0.000000,0.000000,0.000000,0.000000,0.000000,0.000000,0.000000,,,,,,,,,,,,,,,,,8.000000,0.000000,0.784940,-0.616028,-0.060974,0.025696,0.057624,-0.972775,0.235380,4.449191,-14.691731,22.661076,,,,,,,,,,,,,,,,,,,,,,,,,,,,,,,,,,,,,,,,,,,,,,,,,,,,,,,,,,,,,,,,,,,,,,,,,,,,,,,,,,,,,,,,,,,,,,,,,,,,,
1738755228.418153,1738755228.418599,33.000000,0.000000,4325.128418,4347.436035,4255.897461,4302.179688,4353.974121,4360.512695,4363.077148,4551.922852,4539.615234,4559.743652,4496.282227,5661.410156,4310.641113,4254.871582,0.000000,4.000000,75.000000,,,,0.000000,0.000000,0.000000,0.000000,0.000000,0.000000,0.000000,0.000000,0.000000,0.000000,0.000000,0.000000,0.000000,0.000000,0.000000,0.000000,,,,,,,,,,,,,,,,,,,,,,,,,,,,,,,,,,,,,,,,,,,,,,,,,,,,,,,,,,,,,,,,,,,,,,,,,,,,,,,,,,,,,,,,,,,,,,,,,,,,,,,,,,,,,,,,,,,,,,,,,,,,,,,,,
1738755228.425961,1738755228.426307,34.000000,0.000000,4327.051270,4351.153809,4252.051270,4305.384766,4354.102539,4359.230957,4362.179688,4548.717773,4542.179688,4560.384766,4498.461426,5658.717773,4306.282227,4259.358887,0.000000,4.000000,75.000000,,,,0.000000,0.000000,0.000000,0.000000,0.000000,0.000000,0.000000,0.000000,0.000000,0.000000,0.000000,0.000000,0.000000,0.000000,0.000000,0.000000,,,,,,,,,,,,,,,,,,,,,,,,,,,,,,,,,,,,,,,,,,,,,,,,,,,,,,,,,,,,,,,,,,,,,,,,,,,,,,,,,,,,,,,,,,,,,,,,,,,,,,,,,,,,,,,,,,,,,,,,,,,,,,,,,
1738755228.433769,1738755228.434115,35.000000,0.000000,4325.000000,4352.051270,4251.666504,4306.794922,4349.102539,4359.358887,4362.820313,4549.615234,4542.436035,4561.025879,4494.230957,5663.205078,4303.205078,4255.512695,0.000000,4.000000,75.000000,,,,0.000000,0.000000,0.000000,0.000000,0.000000,0.000000,0.000000,0.000000,0.000000,0.000000,0.000000,0.000000,0.000000,0.000000,0.000000,0.000000,,,,,,,,,,,,,,,,,,,,,,,,,,,,,,,,,,,,,,,,,,,,,,,,,,,,,,,,,,,,,,,,,,,,,,,,,,,,,,,,,,,,,,,,,,,,,,,,,,,,,,,,,,,,,,,,,,,,,,,,,,,,,,,,,
1738755228.441577,1738755228.441823,36.000000,0.000000,4322.563965,4348.205078,4254.743652,4305.641113,4349.871582,4361.666504,4364.871582,4550.769043,4540.128418,4560.000000,4493.461426,5665.512695,4306.666504,4251.538574,0.000000,4.000000,75.000000,,,,0.000000,0.000000,0.000000,0.000000,0.000000,0.000000,0.000000,0.000000,0.000000,0.000000,0.000000,0.000000,0.000000,0.000000,0.000000,0.000000,,,,,,,,,,,,,,,,,9.000000,0.000000,0.784943,-0.616028,-0.060913,0.025757,0.064949,-0.979123,0.222195,4.420939,-14.622559,22.728302,,,,,,,,,,,,,,,,,,,,,,,,,,,,,,,,,,,,,,,,,,,,,,,,,,,,,,,,,,,,,,,,,,,,,,,,,,,,,,,,,,,,,,,,,,,,,,,,,,,,,
1738755228.449385,1738755228.449631,37.000000,0.000000,4323.333496,4346.922852,4255.128418,4302.563965,4356.282227,4363.333496,4367.948730,4549.871582,4542.820313,4558.846191,4497.692383,5661.538574,4309.487305,4256.410156,0.000000,4.000000,75.000000,,,,0.000000,0.000000,0.000000,0.000000,0.000000,0.000000,0.000000,0.000000,0.000000,0.000000,0.000000,0.000000,0.000000,0.000000,0.000000,0.000000,,,,,,,,,,,,,,,,,,,,,,,,,,,,,,,,,,,,,,,,,,,,,,,,,,,,,,,,,,,,,,,,,,,,,,,,,,,,,,,,,,,,,,,,,,,,,,,,,,,,,,,,,,,,,,,,,,,,,,,,,,,,,,,,,
1738755228.457193,1738755228.457339,38.000000,0.000000,4325.641113,4347.948730,4255.000000,4301.282227,4354.487305,4361.922852,4369.871582,4551.922852,4544.743652,4558.461426,4496.922852,5663.333496,4303.589844,4255.512695,0.000000,4.000000,75.000000,,,,0.000000,0.000000,0.000000,0.000000,0.000000,0.000000,0.000000,0.000000,0.000000,0.000000,0.000000,0.000000,0.000000,0.000000,0.000000,0.000000,,,,,,,,,,,,,,,,,,,,,,,,,,,,,,,,,,,,,,,,,,,,,,,,,,,,,,,,,,,,,,,,,,,,,,,,,,,,,,,,,,,,,,,,,,,,,,,,,,,,,,,,,,,,,,,,,,,,,,,,,,,,,,,,,
1738755228.465001,1738755228.465247,39.000000,0.000000,4322.051270,4351.153809,4255.256348,4302.179688,4348.461426,4359.871582,4365.641113,4552.307617,4541.538574,4558.974121,4495.000000,5664.615234,4308.846191,4253.333496,0.000000,4.000000,75.000000,,,,0.000000,0.000000,0.000000,0.000000,0.000000,0.000000,0.000000,0.000000,0.000000,0.000000,0.000000,0.000000,0.000000,0.000000,0.000000,0.000000,,,,,,,,,,,,,,,,,,,,,,,,,,,,,,,,,,,,,,,,,,,,,,,,,,,,,,,,,,,,,,,,,,,,,,,,,,,,,,,,,,,,,,,,,,,,,,,,,,,,,,,,,,,,,,,,,,,,,,,,,,,,,,,,,
1738755228.472809,1738755228.473055,40.000000,0.000000,4319.102539,4351.794922,4255.000000,4303.717773,4350.384766,4361.410156,4362.307617,4551.794922,4537.692383,4560.256348,4494.487305,5662.948730,4313.077148,4255.769043,0.000000,4.000000,75.000000,,,,0.000000,0.000000,0.000000,0.000000,0.000000,0.000000,0.000000,0.000000,0.000000,0.000000,0.000000,0.000000,0.000000,0.000000,0.000000,0.000000,,,,,,,,,,,,,,,,,10.000000,0.000000,0.784889,-0.616089,-0.060974,0.025818,0.055671,-0.962031,0.233915,4.345511,-14.693636,22.738804,,,,,,,,,,,,,,,,,,,,,,,,,,,,,,,,,,,,,,,,,,,,,,,,,,,,,,,,,,,,,,,,,,,,,,,,,,,,,,,,,,,,,,,,,,,,,,,,,,,,,
1738755228.480618,1738755228.480963,41.000000,0.000000,4322.563965,4347.948730,4255.384766,4301.794922,4351.922852,4363.077148,4363.333496,4551.794922,4537.948730,4561.025879,4494.743652,5664.230957,4301.794922,4255.128418,0.000000,4.000000,75.000000,,,,0.000000,0.000000,0.000000,0.000000,0.000000,0.000000,0.000000,0.000000,0.000000,0.000000,0.000000,0.000000,0.000000,0.000000,0.000000,0.000000,,,,,,,,,,,,,,,,,,,,,,,,,,,,,,,,,,,,,,,,,,,,,,,,,,,,,,,,,,,,,,,,,,,,,,,,,,,,,,,,,,,,,,,,,,,,,,,,,,,,,,,,,,,,,,,,,,,,,,,,,,,,,,,,,
1738755228.488426,1738755228.488771,42.000000,0.000000,4323.589844,4347.820313,4254.743652,4300.897461,4350.256348,4361.538574,4363.717773,4550.641113,4540.256348,4559.230957,4496.025879,5662.820313,4302.692383,4254.615234,0.000000,4.000000,75.000000,,,,0.000000,0.000000,0.000000,0.000000,0.000000,0.000000,0.000000,0.000000,0.000000,0.000000,0.000000,0.000000,0.000000,0.000000,0.000000,0.000000,,,,,,,,,,,,,,,,,,,,,,,,,,,,,,,,,,,,,,,,,,,,,,,,,,,,,,,,,,,,,,,,,,,,,,,,,,,,,,,,,,,,,,,,,,,,,,,,,,,,,,,,,,,,,,,,,,,,,,,,,,,,,,,,,
1738755228.496234,1738755228.496680,43.000000,0.000000,4322.179688,4350.512695,4252.820313,4304.871582,4349.743652,4361.025879,4366.922852,4552.820313,4539.487305,4558.333496,4496.666504,5662.436035,4309.871582,4255.641113,0.000000,4.000000,75.000000,,,,0.000000,0.000000,0.000000,0.000000,0.000000,0.000000,0.000000,0.000000,0.000000,0.000000,0.000000,0.000000,0.000000,0.000000,0.000000,0.000000,,,,,,,,,,,,,,,,,,,,,,,,,,,,,,,,,,,,,,,,,,,,,,,,,,,,,,,,,,,,,,,,,,,,,,,,,,,,,,,,,,,,,,,,,,,,,,,,,,,,,,,,,,,,,,,,,,,,,,,,,,,,,,,,,
1738755228.504042,1738755228.504488,44.000000,0.000000,4321.922852,4351.282227,4254.358887,4306.153809,4351.282227,4362.307617,4365.641113,4552.307617,4538.717773,4560.512695,4496.538574,5664.871582,4308.205078,4256.410156,0.000000,4.000000,75.000000,,,,0.000000,0.000000,0.000000,0.000000,0.000000,0.000000,0.000000,0.000000,0.000000,0.000000,0.000000,0.000000,0.000000,0.000000,0.000000,0.000000,,,,,,,,,,,,,,,,,11.000000,0.000000,0.784843,-0.616150,-0.060913,0.025879,0.064461,-0.975705,0.233915,4.310960,-14.740939,22.814924,,,,,,,,,,,,,,,,,,,,,,,,,,,,,,,,,,,,,,,,,,,,,,,,,,,,,,,,,,,,,,,,,,,,,,,,,,,,,,,,,,,,,,,,,,,,,,,,,,,,,
1738755228.511850,1738755228.512396,45.000000,0.000000,4323.461426,4349.487305,4255.641113,4304.102539,4354.615234,4362.307617,4362.436035,4550.128418,4539.871582,4560.384766,4494.871582,5665.000000,4306.538574,4256.153809,0.000000,4.000000,75.000000,,,,0.000000,0.000000,0.000000,0.000000,0.000000,0.000000,0.000000,0.000000,0.000000,0.000000,0.000000,0.000000,0.000000,0.000000,0.000000,0.000000,,,,,,,,,,,,,,,,,,,,,,,,,,,,,,,,,,,,,,,,,,,,,,,,,,,,,,,,,,,,,,,,,,,,,,,,,,,,,,,,,,,,,,,,,,,,,,,,,,,,,,,,,,,,,,,,,,,,,,,,,,,,,,,,,
1738755228.519658,1738755228.520204,46.000000,0.000000,4324.230957,4349.871582,4255.128418,4303.974121,4353.717773,4362.051270,4364.743652,4551.794922,4538.589844,4559.230957,4495.769043,5662.820313,4307.948730,4255.128418,0.000000,4.000000,75.000000,,,,0.000000,0.000000,0.000000,0.000000,0.000000,0.000000,0.000000,0.000000,0.000000,0.000000,0.000000,0.000000,0.000000,0.000000,0.000000,0.000000,,,,,,,,,,,,,,,,,,,,,,,,,,,,,,,,,,,,,,,,,,,,,,,,,,,,,,,,,,,,0.077411,0.023843,0.031155,0.024842,0.026017,0.044810,0.031888,0.032923,0.022000,0.033854,0.027693,0.033906,0.027020,0.048271,0.030549,0.025891,0.025087,0.014980,0.032085,0.024550,0.042034,0.054236,0.070466,0.029756,0.037946,0.021192,0.019096,0.020562,0.013904,0.020305,0.047592,0.026271,0.047581,0.028359,0.029987,0.027518,0.045015,0.029555,0.016480,0.025749,0.036064,0.042909,0.043410,0.020297,0.048613,0.017733,0.023649,0.034422,0.015808,0.014009,0.023408,0.022818,0.011708,0.026916,0.017763,0.020248,0.018279,0.020537,0.028959,0.023956,0.079912,0.060901,0.059580,0.024967,0.040848,0.016207,0.039573,0.018478,0.013698,0.031771
1738755228.527466,1738755228.528112,47.000000,0.000000,4322.820313,4352.179688,4254.743652,4302.563965,4350.769043,4362.692383,4365.128418,4551.922852,4538.589844,4559.743652,4499.230957,5662.692383,4312.692383,4254.743652,0.000000,4.000000,75.000000,,,,0.000000,0.000000,0.000000,0.000000,0.000000,0.000000,0.000000,0.000000,0.000000,0.000000,0.000000,0.000000,0.000000,0.000000,0.000000,0.000000,,,,,,,,,,,,,,,,,,,,,,,,,,,,,,,,,,,,,,,,,,,,,,,,,,,,,,,,,,,,,,,,,,,,,,,,,,,,,,,,,,,,,,,,,,,,,,,,,,,,,,,,,,,,,,,,,,,,,,,,,,,,,,,,,
1738755228.535274,1738755228.535920,48.000000,0.000000,4321.538574,4350.641113,4254.230957,4302.692383,4349.743652,4362.436035,4365.000000,4550.512695,4539.871582,4559.615234,4497.051270,5666.025879,4310.256348,4253.846191,0.000000,4.000000,75.000000,,,,0.000000,0.000000,0.000000,0.000000,0.000000,0.000000,0.000000,0.000000,0.000000,0.000000,0.000000,0.000000,0.000000,0.000000,0.000000,0.000000,,,,,,,,,,,,,,,,,12.000000,0.000000,0.784843,-0.616150,-0.060913,0.025879,0.057624,-0.973752,0.236357,4.496531,-14.616845,22.650099,,,,,,,,,,,,,,,,,,,,,,,,,,,,,,,,,,,,,,,,,,,,,,,,,,,,,,,,,,,,,,,,,,,,,,,,,,,,,,,,,,,,,,,,,,,,,,,,,,,,,
1738755228.543082,1738755228.543629,49.000000,0.000000,4320.384766,4347.820313,4255.897461,4305.897461,4351.794922,4360.897461,4366.794922,4550.256348,4537.948730,4558.717773,4495.000000,5663.589844,4309.743652,4254.102539,0.000000,4.000000,75.000000,,,,0.000000,0.000000,0.000000,0.000000,0.000000,0.000000,0.000000,0.000000,0.000000,0.000000,0.000000,0.000000,0.000000,0.000000,0.000000,0.000000,,,,,,,,,,,,,,,,,,,,,,,,,,,,,,,,,,,,,,,,,,,,,,,,,,,,,,,,,,,,,,,,,,,,,,,,,,,,,,,,,,,,,,,,,,,,,,,,,,,,,,,,,,,,,,,,,,,,,,,,,,,,,,,,,
1738755228.550891,1738755228.551437,50.000000,0.000000,4321.410156,4348.974121,4258.846191,4306.922852,4353.077148,4361.666504,4365.128418,4550.128418,4538.205078,4558.974121,4498.077148,5660.897461,4312.563965,4255.641113,0.000000,4.000000,75.000000,,,,0.000000,0.000000,0.000000,0.000000,0.000000,0.000000,0.000000,0.000000,0.000000,0.000000,0.000000,0.000000,0.000000,0.000000,0.000000,0.000000,,,,,,,,,,,,,,,,,,,,,,,,,,,,,,,,,,,,,,,,,,,,,,,,,,,,,,,,,,,,,,,,,,,,,,,,,,,,,,,,,,,,,,,,,,,,,,,,,,,,,,,,,,,,,,,,,,,,,,,,,,,,,,,,,
1738755228.558699,1738755228.559145,51.000000,0.000000,4322.563965,4350.512695,4257.307617,4304.871582,4352.820313,4362.179688,4364.487305,4551.410156,4539.743652,4559.230957,4498.333496,5667.179688,4308.461426,4256.410156,0.000000,4.000000,75.000000,,,,0.000000,0.000000,0.000000,0.000000,0.000000,0.000000,0.000000,0.000000,0.000000,0.000000,0.000000,0.000000,0.000000,0.000000,0.000000,0.000000,,,,,,,,,,,,,,,,,,,,,,,,,,,,,,,,,,,,,,,,,,,,,,,,,,,,,,,,,,,,,,,,,,,,,,,,,,,,,,,,,,,,,,,,,,,,,,,,,,,,,,,,,,,,,,,,,,,,,,,,,,,,,,,,,
1738755228.566507,1738755228.566953,52.000000,0.000000,4320.769043,4348.717773,4255.256348,4301.282227,4352.307617,4358.846191,4364.743652,4551.794922,4538.333496,4559.871582,4496.538574,5668.717773,4308.589844,4258.077148,0.000000,4.000000,75.000000,,,,0.000000,0.000000,0.000000,0.000000,0.000000,0.000000,0.000000,0.000000,0.000000,0.000000,0.000000,0.000000,0.000000,0.000000,0.000000,0.000000,,,,,,,,,,,,,,,,,13.000000,0.000000,0.784797,-0.616211,-0.060913,0.025818,0.060066,-0.971798,0.236845,4.530211,-14.705161,22.651754,,,,,,,,,,,,,,,,,,,,,,,,,,,,,,,,,,,,,,,,,,,,,,,,,,,,,,,,,,,,,,,,,,,,,,,,,,,,,,,,,,,,,,,,,,,,,,,,,,,,,
1738755228.574315,1738755228.574661,53.000000,0.000000,4320.000000,4348.974121,4255.384766,4302.948730,4354.615234,4359.743652,4362.692383,4549.871582,4538.846191,4560.512695,4496.410156,5665.256348,4308.589844,4257.563965,0.000000,4.000000,75.000000,,,,0.000000,0.000000,0.000000,0.000000,0.000000,0.000000,0.000000,0.000000,0.000000,0.000000,0.000000,0.000000,0.000000,0.000000,0.000000,0.000000,,,,,,,,,,,,,,,,,,,,,,,,,,,,,,,,,,,,,,,,,,,,,,,,,,,,,,,,,,,,,,,,,,,,,,,,,,,,,,,,,,,,,,,,,,,,,,,,,,,,,,,,,,,,,,,,,,,,,,,,,,,,,,,,,
1738755228.582123,1738755228.582469,54.000000,0.000000,4320.641113,4350.512695,4252.563965,4304.743652,4357.692383,4363.717773,4363.974121,4550.769043,4541.025879,4560.128418,4497.948730,5666.025879,4306.538574,4257.307617,0.000000,4.000000,75.000000,,,,0.000000,0.000000,0.000000,0.000000,0.000000,0.000000,0.000000,0.000000,0.000000,0.000000,0.000000,0.000000,0.000000,0.000000,0.000000,0.000000,,,,,,,,,,,,,,,,,,,,,,,,,,,,,,,,,,,,,,,,,,,,,,,,,,,,,,,,,,,,,,,,,,,,,,,,,,,,,,,,,,,,,,,,,,,,,,,,,,,,,,,,,,,,,,,,,,,,,,,,,,,,,,,,,
1738755228.589931,1738755228.590177,55.000000,0.000000,4321.538574,4349.358887,4253.589844,4302.436035,4351.794922,4361.282227,4365.897461,4552.179688,4539.615234,4559.871582,4498.846191,5666.666504,4306.025879,4257.179688,0.000000,4.000000,75.000000,,,,0.000000,0.000000,0.000000,0.000000,0.000000,0.000000,0.000000,0.000000,0.000000,0.000000,0.000000,0.000000,0.000000,0.000000,0.000000,0.000000,,,,,,,,,,,,,,,,,,,,,,,,,,,,,,,,,,,,,,,,,,,,,,,,,,,,,,,,,,,,,,,,,,,,,,,,,,,,,,,,,,,,,,,,,,,,,,,,,,,,,,,,,,,,,,,,,,,,,,,,,,,,,,,,,
1738755228.597739,1738755228.597985,56.000000,0.000000,4324.102539,4348.974121,4256.666504,4303.333496,4347.948730,4359.743652,4364.871582,4550.641113,4537.436035,4558.589844,4496.282227,5665.512695,4304.487305,4253.333496,0.000000,4.000000,75.000000,,,,0.000000,0.000000,0.000000,0.000000,0.000000,0.000000,0.000000,0.000000,0.000000,0.000000,0.000000,0.000000,0.000000,0.000000,0.000000,0.000000,,,,,,,,,,,,,,,,,14.000000,0.000000,0.784754,-0.616272,-0.060852,0.025818,0.051764,-0.964473,0.237822,4.527190,-14.817978,22.753246,,,,,,,,,,,,,,,,,,,,,,,,,,,,,,,,,,,,,,,,,,,,,,,,,,,,,,,,,,,,,,,,,,,,,,,,,,,,,,,,,,,,,,,,,,,,,,,,,,,,,
1738755228.605547,1738755228.605693,57.000000,0.000000,4324.230957,4352.051270,4255.128418,4305.128418,4352.820313,4362.307617,4363.461426,4548.461426,4538.974121,4556.794922,4497.307617,5662.820313,4309.743652,4254.487305,0.000000,4.000000,75.000000,,,,0.000000,0.000000,0.000000,0.000000,0.000000,0.000000,0.000000,0.000000,0.000000,0.000000,0.000000,0.000000,0.000000,0.000000,0.000000,0.000000,,,,,,,,,,,,,,,,,,,,,,,,,,,,,,,,,,,,,,,,,,,,,,,,,,,,,,,,,,,,,,,,,,,,,,,,,,,,,,,,,,,,,,,,,,,,,,,,,,,,,,,,,,,,,,,,,,,,,,,,,,,,,,,,,
1738755228.613355,1738755228.613601,58.000000,0.000000,4323.077148,4353.077148,4255.256348,4303.205078,4353.846191,4361.538574,4363.461426,4550.769043,4538.846191,4557.563965,4498.077148,5664.102539,4312.820313,4256.922852,0.000000,4.000000,75.000000,,,,0.000000,0.000000,0.000000,0.000000,0.000000,0.000000,0.000000,0.000000,0.000000,0.000000,0.000000,0.000000,0.000000,0.000000,0.000000,0.000000,,,,,,,,,,,,,,,,,,,,,,,,,,,,,,,,,,,,,,,,,,,,,,,,,,,,,,,,,,,,,,,,,,,,,,,,,,,,,,,,,,,,,,,,,,,,,,,,,,,,,,,,,,,,,,,,,,,,,,,,,,,,,,,,,
1738755228.621163,1738755228.621409,59.000000,0.000000,4323.717773,4352.307617,4256.025879,4302.051270,4350.384766,4360.000000,4364.358887,4551.794922,4537.051270,4559.743652,4494.871582,5666.666504,4310.512695,4253.974121,0.000000,4.000000,75.000000,,,,0.000000,0.000000,0.000000,0.000000,0.000000,0.000000,0.000000,0.000000,0.000000,0.000000,0.000000,0.000000,0.000000,0.000000,0.000000,0.000000,,,,,,,,,,,,,,,,,,,,,,,,,,,,,,,,,,,,,,,,,,,,,,,,,,,,,,,,,,,,,,,,,,,,,,,,,,,,,,,,,,,,,,,,,,,,,,,,,,,,,,,,,,,,,,,,,,,,,,,,,,,,,,,,,
1738755228.628971,1738755228.629318,60.000000,0.000000,4323.077148,4351.794922,4255.384766,4302.436035,4350.512695,4360.000000,4365.769043,4549.230957,4540.512695,4559.102539,4494.358887,5665.128418,4309.743652,4254.102539,0.000000,4.000000,75.000000,,,,0.000000,0.000000,0.000000,0.000000,0.000000,0.000000,0.000000,0.000000,0.000000,0.000000,0.000000,0.000000,0.000000,0.000000,0.000000,0.000000,,,,,,,,,,,,,,,,,15.000000,0.000000,0.784805,-0.616211,-0.060791,0.025879,0.060066,-0.975217,0.234404,4.524471,-14.952847,22.844587,,,,,,,,,,,,,,,,,,,,,,,,,,,,,,,,,,,,,,,,,,,,,,,,,,,,,,,,,,,,,,,,,,,,,,,,,,,,,,,,,,,,,,,,,,,,,,,,,,,,,
1738755228.636780,1738755228.637126,61.000000,0.000000,4321.025879,4349.358887,4257.051270,4302.948730,4355.641113,4359.102539,4367.820313,4551.282227,4543.461426,4557.563965,4495.256348,5666.410156,4308.333496,4256.666504,0.000000,4.000000,75.000000,,,,0.000000,0.000000,0.000000,0.000000,0.000000,0.000000,0.000000,0.000000,0.000000,0.000000,0.000000,0.000000,0.000000,0.000000,0.000000,0.000000,,,,,,,,,,,,,,,,,,,,,,,,,,,,,,,,,,,,,,,,,,,,,,,,,,,,,,,,,,,,,,,,,,,,,,,,,,,,,,,,,,,,,,,,,,,,,,,,,,,,,,,,,,,,,,,,,,,,,,,,,,,,,,,,,
1738755228.644588,1738755228.645034,62.000000,0.000000,4321.410156,4349.615234,4255.897461,4303.589844,4356.282227,4360.000000,4365.641113,4550.000000,4540.256348,4557.563965,4497.179688,5665.128418,4312.307617,4257.948730,0.000000,4.000000,75.000000,,,,0.000000,0.000000,0.000000,0.000000,0.000000,0.000000,0.000000,0.000000,0.000000,0.000000,0.000000,0.000000,0.000000,0.000000,0.000000,0.000000,,,,,,,,,,,,,,,,,,,,,,,,,,,,,,,,,,,,,,,,,,,,,,,,,,,,,,,,,,,,0.077057,0.022840,0.030226,0.024036,0.026628,0.043837,0.037707,0.036479,0.024629,0.036574,0.028550,0.037875,0.028165,0.045517,0.030343,0.019787,0.028719,0.015660,0.032541,0.023981,0.044127,0.045604,0.077452,0.031718,0.042173,0.020809,0.021156,0.020003,0.013625,0.023662,0.050532,0.027677,0.045906,0.022791,0.028406,0.029767,0.037252,0.029027,0.016948,0.026705,0.031247,0.044768,0.044461,0.020058,0.050021,0.019191,0.023976,0.025502,0.018398,0.015535,0.029299,0.023535,0.012513,0.028234,0.017137,0.025824,0.022367,0.019289,0.030260,0.026661,0.084882,0.064020,0.051718,0.028333,0.043718,0.012414,0.038392,0.022158,0.012942,0.035908
1738755228.652396,1738755228.652842,63.000000,0.000000,4323.589844,4350.384766,4253.205078,4304.743652,4353.077148,4361.153809,4365.256348,4545.769043,4535.384766,4557.179688,4498.717773,5664.871582,4314.743652,4256.538574,0.000000,4.000000,75.000000,,,,0.000000,0.000000,0.000000,0.000000,0.000000,0.000000,0.000000,0.000000,0.000000,0.000000,0.000000,0.000000,0.000000,0.000000,0.000000,0.000000,,,,,,,,,,,,,,,,,,,,,,,,,,,,,,,,,,,,,,,,,,,,,,,,,,,,,,,,,,,,,,,,,,,,,,,,,,,,,,,,,,,,,,,,,,,,,,,,,,,,,,,,,,,,,,,,,,,,,,,,,,,,,,,,,
1738755228.660204,1738755228.660750,64.000000,0.000000,4323.461426,4348.589844,4255.256348,4303.077148,4352.563965,4360.641113,4366.794922,4549.487305,4536.153809,4557.436035,4495.256348,5666.410156,4312.051270,4255.256348,0.000000,4.000000,75.000000,,,,0.000000,0.000000,0.000000,0.000000,0.000000,0.000000,0.000000,0.000000,0.000000,0.000000,0.000000,0.000000,0.000000,0.000000,0.000000,0.000000,,,,,,,,,,,,,,,,,16.000000,0.000000,0.784803,-0.616211,-0.060791,0.025940,0.058601,-0.964962,0.242217,4.555357,-14.874228,22.910130,,,,,,,,,,,,,,,,,,,,,,,,,,,,,,,,,,,,,,,,,,,,,,,,,,,,,,,,,,,,,,,,,,,,,,,,,,,,,,,,,,,,,,,,,,,,,,,,,,,,,
1738755228.668012,1738755228.668558,65.000000,0.000000,4321.410156,4350.000000,4255.128418,4301.025879,4353.461426,4362.179688,4364.102539,4550.512695,4539.102539,4559.615234,4493.974121,5662.436035,4312.436035,4257.051270,0.000000,4.000000,75.000000,,,,0.000000,0.000000,0.000000,0.000000,0.000000,0.000000,0.000000,0.000000,0.000000,0.000000,0.000000,0.000000,0.000000,0.000000,0.000000,0.000000,,,,,,,,,,,,,,,,,,,,,,,,,,,,,,,,,,,,,,,,,,,,,,,,,,,,,,,,,,,,,,,,,,,,,,,,,,,,,,,,,,,,,,,,,,,,,,,,,,,,,,,,,,,,,,,,,,,,,,,,,,,,,,,,,
1738755228.675820,1738755228.676467,66.000000,0.000000,4323.205078,4351.025879,4253.589844,4305.641113,4353.461426,4363.461426,4364.102539,4547.692383,4535.641113,4558.589844,4496.666504,5661.794922,4309.230957,4256.410156,0.000000,4.000000,75.000000,,,,0.000000,0.000000,0.000000,0.000000,0.000000,0.000000,0.000000,0.000000,0.000000,0.000000,0.000000,0.000000,0.000000,0.000000,0.000000,0.000000,,,,,,,,,,,,,,,,,,,,,,,,,,,,,,,,,,,,,,,,,,,,,,,,,,,,,,,,,,,,,,,,,,,,,,,,,,,,,,,,,,,,,,,,,,,,,,,,,,,,,,,,,,,,,,,,,,,,,,,,,,,,,,,,,
1738755228.683628,1738755228.684275,67.000000,0.000000,4324.487305,4349.487305,4256.153809,4305.384766,4352.820313,4362.051270,4366.538574,4549.871582,4535.897461,4557.051270,4497.307617,5663.589844,4308.077148,4257.051270,0.000000,4.000000,75.000000,,,,0.000000,0.000000,0.000000,0.000000,0.000000,0.000000,0.000000,0.000000,0.000000,0.000000,0.000000,0.000000,0.000000,0.000000,0.000000,0.000000,,,,,,,,,,,,,,,,,,,,,,,,,,,,,,,,,,,,,,,,,,,,,,,,,,,,,,,,,,,,,,,,,,,,,,,,,,,,,,,,,,,,,,,,,,,,,,,,,,,,,,,,,,,,,,,,,,,,,,,,,,,,,,,,,
1738755228.691436,1738755228.692183,68.000000,0.000000,4322.307617,4350.512695,4258.077148,4300.769043,4353.205078,4362.307617,4365.384766,4551.538574,4540.000000,4559.743652,4496.025879,5663.077148,4311.666504,4257.692383,0.000000,4.000000,75.000000,,,,0.000000,0.000000,0.000000,0.000000,0.000000,0.000000,0.000000,0.000000,0.000000,0.000000,0.000000,0.000000,0.000000,0.000000,0.000000,0.000000,,,,,,,,,,,,,,,,,17.000000,0.000000,0.784796,-0.616211,-0.060852,0.026001,0.049811,-0.980100,0.238799,4.466488,-14.970140,22.869116,,,,,,,,,,,,,,,,,,,,,,,,,,,,,,,,,,,,,,,,,,,,,,,,,,,,,,,,,,,,,,,,,,,,,,,,,,,,,,,,,,,,,,,,,,,,,,,,,,,,,
1738755228.699244,1738755228.699991,69.000000,0.000000,4322.436035,4351.282227,4254.487305,4302.307617,4351.922852,4362.948730,4363.846191,4551.153809,4540.897461,4559.615234,4495.897461,5663.205078,4310.641113,4256.794922,0.000000,4.000000,75.000000,,,,0.000000,0.000000,0.000000,0.000000,0.000000,0.000000,0.000000,0.000000,0.000000,0.000000,0.000000,0.000000,0.000000,0.000000,0.000000,0.000000,,,,,,,,,,,,,,,,,,,,,,,,,,,,,,,,,,,,,,,,,,,,,,,,,,,,,,,,,,,,,,,,,,,,,,,,,,,,,,,,,,,,,,,,,,,,,,,,,,,,,,,,,,,,,,,,,,,,,,,,,,,,,,,,,
1738755228.707052,1738755228.707699,70.000000,0.000000,4323.205078,4350.000000,4251.282227,4303.974121,4350.128418,4360.384766,4363.974121,4551.282227,4540.769043,4557.820313,4497.307617,5663.077148,4313.717773,4257.692383,0.000000,4.000000,75.000000,,,,0.000000,0.000000,0.000000,0.000000,0.000000,0.000000,0.000000,0.000000,0.000000,0.000000,0.000000,0.000000,0.000000,0.000000,0.000000,0.000000,,,,,,,,,,,,,,,,,,,,,,,,,,,,,,,,,,,,,,,,,,,,,,,,,,,,,,,,,,,,,,,,,,,,,,,,,,,,,,,,,,,,,,,,,,,,,,,,,,,,,,,,,,,,,,,,,,,,,,,,,,,,,,,,,
1738755228.714861,1738755228.715508,71.000000,0.000000,4323.077148,4351.538574,4255.512695,4303.974121,4352.179688,4360.000000,4365.128418,4551.410156,4537.307617,4558.717773,4497.051270,5663.974121,4315.256348,4256.794922,0.000000,4.000000,75.000000,,,,0.000000,0.000000,0.000000,0.000000,0.000000,0.000000,0.000000,0.000000,0.000000,0.000000,0.000000,0.000000,0.000000,0.000000,0.000000,0.000000,,,,,,,,,,,,,,,,,,,,,,,,,,,,,,,,,,,,,,,,,,,,,,,,,,,,,,,,,,,,,,,,,,,,,,,,,,,,,,,,,,,,,,,,,,,,,,,,,,,,,,,,,,,,,,,,,,,,,,,,,,,,,,,,,
1738755228.722669,1738755228.723216,72.000000,0.000000,4323.589844,4352.307617,4259.102539,4299.743652,4353.717773,4360.897461,4364.230957,4550.000000,4536.666504,4558.589844,4497.179688,5664.358887,4312.820313,4256.538574,0.000000,4.000000,75.000000,,,,0.000000,0.000000,0.000000,0.000000,0.000000,0.000000,0.000000,0.000000,0.000000,0.000000,0.000000,0.000000,0.000000,0.000000,0.000000,0.000000,,,,,,,,,,,,,,,,,18.000000,0.000000,0.784708,-0.616333,-0.060730,0.026062,0.073251,-0.967892,0.243194,4.419839,-15.023126,23.015537,,,,,,,,,,,,,,,,,,,,,,,,,,,,,,,,,,,,,,,,,,,,,,,,,,,,,,,,,,,,,,,,,,,,,,,,,,,,,,,,,,,,,,,,,,,,,,,,,,,,,
1738755228.730477,1738755228.731024,73.000000,0.000000,4323.846191,4349.358887,4255.512695,4297.692383,4353.589844,4360.000000,4365.000000,4550.000000,4542.307617,4556.538574,4497.692383,5662.820313,4311.025879,4257.436035,0.000000,4.000000,75.000000,,,,0.000000,0.000000,0.000000,0.000000,0.000000,0.000000,0.000000,0.000000,0.000000,0.000000,0.000000,0.000000,0.000000,0.000000,0.000000,0.000000,,,,,,,,,,,,,,,,,,,,,,,,,,,,,,,,,,,,,,,,,,,,,,,,,,,,,,,,,,,,,,,,,,,,,,,,,,,,,,,,,,,,,,,,,,,,,,,,,,,,,,,,,,,,,,,,,,,,,,,,,,,,,,,,,
1738755228.738285,1738755228.738732,74.000000,0.000000,4322.692383,4349.487305,4252.179688,4303.333496,4352.820313,4360.256348,4366.153809,4550.897461,4542.051270,4556.538574,4496.153809,5664.230957,4308.717773,4257.436035,0.000000,4.000000,75.000000,,,,0.000000,0.000000,0.000000,0.000000,0.000000,0.000000,0.000000,0.000000,0.000000,0.000000,0.000000,0.000000,0.000000,0.000000,0.000000,0.000000,,,,,,,,,,,,,,,,,,,,,,,,,,,,,,,,,,,,,,,,,,,,,,,,,,,,,,,,,,,,,,,,,,,,,,,,,,,,,,,,,,,,,,,,,,,,,,,,,,,,,,,,,,,,,,,,,,,,,,,,,,,,,,,,,
1738755228.746093,1738755228.746540,75.000000,0.000000,4320.641113,4351.025879,4254.743652,4304.358887,4351.282227,4361.153809,4362.820313,4551.410156,4537.948730,4561.025879,4496.666504,5664.615234,4311.794922,4261.153809,0.000000,4.000000,75.000000,,,,0.000000,0.000000,0.000000,0.000000,0.000000,0.000000,0.000000,0.000000,0.000000,0.000000,0.000000,0.000000,0.000000,0.000000,0.000000,0.000000,,,,,,,,,,,,,,,,,,,,,,,,,,,,,,,,,,,,,,,,,,,,,,,,,,,,,,,,,,,,,,,,,,,,,,,,,,,,,,,,,,,,,,,,,,,,,,,,,,,,,,,,,,,,,,,,,,,,,,,,,,,,,,,,,
1738755228.753901,1738755228.754348,76.000000,0.000000,4322.051270,4350.641113,4257.307617,4299.743652,4351.666504,4360.384766,4362.820313,4553.333496,4538.717773,4561.794922,4497.820313,5663.974121,4309.615234,4259.615234,0.000000,4.000000,75.000000,,,,0.000000,0.000000,0.000000,0.000000,0.000000,0.000000,0.000000,0.000000,0.000000,0.000000,0.000000,0.000000,0.000000,0.000000,0.000000,0.000000,,,,,,,,,,,,,,,,,19.000000,0.000000,0.784706,-0.616333,-0.060730,0.026123,0.065438,-0.977170,0.223172,4.427855,-14.920813,22.997318,,,,,,,,,,,,,,,,,,,,,,,,,,,,,,,,,,,,,,,,,,,,,,,,,,,,,,,,,,,,,,,,,,,,,,,,,,,,,,,,,,,,,,,,,,,,,,,,,,,,,
1738755228.761709,1738755228.762256,77.000000,0.000000,4323.974121,4350.769043,4254.871582,4300.897461,4352.820313,4358.974121,4366.922852,4551.282227,4541.025879,4559.358887,4497.179688,5663.077148,4309.102539,4253.077148,0.000000,4.000000,75.000000,,,,0.000000,0.000000,0.000000,0.000000,0.000000,0.000000,0.000000,0.000000,0.000000,0.000000,0.000000,0.000000,0.000000,0.000000,0.000000,0.000000,,,,,,,,,,,,,,,,,,,,,,,,,,,,,,,,,,,,,,,,,,,,,,,,,,,,,,,,,,,,,,,,,,,,,,,,,,,,,,,,,,,,,,,,,,,,,,,,,,,,,,,,,,,,,,,,,,,,,,,,,,,,,,,,,
1738755228.769517,1738755228.770064,78.000000,0.000000,4322.820313,4351.282227,4252.948730,4304.487305,4352.948730,4359.358887,4367.307617,4547.820313,4539.871582,4560.000000,4497.179688,5661.538574,4316.282227,4253.846191,0.000000,4.000000,75.000000,,,,0.000000,0.000000,0.000000,0.000000,0.000000,0.000000,0.000000,0.000000,0.000000,0.000000,0.000000,0.000000,0.000000,0.000000,0.000000,0.000000,,,,,,,,,,,,,,,,,,,,,,,,,,,,,,,,,,,,,,,,,,,,,,,,,,,,,,,,,,,,0.072137,0.022094,0.027724,0.022306,0.025980,0.040969,0.041027,0.039039,0.025782,0.039590,0.028860,0.040979,0.029491,0.040262,0.029737,0.016053,0.032166,0.016713,0.032080,0.023679,0.045444,0.039027,0.078829,0.033326,0.046653,0.020113,0.021683,0.019913,0.013994,0.026635,0.051336,0.030144,0.041560,0.018274,0.027135,0.030834,0.030268,0.030284,0.017209,0.028753,0.028156,0.047524,0.040751,0.019190,0.048213,0.020861,0.024005,0.018070,0.019876,0.016649,0.034812,0.022435,0.013204,0.028346,0.017288,0.029739,0.026197,0.018552,0.031314,0.029764,0.085236,0.066066,0.041634,0.031235,0.048264,0.012986,0.037828,0.024988,0.012435,0.038792
1738755228.777325,1738755228.777872,79.000000,0.000000,4321.282227,4348.589844,4254.102539,4304.743652,4352.307617,4360.256348,4367.563965,4548.717773,4537.563965,4560.512695,4499.102539,5664.102539,4311.025879,4255.384766,0.000000,4.000000,75.000000,,,,0.000000,0.000000,0.000000,0.000000,0.000000,0.000000,0.000000,0.000000,0.000000,0.000000,0.000000,0.000000,0.000000,0.000000,0.000000,0.000000,,,,,,,,,,,,,,,,,,,,,,,,,,,,,,,,,,,,,,,,,,,,,,,,,,,,,,,,,,,,,,,,,,,,,,,,,,,,,,,,,,,,,,,,,,,,,,,,,,,,,,,,,,,,,,,,,,,,,,,,,,,,,,,,,
1738755228.785133,1738755228.785580,80.000000,0.000000,4320.512695,4347.563965,4252.436035,4303.846191,4352.307617,4360.769043,4366.922852,4549.871582,4538.461426,4559.487305,4498.077148,5664.230957,4306.666504,4255.384766,0.000000,4.000000,75.000000,,,,0.000000,0.000000,0.000000,0.000000,0.000000,0.000000,0.000000,0.000000,0.000000,0.000000,0.000000,0.000000,0.000000,0.000000,0.000000,0.000000,,,,,,,,,,,,,,,,,20.000000,0.000000,0.784799,-0.616211,-0.060791,0.026062,0.058601,-0.984984,0.230497,4.401737,-15.012065,23.030920,,,,,,,,,,,,,,,,,,,,,,,,,,,,,,,,,,,,,,,,,,,,,,,,,,,,,,,,,,,,,,,,,,,,,,,,,,,,,,,,,,,,,,,,,,,,,,,,,,,,,
1738755228.792941,1738755228.793388,81.000000,0.000000,4321.410156,4348.974121,4250.512695,4302.948730,4352.307617,4360.769043,4367.692383,4551.153809,4537.692383,4558.846191,4494.487305,5662.563965,4311.025879,4256.666504,0.000000,4.000000,75.000000,,,,0.000000,0.000000,0.000000,0.000000,0.000000,0.000000,0.000000,0.000000,0.000000,0.000000,0.000000,0.000000,0.000000,0.000000,0.000000,0.000000,,,,,,,,,,,,,,,,,,,,,,,,,,,,,,,,,,,,,,,,,,,,,,,,,,,,,,,,,,,,,,,,,,,,,,,,,,,,,,,,,,,,,,,,,,,,,,,,,,,,,,,,,,,,,,,,,,,,,,,,,,,,,,,,,
1738755228.800750,1738755228.801096,82.000000,0.000000,4322.051270,4348.589844,4251.794922,4302.692383,4352.820313,4360.512695,4367.692383,4548.333496,4535.128418,4559.358887,4497.051270,5661.666504,4311.794922,4256.922852,0.000000,4.000000,75.000000,,,,0.000000,0.000000,0.000000,0.000000,0.000000,0.000000,0.000000,0.000000,0.000000,0.000000,0.000000,0.000000,0.000000,0.000000,0.000000,0.000000,,,,,,,,,,,,,,,,,,,,,,,,,,,,,,,,,,,,,,,,,,,,,,,,,,,,,,,,,,,,,,,,,,,,,,,,,,,,,,,,,,,,,,,,,,,,,,,,,,,,,,,,,,,,,,,,,,,,,,,,,,,,,,,,,
1738755228.808558,1738755228.808904,83.000000,0.000000,4321.538574,4348.589844,4252.692383,4303.974121,4354.615234,4360.256348,4364.487305,4546.025879,4536.538574,4559.230957,4499.871582,5660.128418,4309.102539,4257.948730,0.000000,4.000000,75.000000,,,,0.000000,0.000000,0.000000,0.000000,0.000000,0.000000,0.000000,0.000000,0.000000,0.000000,0.000000,0.000000,0.000000,0.000000,0.000000,0.000000,,,,,,,,,,,,,,,,,,,,,,,,,,,,,,,,,,,,,,,,,,,,,,,,,,,,,,,,,,,,,,,,,,,,,,,,,,,,,,,,,,,,,,,,,,,,,,,,,,,,,,,,,,,,,,,,,,,,,,,,,,,,,,,,,
1738755228.816366,1738755228.816613,84.000000,0.000000,4321.922852,4348.333496,4254.743652,4304.743652,4353.589844,4358.589844,4364.871582,4550.769043,4540.000000,4558.205078,4496.922852,5662.820313,4307.563965,4256.794922,0.000000,4.000000,75.000000,,,,0.000000,0.000000,0.000000,0.000000,0.000000,0.000000,0.000000,0.000000,0.000000,0.000000,0.000000,0.000000,0.000000,0.000000,0.000000,0.000000,,,,,,,,,,,,,,,,,21.000000,0.000000,0.784801,-0.616211,-0.060791,0.026001,0.065926,-0.961055,0.228055,4.394897,-14.977525,23.111160,,,,,,,,,,,,,,,,,,,,,,,,,,,,,,,,,,,,,,,,,,,,,,,,,,,,,,,,,,,,,,,,,,,,,,,,,,,,,,,,,,,,,,,,,,,,,,,,,,,,,
1738755228.824174,1738755228.824421,85.000000,0.000000,4322.820313,4347.820313,4255.384766,4299.358887,4351.410156,4359.358887,4365.512695,4549.102539,4540.384766,4558.974121,4495.128418,5662.820313,4310.512695,4256.538574,0.000000,4.000000,75.000000,,,,0.000000,0.000000,0.000000,0.000000,0.000000,0.000000,0.000000,0.000000,0.000000,0.000000,0.000000,0.000000,0.000000,0.000000,0.000000,0.000000,,,,,,,,,,,,,,,,,,,,,,,,,,,,,,,,,,,,,,,,,,,,,,,,,,,,,,,,,,,,,,,,,,,,,,,,,,,,,,,,,,,,,,,,,,,,,,,,,,,,,,,,,,,,,,,,,,,,,,,,,,,,,,,,,
1738755228.831982,1738755228.832129,86.000000,0.000000,4323.717773,4347.051270,4254.358887,4296.153809,4351.410156,4362.179688,4364.743652,4545.384766,4537.948730,4559.358887,4497.692383,5660.769043,4312.051270,4258.205078,0.000000,4.000000,75.000000,,,,0.000000,0.000000,0.000000,0.000000,0.000000,0.000000,0.000000,0.000000,0.000000,0.000000,0.000000,0.000000,0.000000,0.000000,0.000000,0.000000,,,,,,,,,,,,,,,,,,,,,,,,,,,,,,,,,,,,,,,,,,,,,,,,,,,,,,,,,,,,,,,,,,,,,,,,,,,,,,,,,,,,,,,,,,,,,,,,,,,,,,,,,,,,,,,,,,,,,,,,,,,,,,,,,
1738755228.839790,1738755228.840037,87.000000,0.000000,4322.307617,4349.230957,4254.230957,4300.256348,4352.692383,4361.794922,4365.384766,4548.205078,4539.487305,4559.358887,4497.948730,5663.589844,4310.384766,4255.897461,0.000000,4.000000,75.000000,,,,0.000000,0.000000,0.000000,0.000000,0.000000,0.000000,0.000000,0.000000,0.000000,0.000000,0.000000,0.000000,0.000000,0.000000,0.000000,0.000000,,,,,,,,,,,,,,,,,,,,,,,,,,,,,,,,,,,,,,,,,,,,,,,,,,,,,,,,,,,,,,,,,,,,,,,,,,,,,,,,,,,,,,,,,,,,,,,,,,,,,,,,,,,,,,,,,,,,,,,,,,,,,,,,,
1738755228.847598,1738755228.847845,88.000000,0.000000,4320.128418,4352.307617,4254.743652,4301.410156,4354.358887,4360.512695,4365.000000,4547.436035,4542.692383,4559.102539,4496.282227,5663.717773,4310.384766,4253.077148,0.000000,4.000000,75.000000,,,,0.000000,0.000000,0.000000,0.000000,0.000000,0.000000,0.000000,0.000000,0.000000,0.000000,0.000000,0.000000,0.000000,0.000000,0.000000,0.000000,,,,,,,,,,,,,,,,,22.000000,0.000000,0.784801,-0.616211,-0.060791,0.026001,0.063484,-0.973263,0.242217,4.438740,-14.946439,23.016712,,,,,,,,,,,,,,,,,,,,,,,,,,,,,,,,,,,,,,,,,,,,,,,,,,,,,,,,,,,,,,,,,,,,,,,,,,,,,,,,,,,,,,,,,,,,,,,,,,,,,
1738755228.855406,1738755228.855753,89.000000,0.000000,4321.794922,4349.871582,4255.128418,4302.051270,4353.846191,4360.769043,4362.692383,4546.922852,4540.128418,4558.589844,4496.922852,5661.025879,4306.794922,4253.846191,0.000000,4.000000,75.000000,,,,0.000000,0.000000,0.000000,0.000000,0.000000,0.000000,0.000000,0.000000,0.000000,0.000000,0.000000,0.000000,0.000000,0.000000,0.000000,0.000000,,,,,,,,,,,,,,,,,,,,,,,,,,,,,,,,,,,,,,,,,,,,,,,,,,,,,,,,,,,,,,,,,,,,,,,,,,,,,,,,,,,,,,,,,,,,,,,,,,,,,,,,,,,,,,,,,,,,,,,,,,,,,,,,,
1738755228.863214,1738755228.863561,90.000000,0.000000,4325.512695,4349.615234,4255.512695,4302.948730,4351.025879,4360.641113,4361.666504,4549.615234,4537.692383,4558.974121,4495.769043,5660.384766,4307.563965,4257.820313,0.000000,4.000000,75.000000,,,,0.000000,0.000000,0.000000,0.000000,0.000000,0.000000,0.000000,0.000000,0.000000,0.000000,0.000000,0.000000,0.000000,0.000000,0.000000,0.000000,,,,,,,,,,,,,,,,,,,,,,,,,,,,,,,,,,,,,,,,,,,,,,,,,,,,,,,,,,,,,,,,,,,,,,,,,,,,,,,,,,,,,,,,,,,,,,,,,,,,,,,,,,,,,,,,,,,,,,,,,,,,,,,,,
1738755228.871023,1738755228.871469,91.000000,0.000000,4325.128418,4351.282227,4256.794922,4301.794922,4349.871582,4360.384766,4365.384766,4549.615234,4539.743652,4559.230957,4493.205078,5662.179688,4311.538574,4258.461426,0.000000,4.000000,75.000000,,,,0.000000,0.000000,0.000000,0.000000,0.000000,0.000000,0.000000,0.000000,0.000000,0.000000,0.000000,0.000000,0.000000,0.000000,0.000000,0.000000,,,,,,,,,,,,,,,,,,,,,,,,,,,,,,,,,,,,,,,,,,,,,,,,,,,,,,,,,,,,,,,,,,,,,,,,,,,,,,,,,,,,,,,,,,,,,,,,,,,,,,,,,,,,,,,,,,,,,,,,,,,,,,,,,
1738755228.878831,1738755228.879278,92.000000,0.000000,4321.025879,4351.282227,4256.922852,4301.282227,4353.333496,4360.641113,4365.256348,4550.128418,4539.358887,4560.897461,4494.358887,5664.358887,4307.948730,4257.179688,0.000000,4.000000,75.000000,,,,0.000000,0.000000,0.000000,0.000000,0.000000,0.000000,0.000000,0.000000,0.000000,0.000000,0.000000,0.000000,0.000000,0.000000,0.000000,0.000000,,,,,,,,,,,,,,,,,23.000000,0.000000,0.784746,-0.616272,-0.060852,0.026062,0.069344,-0.969357,0.231474,4.361533,-14.935128,23.131706,,,,,,,,,,,,,,,,,,,,,,,,,,,,,,,,,,,,,,,,,,,,,,,,,,,,,,,,,,,,,,,,,,,,,,,,,,,,,,,,,,,,,,,,,,,,,,,,,,,,,
1738755228.886639,1738755228.887186,93.000000,0.000000,4320.512695,4351.922852,4255.128418,4301.794922,4354.487305,4359.102539,4362.692383,4550.769043,4536.922852,4562.307617,4497.179688,5662.692383,4307.692383,4257.051270,0.000000,4.000000,75.000000,,,,0.000000,0.000000,0.000000,0.000000,0.000000,0.000000,0.000000,0.000000,0.000000,0.000000,0.000000,0.000000,0.000000,0.000000,0.000000,0.000000,,,,,,,,,,,,,,,,,,,,,,,,,,,,,,,,,,,,,,,,,,,,,,,,,,,,,,,,,,,,,,,,,,,,,,,,,,,,,,,,,,,,,,,,,,,,,,,,,,,,,,,,,,,,,,,,,,,,,,,,,,,,,,,,,
1738755228.894447,1738755228.894994,94.000000,0.000000,4323.077148,4350.384766,4252.948730,4301.282227,4350.384766,4359.871582,4366.025879,4548.333496,4537.436035,4559.615234,4496.538574,5663.717773,4310.769043,4255.128418,0.000000,4.000000,75.000000,,,,0.000000,0.000000,0.000000,0.000000,0.000000,0.000000,0.000000,0.000000,0.000000,0.000000,0.000000,0.000000,0.000000,0.000000,0.000000,0.000000,1.000000,0.000000,0.000000,0.000000,0.000000,0.000000,0.000000,0.000000,0.000000,0.000000,0.000000,0.000000,0.000000,0.000000,0.000000,0.000000,,,,,,,,,,,,,,,,,,,,,,,,,,,,,,,,,,,,,,,,,,,,0.065252,0.021314,0.024644,0.019866,0.024303,0.036271,0.040668,0.039786,0.025232,0.042742,0.028182,0.042447,0.031004,0.034228,0.028708,0.015431,0.034767,0.017094,0.031055,0.023678,0.046243,0.035295,0.074060,0.034346,0.050711,0.018754,0.020700,0.020651,0.014667,0.028333,0.050131,0.033142,0.036753,0.016068,0.026195,0.030201,0.024199,0.032435,0.017586,0.030857,0.028600,0.050770,0.033512,0.018046,0.044004,0.022661,0.023586,0.012898,0.019655,0.017168,0.038760,0.019607,0.013484,0.027525,0.018134,0.031202,0.028716,0.018224,0.032449,0.032443,0.080686,0.065846,0.033848,0.032860,0.054029,0.016413,0.037794,0.025990,0.012173,0.039907
1738755228.902255,1738755228.902902,95.000000,0.000000,4323.846191,4348.461426,4253.205078,4299.230957,4347.820313,4362.692383,4368.589844,4547.563965,4540.769043,4557.307617,4495.256348,5663.717773,4312.307617,4256.666504,0.000000,4.000000,75.000000,,,,0.000000,0.000000,0.000000,0.000000,0.000000,0.000000,0.000000,0.000000,0.000000,0.000000,0.000000,0.000000,0.000000,0.000000,0.000000,0.000000,,,,,,,,,,,,,,,,,,,,,,,,,,,,,,,,,,,,,,,,,,,,,,,,,,,,,,,,,,,,,,,,,,,,,,,,,,,,,,,,,,,,,,,,,,,,,,,,,,,,,,,,,,,,,,,,,,,,,,,,,,,,,,,,,
1738755228.910063,1738755228.910710,96.000000,0.000000,4322.436035,4349.358887,4254.487305,4301.538574,4350.384766,4362.436035,4365.897461,4547.563965,4542.436035,4558.205078,4496.538574,5661.153809,4309.487305,4256.153809,0.000000,4.000000,75.000000,,,,0.000000,0.000000,0.000000,0.000000,0.000000,0.000000,0.000000,0.000000,0.000000,0.000000,0.000000,0.000000,0.000000,0.000000,0.000000,0.000000,,,,,,,,,,,,,,,,,24.000000,0.000000,0.784802,-0.616211,-0.060730,0.026123,0.056159,-0.972775,0.239287,4.375380,-14.974949,23.235203,,,,,,,,,,,,,,,,,,,,,,,,,,,,,,,,,,,,,,,,,,,,,,,,,,,,,,,,,,,,,,,,,,,,,,,,,,,,,,,,,,,,,,,,,,,,,,,,,,,,,
1738755228.917871,1738755228.918418,97.000000,0.000000,4321.282227,4351.922852,4255.128418,4307.179688,4352.179688,4361.410156,4365.000000,4547.307617,4539.615234,4557.948730,4495.897461,5662.436035,4305.128418,4251.025879,0.000000,4.000000,75.000000,,,,0.000000,0.000000,0.000000,0.000000,0.000000,0.000000,0.000000,0.000000,0.000000,0.000000,0.000000,0.000000,0.000000,0.000000,0.000000,0.000000,,,,,,,,,,,,,,,,,,,,,,,,,,,,,,,,,,,,,,,,,,,,,,,,,,,,,,,,,,,,,,,,,,,,,,,,,,,,,,,,,,,,,,,,,,,,,,,,,,,,,,,,,,,,,,,,,,,,,,,,,,,,,,,,,
1738755228.925679,1738755228.926227,98.000000,0.000000,4321.282227,4352.692383,4255.384766,4305.897461,4350.641113,4361.922852,4363.589844,4547.692383,4538.974121,4559.102539,4495.256348,5663.846191,4311.153809,4255.769043,0.000000,4.000000,75.000000,,,,0.000000,0.000000,0.000000,0.000000,0.000000,0.000000,0.000000,0.000000,0.000000,0.000000,0.000000,0.000000,0.000000,0.000000,0.000000,0.000000,,,,,,,,,,,,,,,,,,,,,,,,,,,,,,,,,,,,,,,,,,,,,,,,,,,,,,,,,,,,,,,,,,,,,,,,,,,,,,,,,,,,,,,,,,,,,,,,,,,,,,,,,,,,,,,,,,,,,,,,,,,,,,,,,
1738755228.933487,1738755228.933935,99.000000,0.000000,4323.077148,4349.743652,4252.948730,4302.948730,4349.358887,4362.692383,4365.128418,4548.205078,4538.077148,4562.948730,4496.794922,5662.820313,4312.051270,4259.358887,0.000000,4.000000,75.000000,,,,0.000000,0.000000,0.000000,0.000000,0.000000,0.000000,0.000000,0.000000,0.000000,0.000000,0.000000,0.000000,0.000000,0.000000,0.000000,0.000000,,,,,,,,,,,,,,,,,,,,,,,,,,,,,,,,,,,,,,,,,,,,,,,,,,,,,,,,,,,,,,,,,,,,,,,,,,,,,,,,,,,,,,,,,,,,,,,,,,,,,,,,,,,,,,,,,,,,,,,,,,,,,,,,,
1738755228.941296,1738755228.941743,100.000000,0.000000,4322.820313,4347.692383,4252.948730,4304.743652,4351.538574,4361.666504,4368.077148,4547.820313,4536.538574,4562.051270,4498.077148,5661.666504,4307.179688,4254.871582,0.000000,4.000000,75.000000,,,,0.000000,0.000000,0.000000,0.000000,0.000000,0.000000,0.000000,0.000000,0.000000,0.000000,0.000000,0.000000,0.000000,0.000000,0.000000,0.000000,,,,,,,,,,,,,,,,,25.000000,0.000000,0.784802,-0.616211,-0.060669,0.026245,0.063973,-0.977658,0.237334,4.304508,-14.927454,23.161682,,,,,,,,,,,,,,,,,,,,,,,,,,,,,,,,,,,,,,,,,,,,,,,,,,,,,,,,,,,,,,,,,,,,,,,,,,,,,,,,,,,,,,,,,,,,,,,,,,,,,
1738755228.949103,1738755228.949451,101.000000,0.000000,4320.384766,4350.256348,4255.897461,4303.461426,4354.230957,4359.615234,4364.230957,4546.666504,4540.256348,4559.615234,4496.538574,5664.358887,4310.000000,4254.230957,0.000000,4.000000,75.000000,,,,0.000000,0.000000,0.000000,0.000000,0.000000,0.000000,0.000000,0.000000,0.000000,0.000000,0.000000,0.000000,0.000000,0.000000,0.000000,0.000000,,,,,,,,,,,,,,,,,,,,,,,,,,,,,,,,,,,,,,,,,,,,,,,,,,,,,,,,,,,,,,,,,,,,,,,,,,,,,,,,,,,,,,,,,,,,,,,,,,,,,,,,,,,,,,,,,,,,,,,,,,,,,,,,,
1738755228.956912,1738755228.957259,102.000000,0.000000,4322.563965,4350.256348,4255.256348,4301.538574,4353.077148,4360.641113,4361.922852,4547.436035,4539.615234,4558.974121,4494.743652,5666.282227,4309.487305,4255.512695,0.000000,4.000000,75.000000,,,,0.000000,0.000000,0.000000,0.000000,0.000000,0.000000,0.000000,0.000000,0.000000,0.000000,0.000000,0.000000,0.000000,0.000000,0.000000,0.000000,,,,,,,,,,,,,,,,,,,,,,,,,,,,,,,,,,,,,,,,,,,,,,,,,,,,,,,,,,,,,,,,,,,,,,,,,,,,,,,,,,,,,,,,,,,,,,,,,,,,,,,,,,,,,,,,,,,,,,,,,,,,,,,,,
1738755228.964720,1738755228.964967,103.000000,0.000000,4322.563965,4346.153809,4252.820313,4303.077148,4350.512695,4362.436035,4364.615234,4549.358887,4537.307617,4559.102539,4496.282227,5661.666504,4308.974121,4256.282227,0.000000,4.000000,75.000000,,,,0.000000,0.000000,0.000000,0.000000,0.000000,0.000000,0.000000,0.000000,0.000000,0.000000,0.000000,0.000000,0.000000,0.000000,0.000000,0.000000,,,,,,,,,,,,,,,,,,,,,,,,,,,,,,,,,,,,,,,,,,,,,,,,,,,,,,,,,,,,,,,,,,,,,,,,,,,,,,,,,,,,,,,,,,,,,,,,,,,,,,,,,,,,,,,,,,,,,,,,,,,,,,,,,
1738755228.972528,1738755228.972775,104.000000,0.000000,4320.384766,4347.051270,4255.128418,4305.897461,4351.025879,4361.025879,4367.563965,4550.000000,4541.025879,4560.384766,4493.461426,5660.256348,4309.615234,4255.256348,0.000000,4.000000,75.000000,,,,0.000000,0.000000,0.000000,0.000000,0.000000,0.000000,0.000000,0.000000,0.000000,0.000000,0.000000,0.000000,0.000000,0.000000,0.000000,0.000000,,,,,,,,,,,,,,,,,26.000000,0.000000,0.784793,-0.616211,-0.060791,0.026245,0.062019,-0.982053,0.232450,4.440724,-14.684709,23.028847,,,,,,,,,,,,,,,,,,,,,,,,,,,,,,,,,,,,,,,,,,,,,,,,,,,,,,,,,,,,,,,,,,,,,,,,,,,,,,,,,,,,,,,,,,,,,,,,,,,,,
1738755228.980336,1738755228.980483,105.000000,0.000000,4322.179688,4351.025879,4257.820313,4306.282227,4352.692383,4359.615234,4366.410156,4549.102539,4543.333496,4561.025879,4491.282227,5662.179688,4309.487305,4253.589844,0.000000,4.000000,75.000000,,,,0.000000,0.000000,0.000000,0.000000,0.000000,0.000000,0.000000,0.000000,0.000000,0.000000,0.000000,0.000000,0.000000,0.000000,0.000000,0.000000,,,,,,,,,,,,,,,,,,,,,,,,,,,,,,,,,,,,,,,,,,,,,,,,,,,,,,,,,,,,,,,,,,,,,,,,,,,,,,,,,,,,,,,,,,,,,,,,,,,,,,,,,,,,,,,,,,,,,,,,,,,,,,,,,
1738755228.988144,1738755228.988291,106.000000,0.000000,4322.948730,4351.538574,4255.128418,4302.436035,4351.153809,4361.666504,4362.179688,4547.307617,4540.384766,4560.769043,4496.153809,5661.538574,4311.794922,4255.512695,0.000000,4.000000,75.000000,,,,0.000000,0.000000,0.000000,0.000000,0.000000,0.000000,0.000000,0.000000,0.000000,0.000000,0.000000,0.000000,0.000000,0.000000,0.000000,0.000000,,,,,,,,,,,,,,,,,,,,,,,,,,,,,,,,,,,,,,,,,,,,,,,,,,,,,,,,,,,,,,,,,,,,,,,,,,,,,,,,,,,,,,,,,,,,,,,,,,,,,,,,,,,,,,,,,,,,,,,,,,,,,,,,,
1738755228.995952,1738755228.995999,107.000000,0.000000,4321.922852,4350.641113,4253.717773,4301.282227,4351.153809,4362.820313,4362.179688,4550.256348,4540.000000,4560.384766,4497.051270,5662.692383,4308.589844,4256.282227,0.000000,4.000000,75.000000,,,,0.000000,0.000000,0.000000,0.000000,0.000000,0.000000,0.000000,0.000000,0.000000,0.000000,0.000000,0.000000,0.000000,0.000000,0.000000,0.000000,,,,,,,,,,,,,,,,,,,,,,,,,,,,,,,,,,,,,,,,,,,,,,,,,,,,,,,,,,,,,,,,,,,,,,,,,,,,,,,,,,,,,,,,,,,,,,,,,,,,,,,,,,,,,,,,,,,,,,,,,,,,,,,,,
1738755229.003760,1738755229.003807,108.000000,0.000000,4320.512695,4352.179688,4254.230957,4302.179688,4352.692383,4359.230957,4363.077148,4553.205078,4542.436035,4560.512695,4497.179688,5663.461426,4310.128418,4255.128418,0.000000,4.000000,75.000000,,,,0.000000,0.000000,0.000000,0.000000,0.000000,0.000000,0.000000,0.000000,0.000000,0.000000,0.000000,0.000000,0.000000,0.000000,0.000000,0.000000,,,,,,,,,,,,,,,,,27.000000,0.000000,0.784793,-0.616211,-0.060791,0.026245,0.055183,-0.982053,0.234404,4.329985,-14.666238,23.225964,,,,,,,,,,,,,,,,,,,,,,,,,,,,,,,,,,,,,,,,,,,,,,,,,,,,,,,,,,,,,,,,,,,,,,,,,,,,,,,,,,,,,,,,,,,,,,,,,,,,,
1738755229.011568,1738755229.011515,109.000000,0.000000,4320.000000,4351.666504,4251.794922,4302.692383,4351.922852,4357.692383,4364.230957,4550.384766,4541.922852,4558.333496,4500.769043,5663.846191,4315.384766,4256.153809,0.000000,4.000000,75.000000,,,,0.000000,0.000000,0.000000,0.000000,0.000000,0.000000,0.000000,0.000000,0.000000,0.000000,0.000000,0.000000,0.000000,0.000000,0.000000,0.000000,,,,,,,,,,,,,,,,,,,,,,,,,,,,,,,,,,,,,,,,,,,,,,,,,,,,,,,,,,,,,,,,,,,,,,,,,,,,,,,,,,,,,,,,,,,,,,,,,,,,,,,,,,,,,,,,,,,,,,,,,,,,,,,,,
1738755229.019376,1738755229.019423,110.000000,0.000000,4319.743652,4347.179688,4253.205078,4304.230957,4352.692383,4359.743652,4365.769043,4548.461426,4539.358887,4555.769043,4499.102539,5664.102539,4310.769043,4255.769043,0.000000,4.000000,75.000000,,,,0.000000,0.000000,0.000000,0.000000,0.000000,0.000000,0.000000,0.000000,0.000000,0.000000,0.000000,0.000000,0.000000,0.000000,0.000000,0.000000,,,,,,,,,,,,,,,,,,,,,,,,,,,,,,,,,,,,,,,,,,,,,,,,,,,,,,,,,,,,0.058712,0.020843,0.022131,0.017156,0.022147,0.030949,0.036867,0.038276,0.023286,0.045279,0.026068,0.041766,0.032336,0.028958,0.027430,0.017492,0.036559,0.016124,0.029789,0.024120,0.046715,0.033804,0.064603,0.034465,0.053857,0.017360,0.018816,0.021974,0.015090,0.028182,0.047498,0.036486,0.033501,0.016691,0.025376,0.028332,0.019205,0.034033,0.018214,0.031898,0.032847,0.053229,0.025312,0.017320,0.038953,0.024144,0.022570,0.009556,0.017885,0.017096,0.040513,0.015797,0.013152,0.026153,0.019538,0.030240,0.029393,0.018262,0.033531,0.033869,0.073016,0.062790,0.030907,0.033338,0.060168,0.021025,0.037445,0.025374,0.012168,0.039204
1738755229.027185,1738755229.027231,111.000000,0.000000,4320.000000,4348.333496,4255.769043,4302.307617,4353.846191,4360.000000,4362.948730,4549.102539,4539.487305,4557.436035,4497.179688,5662.179688,4307.051270,4256.153809,0.000000,4.000000,75.000000,,,,0.000000,0.000000,0.000000,0.000000,0.000000,0.000000,0.000000,0.000000,0.000000,0.000000,0.000000,0.000000,0.000000,0.000000,0.000000,0.000000,,,,,,,,,,,,,,,,,,,,,,,,,,,,,,,,,,,,,,,,,,,,,,,,,,,,,,,,,,,,,,,,,,,,,,,,,,,,,,,,,,,,,,,,,,,,,,,,,,,,,,,,,,,,,,,,,,,,,,,,,,,,,,,,,
1738755229.034993,1738755229.035139,112.000000,0.000000,4322.051270,4351.282227,4252.948730,4301.025879,4352.051270,4358.717773,4363.974121,4551.153809,4540.384766,4558.846191,4497.436035,5664.743652,4307.436035,4256.922852,0.000000,4.000000,75.000000,,,,0.000000,0.000000,0.000000,0.000000,0.000000,0.000000,0.000000,0.000000,0.000000,0.000000,0.000000,0.000000,0.000000,0.000000,0.000000,0.000000,,,,,,,,,,,,,,,,,28.000000,0.000000,0.784788,-0.616211,-0.060852,0.026245,0.069344,-0.970333,0.229520,4.313653,-14.682947,23.236700,,,,,,,,,,,,,,,,,,,,,,,,,,,,,,,,,,,,,,,,,,,,,,,,,,,,,,,,,,,,,,,,,,,,,,,,,,,,,,,,,,,,,,,,,,,,,,,,,,,,,
1738755229.042801,1738755229.042948,113.000000,0.000000,4321.538574,4348.974121,4253.589844,4302.436035,4350.128418,4360.000000,4366.794922,4552.563965,4539.102539,4560.384766,4496.666504,5664.743652,4308.333496,4256.538574,0.000000,4.000000,75.000000,,,,0.000000,0.000000,0.000000,0.000000,0.000000,0.000000,0.000000,0.000000,0.000000,0.000000,0.000000,0.000000,0.000000,0.000000,0.000000,0.000000,,,,,,,,,,,,,,,,,,,,,,,,,,,,,,,,,,,,,,,,,,,,,,,,,,,,,,,,,,,,,,,,,,,,,,,,,,,,,,,,,,,,,,,,,,,,,,,,,,,,,,,,,,,,,,,,,,,,,,,,,,,,,,,,,
1738755229.050609,1738755229.050856,114.000000,0.000000,4322.307617,4346.794922,4258.717773,4304.102539,4351.538574,4361.538574,4363.077148,4551.794922,4537.307617,4562.307617,4497.436035,5661.153809,4308.205078,4257.948730,0.000000,4.000000,75.000000,,,,0.000000,0.000000,0.000000,0.000000,0.000000,0.000000,0.000000,0.000000,0.000000,0.000000,0.000000,0.000000,0.000000,0.000000,0.000000,0.000000,,,,,,,,,,,,,,,,,,,,,,,,,,,,,,,,,,,,,,,,,,,,,,,,,,,,,,,,,,,,,,,,,,,,,,,,,,,,,,,,,,,,,,,,,,,,,,,,,,,,,,,,,,,,,,,,,,,,,,,,,,,,,,,,,
1738755229.058417,1738755229.058664,115.000000,0.000000,4326.153809,4349.358887,4256.282227,4303.974121,4351.922852,4360.384766,4363.717773,4550.769043,4536.282227,4558.333496,4498.846191,5664.871582,4306.794922,4258.589844,0.000000,4.000000,75.000000,,,,0.000000,0.000000,0.000000,0.000000,0.000000,0.000000,0.000000,0.000000,0.000000,0.000000,0.000000,0.000000,0.000000,0.000000,0.000000,0.000000,,,,,,,,,,,,,,,,,,,,,,,,,,,,,,,,,,,,,,,,,,,,,,,,,,,,,,,,,,,,,,,,,,,,,,,,,,,,,,,,,,,,,,,,,,,,,,,,,,,,,,,,,,,,,,,,,,,,,,,,,,,,,,,,,
1738755229.066225,1738755229.066572,116.000000,0.000000,4326.153809,4352.436035,4253.589844,4302.948730,4349.615234,4358.205078,4367.820313,4549.871582,4537.307617,4555.000000,4498.717773,5665.128418,4310.641113,4257.948730,0.000000,4.000000,75.000000,,,,0.000000,0.000000,0.000000,0.000000,0.000000,0.000000,0.000000,0.000000,0.000000,0.000000,0.000000,0.000000,0.000000,0.000000,0.000000,0.000000,,,,,,,,,,,,,,,,,29.000000,0.000000,0.784834,-0.616150,-0.060852,0.026306,0.069833,-0.975217,0.245635,4.132288,-14.664653,23.113029,,,,,,,,,,,,,,,,,,,,,,,,,,,,,,,,,,,,,,,,,,,,,,,,,,,,,,,,,,,,,,,,,,,,,,,,,,,,,,,,,,,,,,,,,,,,,,,,,,,,,
1738755229.074033,1738755229.074380,117.000000,0.000000,4322.307617,4350.000000,4256.922852,4302.948730,4350.000000,4357.563965,4366.922852,4551.153809,4540.769043,4559.358887,4498.717773,5660.897461,4310.641113,4256.538574,0.000000,4.000000,75.000000,,,,0.000000,0.000000,0.000000,0.000000,0.000000,0.000000,0.000000,0.000000,0.000000,0.000000,0.000000,0.000000,0.000000,0.000000,0.000000,0.000000,,,,,,,,,,,,,,,,,,,,,,,,,,,,,,,,,,,,,,,,,,,,,,,,,,,,,,,,,,,,,,,,,,,,,,,,,,,,,,,,,,,,,,,,,,,,,,,,,,,,,,,,,,,,,,,,,,,,,,,,,,,,,,,,,
