title:bread1, start timestamp:1738754853.012488, stop timestamp:1738754854.043158, headset type:EPOCX, headset serial:E50208A5, headset firmware:720, channels:168, sampling rate:eeg_128;mot_32;pm_0.1;pow_8, samples:133       , version:2.2, 
Timestamp,OriginalTimestamp,EEG.Counter,EEG.Interpolated,EEG.AF3,EEG.F7,EEG.F3,EEG.FC5,EEG.T7,EEG.P7,EEG.O1,EEG.O2,EEG.P8,EEG.T8,EEG.FC6,EEG.F4,EEG.F8,EEG.AF4,EEG.RawCq,EEG.Battery,EEG.BatteryPercent,MarkerIndex,MarkerType,MarkerValueInt,EEG.MarkerHardware,CQ.AF3,CQ.F7,CQ.F3,CQ.FC5,CQ.T7,CQ.P7,CQ.O1,CQ.O2,CQ.P8,CQ.T8,CQ.FC6,CQ.F4,CQ.F8,CQ.AF4,CQ.Overall,EQ.SampleRateQuality,EQ.OVERALL,EQ.AF3,EQ.F7,EQ.F3,EQ.FC5,EQ.T7,EQ.P7,EQ.O1,EQ.O2,EQ.P8,EQ.T8,EQ.FC6,EQ.F4,EQ.F8,EQ.AF4,MOT.CounterMems,MOT.InterpolatedMems,MOT.Q0,MOT.Q1,MOT.Q2,MOT.Q3,MOT.AccX,MOT.AccY,MOT.AccZ,MOT.MagX,MOT.MagY,MOT.MagZ,PM.Attention.IsActive,PM.Attention.Scaled,PM.Attention.Raw,PM.Attention.Min,PM.Attention.Max,PM.Engagement.IsActive,PM.Engagement.Scaled,PM.Engagement.Raw,PM.Engagement.Min,PM.Engagement.Max,PM.Excitement.IsActive,PM.Excitement.Scaled,PM.Excitement.Raw,PM.Excitement.Min,PM.Excitement.Max,PM.LongTermExcitement,PM.Stress.IsActive,PM.Stress.Scaled,PM.Stress.Raw,PM.Stress.Min,PM.Stress.Max,PM.Relaxation.IsActive,PM.Relaxation.Scaled,PM.Relaxation.Raw,PM.Relaxation.Min,PM.Relaxation.Max,PM.Interest.IsActive,PM.Interest.Scaled,PM.Interest.Raw,PM.Interest.Min,PM.Interest.Max,POW.AF3.Theta,POW.AF3.Alpha,POW.AF3.BetaL,POW.AF3.BetaH,POW.AF3.Gamma,POW.F7.Theta,POW.F7.Alpha,POW.F7.BetaL,POW.F7.BetaH,POW.F7.Gamma,POW.F3.Theta,POW.F3.Alpha,POW.F3.BetaL,POW.F3.BetaH,POW.F3.Gamma,POW.FC5.Theta,POW.FC5.Alpha,POW.FC5.BetaL,POW.FC5.BetaH,POW.FC5.Gamma,POW.T7.Theta,POW.T7.Alpha,POW.T7.BetaL,POW.T7.BetaH,POW.T7.Gamma,POW.P7.Theta,POW.P7.Alpha,POW.P7.BetaL,POW.P7.BetaH,POW.P7.Gamma,POW.O1.Theta,POW.O1.Alpha,POW.O1.BetaL,POW.O1.BetaH,POW.O1.Gamma,POW.O2.Theta,POW.O2.Alpha,POW.O2.BetaL,POW.O2.BetaH,POW.O2.Gamma,POW.P8.Theta,POW.P8.Alpha,POW.P8.BetaL,POW.P8.BetaH,POW.P8.Gamma,POW.T8.Theta,POW.T8.Alpha,POW.T8.BetaL,POW.T8.BetaH,POW.T8.Gamma,POW.FC6.Theta,POW.FC6.Alpha,POW.FC6.BetaL,POW.FC6.BetaH,POW.FC6.Gamma,POW.F4.Theta,POW.F4.Alpha,POW.F4.BetaL,POW.F4.BetaH,POW.F4.Gamma,POW.F8.Theta,POW.F8.Alpha,POW.F8.BetaL,POW.F8.BetaH,POW.F8.Gamma,POW.AF4.Theta,POW.AF4.Alpha,POW.AF4.BetaL,POW.AF4.BetaH,POW.AF4.Gamma
1738754853.012488,1738754853.012720,82.000000,0.000000,4319.358887,4350.512695,4255.256348,4303.974121,4346.538574,4357.436035,4367.820313,4551.538574,4538.077148,4561.538574,4498.333496,5666.153809,4310.000000,4254.102539,0.000000,4.000000,77.000000,,,,0.000000,0.000000,0.000000,0.000000,0.000000,0.000000,0.000000,0.000000,0.000000,0.000000,0.000000,0.000000,0.000000,0.000000,0.000000,0.000000,,,,,,,,,,,,,,,,,,,,,,,,,,,,,,,,,,,,,,,,,,,,,,,,,,,,,,,,,,,,,,,,,,,,,,,,,,,,,,,,,,,,,,,,,,,,,,,,,,,,,,,,,,,,,,,,,,,,,,,,,,,,,,,,,
1738754853.020297,1738754853.020428,83.000000,0.000000,4319.102539,4349.102539,4255.256348,4300.256348,4347.179688,4361.282227,4362.820313,4553.333496,4539.615234,4561.153809,4500.256348,5663.717773,4313.846191,4255.256348,0.000000,4.000000,77.000000,,,,0.000000,0.000000,0.000000,0.000000,0.000000,0.000000,0.000000,0.000000,0.000000,0.000000,0.000000,0.000000,0.000000,0.000000,0.000000,0.000000,,,,,,,,,,,,,,,,,,,,,,,,,,,,,,,,,,,,,,,,,,,,,,,,,,,,,,,,,,,,,,,,,,,,,,,,,,,,,,,,,,,,,,,,,,,,,,,,,,,,,,,,,,,,,,,,,,,,,,,,,,,,,,,,,
1738754853.028105,1738754853.028236,84.000000,0.000000,4320.128418,4349.487305,4253.589844,4303.461426,4350.641113,4362.179688,4360.641113,4550.769043,4538.589844,4562.051270,4498.974121,5664.743652,4313.717773,4258.077148,0.000000,4.000000,77.000000,,,,0.000000,0.000000,0.000000,0.000000,0.000000,0.000000,0.000000,0.000000,0.000000,0.000000,0.000000,0.000000,0.000000,0.000000,0.000000,0.000000,,,,,,,,,,,,,,,,,21.000000,0.000000,0.785067,-0.615784,-0.061279,0.026917,0.059089,-0.980100,0.229520,4.427582,-15.691329,22.926525,,,,,,,,,,,,,,,,,,,,,,,,,,,,,,,,,,,,,,,,,,,,,,,,,,,,,,,,,,,,,,,,,,,,,,,,,,,,,,,,,,,,,,,,,,,,,,,,,,,,,
1738754853.035913,1738754853.035945,85.000000,0.000000,4319.743652,4349.230957,4254.358887,4304.487305,4352.820313,4360.256348,4364.871582,4548.846191,4536.538574,4561.025879,4498.205078,5665.128418,4309.615234,4258.974121,0.000000,4.000000,77.000000,,,,0.000000,0.000000,0.000000,0.000000,0.000000,0.000000,0.000000,0.000000,0.000000,0.000000,0.000000,0.000000,0.000000,0.000000,0.000000,0.000000,,,,,,,,,,,,,,,,,,,,,,,,,,,,,,,,,,,,,,,,,,,,,,,,,,,,,,,,,,,,,,,,,,,,,,,,,,,,,,,,,,,,,,,,,,,,,,,,,,,,,,,,,,,,,,,,,,,,,,,,,,,,,,,,,
1738754853.043721,1738754853.043752,86.000000,0.000000,4321.922852,4348.974121,4253.717773,4300.128418,4352.820313,4360.128418,4366.410156,4550.256348,4538.461426,4558.717773,4498.077148,5664.615234,4307.948730,4256.538574,0.000000,4.000000,77.000000,,,,0.000000,0.000000,0.000000,0.000000,0.000000,0.000000,0.000000,0.000000,0.000000,0.000000,0.000000,0.000000,0.000000,0.000000,0.000000,0.000000,,,,,,,,,,,,,,,,,,,,,,,,,,,,,,,,,,,,,,,,,,,,,,,,,,,,,,,,,,,,,,,,,,,,,,,,,,,,,,,,,,,,,,,,,,,,,,,,,,,,,,,,,,,,,,,,,,,,,,,,,,,,,,,,,
1738754853.051529,1738754853.051461,87.000000,0.000000,4323.461426,4350.000000,4253.589844,4300.128418,4351.666504,4360.256348,4360.769043,4548.589844,4540.641113,4558.333496,4495.512695,5662.820313,4312.692383,4255.128418,0.000000,4.000000,77.000000,,,,0.000000,0.000000,0.000000,0.000000,0.000000,0.000000,0.000000,0.000000,0.000000,0.000000,0.000000,0.000000,0.000000,0.000000,0.000000,0.000000,,,,,,,,,,,,,,,,,,,,,,,,,,,,,,,,,,,,,,,,,,,,,,,,,,,,,,,,,,,,,,,,,,,,,,,,,,,,,,,,,,,,,,,,,,,,,,,,,,,,,,,,,,,,,,,,,,,,,,,,,,,,,,,,,
1738754853.059337,1738754853.059269,88.000000,0.000000,4322.436035,4349.743652,4255.128418,4302.563965,4350.897461,4360.897461,4361.538574,4547.563965,4538.077148,4560.128418,4493.589844,5663.077148,4313.077148,4254.487305,0.000000,4.000000,77.000000,,,,0.000000,0.000000,0.000000,0.000000,0.000000,0.000000,0.000000,0.000000,0.000000,0.000000,0.000000,0.000000,0.000000,0.000000,0.000000,0.000000,,,,,,,,,,,,,,,,,22.000000,0.000000,0.785061,-0.615784,-0.061340,0.026978,0.065438,-0.977170,0.235380,4.318157,-15.605530,22.917206,,,,,,,,,,,,,,,,,,,,,,,,,,,,,,,,,,,,,,,,,,,,,,,,,,,,,,,,,,,,,,,,,,,,,,,,,,,,,,,,,,,,,,,,,,,,,,,,,,,,,
1738754853.067145,1738754853.066977,89.000000,0.000000,4322.436035,4349.743652,4255.641113,4301.666504,4351.410156,4362.179688,4367.179688,4550.128418,4537.820313,4560.000000,4495.256348,5664.230957,4309.230957,4254.487305,0.000000,4.000000,77.000000,,,,0.000000,0.000000,0.000000,0.000000,0.000000,0.000000,0.000000,0.000000,0.000000,0.000000,0.000000,0.000000,0.000000,0.000000,0.000000,0.000000,,,,,,,,,,,,,,,,,,,,,,,,,,,,,,,,,,,,,,,,,,,,,,,,,,,,,,,,,,,,,,,,,,,,,,,,,,,,,,,,,,,,,,,,,,,,,,,,,,,,,,,,,,,,,,,,,,,,,,,,,,,,,,,,,
1738754853.074953,1738754853.074885,90.000000,0.000000,4324.230957,4350.641113,4253.974121,4301.922852,4352.692383,4361.282227,4363.205078,4549.102539,4541.410156,4558.333496,4496.410156,5661.666504,4311.410156,4257.051270,0.000000,4.000000,77.000000,,,,0.000000,0.000000,0.000000,0.000000,0.000000,0.000000,0.000000,0.000000,0.000000,0.000000,0.000000,0.000000,0.000000,0.000000,0.000000,0.000000,,,,,,,,,,,,,,,,,,,,,,,,,,,,,,,,,,,,,,,,,,,,,,,,,,,,,,,,,,,,,,,,,,,,,,,,,,,,,,,,,,,,,,,,,,,,,,,,,,,,,,,,,,,,,,,,,,,,,,,,,,,,,,,,,
1738754853.082761,1738754853.082693,91.000000,0.000000,4321.922852,4351.282227,4252.948730,4304.230957,4351.025879,4358.974121,4361.922852,4545.897461,4540.512695,4559.487305,4493.589844,5661.666504,4312.820313,4257.436035,0.000000,4.000000,77.000000,,,,0.000000,0.000000,0.000000,0.000000,0.000000,0.000000,0.000000,0.000000,0.000000,0.000000,0.000000,0.000000,0.000000,0.000000,0.000000,0.000000,,,,,,,,,,,,,,,,,,,,,,,,,,,,,,,,,,,,,,,,,,,,,,,,,,,,,,,,,,,,,,,,,,,,,,,,,,,,,,,,,,,,,,,,,,,,,,,,,,,,,,,,,,,,,,,,,,,,,,,,,,,,,,,,,
1738754853.090570,1738754853.090601,92.000000,0.000000,4317.820313,4351.410156,4254.358887,4302.692383,4351.538574,4359.230957,4369.102539,4546.153809,4538.974121,4561.153809,4493.846191,5663.974121,4310.897461,4254.743652,0.000000,4.000000,77.000000,,,,0.000000,0.000000,0.000000,0.000000,0.000000,0.000000,0.000000,0.000000,0.000000,0.000000,0.000000,0.000000,0.000000,0.000000,0.000000,0.000000,,,,,,,,,,,,,,,,,23.000000,0.000000,0.785061,-0.615784,-0.061340,0.026978,0.074716,-0.975705,0.239775,4.236341,-15.644977,22.892151,,,,,,,,,,,,,,,,,,,,,,,,,,,,,,,,,,,,,,,,,,,,,,,,,,,,,,,,,,,,,,,,,,,,,,,,,,,,,,,,,,,,,,,,,,,,,,,,,,,,,
1738754853.098378,1738754853.098409,93.000000,0.000000,4319.230957,4351.410156,4255.769043,4301.538574,4355.128418,4360.897461,4369.615234,4548.589844,4539.487305,4561.282227,4496.666504,5664.487305,4309.487305,4254.487305,0.000000,4.000000,77.000000,,,,0.000000,0.000000,0.000000,0.000000,0.000000,0.000000,0.000000,0.000000,0.000000,0.000000,0.000000,0.000000,0.000000,0.000000,0.000000,0.000000,,,,,,,,,,,,,,,,,,,,,,,,,,,,,,,,,,,,,,,,,,,,,,,,,,,,,,,,,,,,,,,,,,,,,,,,,,,,,,,,,,,,,,,,,,,,,,,,,,,,,,,,,,,,,,,,,,,,,,,,,,,,,,,,,
1738754853.106186,1738754853.106317,94.000000,0.000000,4323.461426,4351.282227,4254.487305,4302.307617,4353.205078,4360.897461,4364.102539,4548.333496,4539.230957,4560.256348,4495.769043,5662.563965,4309.230957,4254.615234,0.000000,4.000000,77.000000,,,,0.000000,0.000000,0.000000,0.000000,0.000000,0.000000,0.000000,0.000000,0.000000,0.000000,0.000000,0.000000,0.000000,0.000000,0.000000,0.000000,1.000000,0.000000,0.000000,0.000000,0.000000,0.000000,0.000000,0.000000,0.000000,0.000000,0.000000,0.000000,0.000000,0.000000,0.000000,0.000000,,,,,,,,,,,,,,,,,,,,,,,,,,,,,,,,,,,,,,,,,,,,0.025681,0.025849,0.013693,0.027799,0.026879,0.022609,0.024586,0.014281,0.025060,0.018736,0.044292,0.041865,0.045985,0.012477,0.020952,0.020412,0.035660,0.021195,0.012636,0.023529,0.053367,0.023246,0.023269,0.029723,0.036859,0.009039,0.019336,0.020581,0.013779,0.020711,0.070120,0.052072,0.031585,0.033154,0.025759,0.022365,0.025177,0.025331,0.018723,0.030880,0.026168,0.029722,0.035745,0.024609,0.025297,0.005755,0.030075,0.009335,0.008803,0.015381,0.015047,0.008530,0.032526,0.009600,0.021921,0.016291,0.020833,0.027895,0.012474,0.016596,0.078955,0.079440,0.033747,0.024619,0.037347,0.031650,0.037744,0.011316,0.026839,0.035495
1738754853.113994,1738754853.114126,95.000000,0.000000,4322.820313,4349.743652,4253.717773,4302.563965,4350.641113,4359.871582,4364.743652,4547.179688,4538.717773,4560.769043,4495.384766,5660.641113,4309.743652,4256.282227,0.000000,4.000000,77.000000,,,,0.000000,0.000000,0.000000,0.000000,0.000000,0.000000,0.000000,0.000000,0.000000,0.000000,0.000000,0.000000,0.000000,0.000000,0.000000,0.000000,,,,,,,,,,,,,,,,,,,,,,,,,,,,,,,,,,,,,,,,,,,,,,,,,,,,,,,,,,,,,,,,,,,,,,,,,,,,,,,,,,,,,,,,,,,,,,,,,,,,,,,,,,,,,,,,,,,,,,,,,,,,,,,,,
1738754853.121802,1738754853.122034,96.000000,0.000000,4322.948730,4350.384766,4256.922852,4303.333496,4352.436035,4358.846191,4367.179688,4548.974121,4538.974121,4561.538574,4497.307617,5661.282227,4310.897461,4258.846191,0.000000,4.000000,77.000000,,,,0.000000,0.000000,0.000000,0.000000,0.000000,0.000000,0.000000,0.000000,0.000000,0.000000,0.000000,0.000000,0.000000,0.000000,0.000000,0.000000,,,,,,,,,,,,,,,,,24.000000,0.000000,0.785069,-0.615784,-0.061279,0.026855,0.062996,-0.980100,0.237334,4.246041,-15.597146,22.952936,,,,,,,,,,,,,,,,,,,,,,,,,,,,,,,,,,,,,,,,,,,,,,,,,,,,,,,,,,,,,,,,,,,,,,,,,,,,,,,,,,,,,,,,,,,,,,,,,,,,,
1738754853.129610,1738754853.129842,97.000000,0.000000,4325.000000,4352.820313,4257.948730,4301.282227,4352.948730,4358.717773,4364.871582,4550.641113,4539.615234,4560.256348,4498.077148,5660.384766,4309.871582,4256.922852,0.000000,4.000000,77.000000,,,,0.000000,0.000000,0.000000,0.000000,0.000000,0.000000,0.000000,0.000000,0.000000,0.000000,0.000000,0.000000,0.000000,0.000000,0.000000,0.000000,,,,,,,,,,,,,,,,,,,,,,,,,,,,,,,,,,,,,,,,,,,,,,,,,,,,,,,,,,,,,,,,,,,,,,,,,,,,,,,,,,,,,,,,,,,,,,,,,,,,,,,,,,,,,,,,,,,,,,,,,,,,,,,,,
1738754853.137418,1738754853.137750,98.000000,0.000000,4324.358887,4351.794922,4254.358887,4301.666504,4351.538574,4360.641113,4365.384766,4548.717773,4538.717773,4559.487305,4495.384766,5659.487305,4307.436035,4253.333496,0.000000,4.000000,77.000000,,,,0.000000,0.000000,0.000000,0.000000,0.000000,0.000000,0.000000,0.000000,0.000000,0.000000,0.000000,0.000000,0.000000,0.000000,0.000000,0.000000,,,,,,,,,,,,,,,,,,,,,,,,,,,,,,,,,,,,,,,,,,,,,,,,,,,,,,,,,,,,,,,,,,,,,,,,,,,,,,,,,,,,,,,,,,,,,,,,,,,,,,,,,,,,,,,,,,,,,,,,,,,,,,,,,
1738754853.145226,1738754853.145558,99.000000,0.000000,4324.102539,4348.589844,4252.563965,4304.743652,4350.769043,4362.563965,4367.948730,4546.025879,4537.820313,4559.615234,4494.615234,5661.666504,4308.974121,4254.230957,0.000000,4.000000,77.000000,,,,0.000000,0.000000,0.000000,0.000000,0.000000,0.000000,0.000000,0.000000,0.000000,0.000000,0.000000,0.000000,0.000000,0.000000,0.000000,0.000000,,,,,,,,,,,,,,,,,,,,,,,,,,,,,,,,,,,,,,,,,,,,,,,,,,,,,,,,,,,,,,,,,,,,,,,,,,,,,,,,,,,,,,,,,,,,,,,,,,,,,,,,,,,,,,,,,,,,,,,,,,,,,,,,,
1738754853.153034,1738754853.153266,100.000000,0.000000,4325.512695,4349.487305,4251.410156,4302.948730,4351.794922,4362.307617,4365.769043,4547.820313,4539.871582,4560.641113,4496.666504,5659.871582,4310.256348,4255.641113,0.000000,4.000000,77.000000,,,,0.000000,0.000000,0.000000,0.000000,0.000000,0.000000,0.000000,0.000000,0.000000,0.000000,0.000000,0.000000,0.000000,0.000000,0.000000,0.000000,,,,,,,,,,,,,,,,,25.000000,0.000000,0.785067,-0.615784,-0.061279,0.026917,0.062508,-0.976682,0.240752,4.154770,-15.620765,23.024309,,,,,,,,,,,,,,,,,,,,,,,,,,,,,,,,,,,,,,,,,,,,,,,,,,,,,,,,,,,,,,,,,,,,,,,,,,,,,,,,,,,,,,,,,,,,,,,,,,,,,
1738754853.160843,1738754853.161074,101.000000,0.000000,4324.487305,4350.000000,4253.077148,4301.410156,4353.461426,4358.717773,4363.077148,4549.615234,4540.897461,4560.256348,4496.666504,5656.922852,4308.974121,4252.436035,0.000000,4.000000,77.000000,,,,0.000000,0.000000,0.000000,0.000000,0.000000,0.000000,0.000000,0.000000,0.000000,0.000000,0.000000,0.000000,0.000000,0.000000,0.000000,0.000000,,,,,,,,,,,,,,,,,,,,,,,,,,,,,,,,,,,,,,,,,,,,,,,,,,,,,,,,,,,,,,,,,,,,,,,,,,,,,,,,,,,,,,,,,,,,,,,,,,,,,,,,,,,,,,,,,,,,,,,,,,,,,,,,,
1738754853.168651,1738754853.168782,102.000000,0.000000,4321.666504,4348.333496,4256.153809,4303.589844,4353.589844,4356.794922,4365.897461,4547.692383,4539.102539,4559.230957,4494.743652,5660.384766,4310.897461,4252.563965,0.000000,4.000000,77.000000,,,,0.000000,0.000000,0.000000,0.000000,0.000000,0.000000,0.000000,0.000000,0.000000,0.000000,0.000000,0.000000,0.000000,0.000000,0.000000,0.000000,,,,,,,,,,,,,,,,,,,,,,,,,,,,,,,,,,,,,,,,,,,,,,,,,,,,,,,,,,,,,,,,,,,,,,,,,,,,,,,,,,,,,,,,,,,,,,,,,,,,,,,,,,,,,,,,,,,,,,,,,,,,,,,,,
1738754853.176459,1738754853.176590,103.000000,0.000000,4321.153809,4348.974121,4255.897461,4305.256348,4352.179688,4359.487305,4370.128418,4546.538574,4538.205078,4560.769043,4494.358887,5665.256348,4308.589844,4256.025879,0.000000,4.000000,77.000000,,,,0.000000,0.000000,0.000000,0.000000,0.000000,0.000000,0.000000,0.000000,0.000000,0.000000,0.000000,0.000000,0.000000,0.000000,0.000000,0.000000,,,,,,,,,,,,,,,,,,,,,,,,,,,,,,,,,,,,,,,,,,,,,,,,,,,,,,,,,,,,,,,,,,,,,,,,,,,,,,,,,,,,,,,,,,,,,,,,,,,,,,,,,,,,,,,,,,,,,,,,,,,,,,,,,
1738754853.184267,1738754853.184298,104.000000,0.000000,4321.538574,4348.589844,4253.846191,4303.846191,4351.538574,4361.025879,4367.179688,4549.358887,4539.487305,4562.051270,4495.897461,5663.205078,4305.897461,4254.615234,0.000000,4.000000,77.000000,,,,0.000000,0.000000,0.000000,0.000000,0.000000,0.000000,0.000000,0.000000,0.000000,0.000000,0.000000,0.000000,0.000000,0.000000,0.000000,0.000000,,,,,,,,,,,,,,,,,26.000000,0.000000,0.785015,-0.615845,-0.061340,0.026917,0.066414,-0.974728,0.238310,4.172626,-15.658689,23.105211,,,,,,,,,,,,,,,,,,,,,,,,,,,,,,,,,,,,,,,,,,,,,,,,,,,,,,,,,,,,,,,,,,,,,,,,,,,,,,,,,,,,,,,,,,,,,,,,,,,,,
1738754853.192075,1738754853.192106,105.000000,0.000000,4321.538574,4348.717773,4255.641113,4301.666504,4349.230957,4359.487305,4362.436035,4551.666504,4541.666504,4560.641113,4496.025879,5660.897461,4312.307617,4252.692383,0.000000,4.000000,77.000000,,,,0.000000,0.000000,0.000000,0.000000,0.000000,0.000000,0.000000,0.000000,0.000000,0.000000,0.000000,0.000000,0.000000,0.000000,0.000000,0.000000,,,,,,,,,,,,,,,,,,,,,,,,,,,,,,,,,,,,,,,,,,,,,,,,,,,,,,,,,,,,,,,,,,,,,,,,,,,,,,,,,,,,,,,,,,,,,,,,,,,,,,,,,,,,,,,,,,,,,,,,,,,,,,,,,
1738754853.199883,1738754853.199814,106.000000,0.000000,4323.205078,4350.384766,4255.512695,4301.153809,4347.948730,4359.743652,4362.563965,4552.307617,4539.871582,4559.743652,4495.769043,5663.589844,4312.563965,4253.717773,0.000000,4.000000,77.000000,,,,0.000000,0.000000,0.000000,0.000000,0.000000,0.000000,0.000000,0.000000,0.000000,0.000000,0.000000,0.000000,0.000000,0.000000,0.000000,0.000000,,,,,,,,,,,,,,,,,,,,,,,,,,,,,,,,,,,,,,,,,,,,,,,,,,,,,,,,,,,,,,,,,,,,,,,,,,,,,,,,,,,,,,,,,,,,,,,,,,,,,,,,,,,,,,,,,,,,,,,,,,,,,,,,,
1738754853.207691,1738754853.207622,107.000000,0.000000,4323.974121,4349.102539,4251.922852,4303.974121,4351.025879,4361.282227,4363.205078,4552.820313,4537.563965,4563.589844,4496.794922,5663.974121,4306.538574,4254.615234,0.000000,4.000000,77.000000,,,,0.000000,0.000000,0.000000,0.000000,0.000000,0.000000,0.000000,0.000000,0.000000,0.000000,0.000000,0.000000,0.000000,0.000000,0.000000,0.000000,,,,,,,,,,,,,,,,,,,,,,,,,,,,,,,,,,,,,,,,,,,,,,,,,,,,,,,,,,,,,,,,,,,,,,,,,,,,,,,,,,,,,,,,,,,,,,,,,,,,,,,,,,,,,,,,,,,,,,,,,,,,,,,,,
1738754853.215499,1738754853.215330,108.000000,0.000000,4321.922852,4349.487305,4253.589844,4306.025879,4352.692383,4361.794922,4364.871582,4551.153809,4539.102539,4563.717773,4496.922852,5663.205078,4309.230957,4254.871582,0.000000,4.000000,77.000000,,,,0.000000,0.000000,0.000000,0.000000,0.000000,0.000000,0.000000,0.000000,0.000000,0.000000,0.000000,0.000000,0.000000,0.000000,0.000000,0.000000,,,,,,,,,,,,,,,,,27.000000,0.000000,0.785067,-0.615784,-0.061279,0.026917,0.053229,-0.968868,0.236357,4.188697,-15.692820,23.144691,,,,,,,,,,,,,,,,,,,,,,,,,,,,,,,,,,,,,,,,,,,,,,,,,,,,,,,,,,,,,,,,,,,,,,,,,,,,,,,,,,,,,,,,,,,,,,,,,,,,,
1738754853.223307,1738754853.223138,109.000000,0.000000,4321.538574,4352.820313,4254.743652,4302.051270,4352.563965,4362.436035,4366.794922,4549.871582,4540.000000,4556.666504,4497.179688,5664.871582,4312.436035,4254.871582,0.000000,4.000000,77.000000,,,,0.000000,0.000000,0.000000,0.000000,0.000000,0.000000,0.000000,0.000000,0.000000,0.000000,0.000000,0.000000,0.000000,0.000000,0.000000,0.000000,,,,,,,,,,,,,,,,,,,,,,,,,,,,,,,,,,,,,,,,,,,,,,,,,,,,,,,,,,,,,,,,,,,,,,,,,,,,,,,,,,,,,,,,,,,,,,,,,,,,,,,,,,,,,,,,,,,,,,,,,,,,,,,,,
1738754853.231115,1738754853.230846,110.000000,0.000000,4323.589844,4352.307617,4252.436035,4299.487305,4351.282227,4361.922852,4366.025879,4550.512695,4538.717773,4554.871582,4496.282227,5665.512695,4311.538574,4255.000000,0.000000,4.000000,77.000000,,,,0.000000,0.000000,0.000000,0.000000,0.000000,0.000000,0.000000,0.000000,0.000000,0.000000,0.000000,0.000000,0.000000,0.000000,0.000000,0.000000,,,,,,,,,,,,,,,,,,,,,,,,,,,,,,,,,,,,,,,,,,,,,,,,,,,,,,,,,,,,0.023832,0.022968,0.015603,0.026633,0.027424,0.023961,0.025849,0.013380,0.024186,0.018098,0.043293,0.038982,0.043740,0.013090,0.021551,0.015574,0.035721,0.023565,0.011949,0.023984,0.049591,0.021163,0.024286,0.030934,0.038517,0.008503,0.019134,0.025016,0.015100,0.022886,0.079421,0.036903,0.032800,0.032564,0.026795,0.023694,0.029500,0.021566,0.018746,0.030567,0.025501,0.031173,0.035834,0.024461,0.025112,0.004702,0.031116,0.006777,0.008926,0.016523,0.017225,0.009932,0.035554,0.008559,0.024159,0.018591,0.025507,0.026516,0.014936,0.014816,0.078896,0.078771,0.037208,0.027978,0.037881,0.032215,0.028946,0.013396,0.025788,0.034886
1738754853.238923,1738754853.238754,111.000000,0.000000,4323.077148,4352.051270,4252.948730,4302.948730,4348.589844,4360.769043,4365.000000,4550.641113,4538.717773,4558.717773,4496.282227,5665.512695,4308.717773,4256.538574,0.000000,4.000000,77.000000,,,,0.000000,0.000000,0.000000,0.000000,0.000000,0.000000,0.000000,0.000000,0.000000,0.000000,0.000000,0.000000,0.000000,0.000000,0.000000,0.000000,,,,,,,,,,,,,,,,,,,,,,,,,,,,,,,,,,,,,,,,,,,,,,,,,,,,,,,,,,,,,,,,,,,,,,,,,,,,,,,,,,,,,,,,,,,,,,,,,,,,,,,,,,,,,,,,,,,,,,,,,,,,,,,,,
1738754853.246732,1738754853.246562,112.000000,0.000000,4322.051270,4354.102539,4252.820313,4305.128418,4349.230957,4361.025879,4363.589844,4548.846191,4539.615234,4559.102539,4498.846191,5663.974121,4308.077148,4259.487305,0.000000,4.000000,77.000000,,,,0.000000,0.000000,0.000000,0.000000,0.000000,0.000000,0.000000,0.000000,0.000000,0.000000,0.000000,0.000000,0.000000,0.000000,0.000000,0.000000,,,,,,,,,,,,,,,,,28.000000,0.000000,0.785022,-0.615845,-0.061218,0.026978,0.053229,-0.967403,0.242705,4.353161,-15.573537,23.330221,,,,,,,,,,,,,,,,,,,,,,,,,,,,,,,,,,,,,,,,,,,,,,,,,,,,,,,,,,,,,,,,,,,,,,,,,,,,,,,,,,,,,,,,,,,,,,,,,,,,,
1738754853.254540,1738754853.254470,113.000000,0.000000,4321.794922,4351.153809,4252.436035,4302.051270,4350.000000,4360.641113,4363.717773,4548.974121,4538.077148,4558.974121,4497.307617,5662.948730,4311.666504,4255.384766,0.000000,4.000000,77.000000,,,,0.000000,0.000000,0.000000,0.000000,0.000000,0.000000,0.000000,0.000000,0.000000,0.000000,0.000000,0.000000,0.000000,0.000000,0.000000,0.000000,,,,,,,,,,,,,,,,,,,,,,,,,,,,,,,,,,,,,,,,,,,,,,,,,,,,,,,,,,,,,,,,,,,,,,,,,,,,,,,,,,,,,,,,,,,,,,,,,,,,,,,,,,,,,,,,,,,,,,,,,,,,,,,,,
1738754853.262348,1738754853.262279,114.000000,0.000000,4323.717773,4348.205078,4254.615234,4301.794922,4350.000000,4359.358887,4365.128418,4552.051270,4537.436035,4561.666504,4495.384766,5665.512695,4311.794922,4250.897461,0.000000,4.000000,77.000000,,,,0.000000,0.000000,0.000000,0.000000,0.000000,0.000000,0.000000,0.000000,0.000000,0.000000,0.000000,0.000000,0.000000,0.000000,0.000000,0.000000,,,,,,,,,,,,,,,,,,,,,,,,,,,,,,,,,,,,,,,,,,,,,,,,,,,,,,,,,,,,,,,,,,,,,,,,,,,,,,,,,,,,,,,,,,,,,,,,,,,,,,,,,,,,,,,,,,,,,,,,,,,,,,,,,
1738754853.270156,1738754853.270187,115.000000,0.000000,4323.846191,4350.512695,4254.487305,4303.974121,4351.538574,4360.897461,4365.128418,4550.897461,4539.615234,4562.563965,4498.846191,5663.333496,4309.487305,4255.128418,0.000000,4.000000,77.000000,,,,0.000000,0.000000,0.000000,0.000000,0.000000,0.000000,0.000000,0.000000,0.000000,0.000000,0.000000,0.000000,0.000000,0.000000,0.000000,0.000000,,,,,,,,,,,,,,,,,,,,,,,,,,,,,,,,,,,,,,,,,,,,,,,,,,,,,,,,,,,,,,,,,,,,,,,,,,,,,,,,,,,,,,,,,,,,,,,,,,,,,,,,,,,,,,,,,,,,,,,,,,,,,,,,,
1738754853.277964,1738754853.277995,116.000000,0.000000,4321.794922,4351.153809,4253.077148,4302.948730,4353.717773,4362.948730,4367.051270,4550.000000,4539.615234,4559.487305,4498.846191,5661.282227,4308.589844,4256.410156,0.000000,4.000000,77.000000,,,,0.000000,0.000000,0.000000,0.000000,0.000000,0.000000,0.000000,0.000000,0.000000,0.000000,0.000000,0.000000,0.000000,0.000000,0.000000,0.000000,,,,,,,,,,,,,,,,,29.000000,0.000000,0.785070,-0.615784,-0.061218,0.026978,0.064461,-0.963008,0.230985,4.334511,-15.499516,23.197199,,,,,,,,,,,,,,,,,,,,,,,,,,,,,,,,,,,,,,,,,,,,,,,,,,,,,,,,,,,,,,,,,,,,,,,,,,,,,,,,,,,,,,,,,,,,,,,,,,,,,
1738754853.285772,1738754853.285903,117.000000,0.000000,4322.436035,4348.589844,4255.384766,4303.205078,4352.563965,4362.563965,4367.692383,4551.025879,4538.205078,4558.589844,4495.128418,5665.769043,4310.128418,4253.974121,0.000000,4.000000,77.000000,,,,0.000000,0.000000,0.000000,0.000000,0.000000,0.000000,0.000000,0.000000,0.000000,0.000000,0.000000,0.000000,0.000000,0.000000,0.000000,0.000000,,,,,,,,,,,,,,,,,,,,,,,,,,,,,,,,,,,,,,,,,,,,,,,,,,,,,,,,,,,,,,,,,,,,,,,,,,,,,,,,,,,,,,,,,,,,,,,,,,,,,,,,,,,,,,,,,,,,,,,,,,,,,,,,,
1738754853.293580,1738754853.293711,118.000000,0.000000,4322.820313,4348.974121,4256.153809,4304.615234,4351.922852,4359.358887,4362.436035,4549.743652,4539.358887,4559.358887,4496.538574,5665.128418,4311.025879,4255.128418,0.000000,4.000000,77.000000,,,,0.000000,0.000000,0.000000,0.000000,0.000000,0.000000,0.000000,0.000000,0.000000,0.000000,0.000000,0.000000,0.000000,0.000000,0.000000,0.000000,,,,,,,,,,,,,,,,,,,,,,,,,,,,,,,,,,,,,,,,,,,,,,,,,,,,,,,,,,,,,,,,,,,,,,,,,,,,,,,,,,,,,,,,,,,,,,,,,,,,,,,,,,,,,,,,,,,,,,,,,,,,,,,,,
1738754853.301388,1738754853.301619,119.000000,0.000000,4320.769043,4350.000000,4254.487305,4302.051270,4353.846191,4357.307617,4362.051270,4549.871582,4540.769043,4558.717773,4499.743652,5662.179688,4306.025879,4255.512695,0.000000,4.000000,77.000000,,,,0.000000,0.000000,0.000000,0.000000,0.000000,0.000000,0.000000,0.000000,0.000000,0.000000,0.000000,0.000000,0.000000,0.000000,0.000000,0.000000,,,,,,,,,,,,,,,,,,,,,,,,,,,,,,,,,,,,,,,,,,,,,,,,,,,,,,,,,,,,,,,,,,,,,,,,,,,,,,,,,,,,,,,,,,,,,,,,,,,,,,,,,,,,,,,,,,,,,,,,,,,,,,,,,
1738754853.309196,1738754853.309428,120.000000,0.000000,4320.384766,4349.743652,4254.871582,4298.717773,4351.922852,4360.256348,4366.794922,4551.025879,4538.717773,4558.589844,4499.743652,5664.615234,4307.692383,4255.512695,0.000000,4.000000,77.000000,,,,0.000000,0.000000,0.000000,0.000000,0.000000,0.000000,0.000000,0.000000,0.000000,0.000000,0.000000,0.000000,0.000000,0.000000,0.000000,0.000000,,,,,,,,,,,,,,,,,30.000000,0.000000,0.785070,-0.615784,-0.061218,0.026978,0.070809,-0.979123,0.236845,4.484394,-15.566232,23.127480,,,,,,,,,,,,,,,,,,,,,,,,,,,,,,,,,,,,,,,,,,,,,,,,,,,,,,,,,,,,,,,,,,,,,,,,,,,,,,,,,,,,,,,,,,,,,,,,,,,,,
1738754853.317004,1738754853.317336,121.000000,0.000000,4323.717773,4350.128418,4254.230957,4300.384766,4348.589844,4362.563965,4367.179688,4551.794922,4536.922852,4557.948730,4498.333496,5665.000000,4311.922852,4256.794922,0.000000,4.000000,77.000000,,,,0.000000,0.000000,0.000000,0.000000,0.000000,0.000000,0.000000,0.000000,0.000000,0.000000,0.000000,0.000000,0.000000,0.000000,0.000000,0.000000,,,,,,,,,,,,,,,,,,,,,,,,,,,,,,,,,,,,,,,,,,,,,,,,,,,,,,,,,,,,,,,,,,,,,,,,,,,,,,,,,,,,,,,,,,,,,,,,,,,,,,,,,,,,,,,,,,,,,,,,,,,,,,,,,
1738754853.324813,1738754853.325144,122.000000,0.000000,4324.102539,4350.384766,4251.538574,4301.538574,4348.205078,4359.615234,4366.538574,4550.512695,4538.717773,4556.538574,4496.666504,5662.051270,4308.846191,4256.666504,0.000000,4.000000,77.000000,,,,0.000000,0.000000,0.000000,0.000000,0.000000,0.000000,0.000000,0.000000,0.000000,0.000000,0.000000,0.000000,0.000000,0.000000,0.000000,0.000000,,,,,,,,,,,,,,,,,,,,,,,,,,,,,,,,,,,,,,,,,,,,,,,,,,,,,,,,,,,,,,,,,,,,,,,,,,,,,,,,,,,,,,,,,,,,,,,,,,,,,,,,,,,,,,,,,,,,,,,,,,,,,,,,,
1738754853.332621,1738754853.333052,123.000000,0.000000,4321.538574,4349.743652,4253.205078,4301.538574,4350.641113,4357.307617,4364.615234,4549.102539,4538.589844,4557.307617,4497.051270,5662.820313,4309.615234,4255.128418,0.000000,4.000000,77.000000,,,,0.000000,0.000000,0.000000,0.000000,0.000000,0.000000,0.000000,0.000000,0.000000,0.000000,0.000000,0.000000,0.000000,0.000000,0.000000,0.000000,,,,,,,,,,,,,,,,,,,,,,,,,,,,,,,,,,,,,,,,,,,,,,,,,,,,,,,,,,,,,,,,,,,,,,,,,,,,,,,,,,,,,,,,,,,,,,,,,,,,,,,,,,,,,,,,,,,,,,,,,,,,,,,,,
1738754853.340429,1738754853.340860,124.000000,0.000000,4323.205078,4349.615234,4256.666504,4304.615234,4353.205078,4359.487305,4364.615234,4551.153809,4537.051270,4559.102539,4498.461426,5665.512695,4312.563965,4254.871582,0.000000,4.000000,77.000000,,,,0.000000,0.000000,0.000000,0.000000,0.000000,0.000000,0.000000,0.000000,0.000000,0.000000,0.000000,0.000000,0.000000,0.000000,0.000000,0.000000,,,,,,,,,,,,,,,,,31.000000,0.000000,0.785017,-0.615845,-0.061279,0.026978,0.059089,-0.966915,0.239775,4.485954,-15.592942,23.014732,,,,,,,,,,,,,,,,,,,,,,,,,,,,,,,,,,,,,,,,,,,,,,,,,,,,,,,,,,,,,,,,,,,,,,,,,,,,,,,,,,,,,,,,,,,,,,,,,,,,,
1738754853.348237,1738754853.348568,125.000000,0.000000,4324.358887,4352.051270,4254.743652,4303.717773,4352.051270,4360.256348,4367.179688,4551.410156,4538.589844,4558.205078,4497.692383,5664.743652,4312.820313,4256.666504,0.000000,4.000000,77.000000,,,,0.000000,0.000000,0.000000,0.000000,0.000000,0.000000,0.000000,0.000000,0.000000,0.000000,0.000000,0.000000,0.000000,0.000000,0.000000,0.000000,,,,,,,,,,,,,,,,,,,,,,,,,,,,,,,,,,,,,,,,,,,,,,,,,,,,,,,,,,,,,,,,,,,,,,,,,,,,,,,,,,,,,,,,,,,,,,,,,,,,,,,,,,,,,,,,,,,,,,,,,,,,,,,,,
1738754853.356045,1738754853.356376,126.000000,0.000000,4322.820313,4351.666504,4251.794922,4301.922852,4348.717773,4359.358887,4365.128418,4549.743652,4539.230957,4557.563965,4496.794922,5662.307617,4311.025879,4258.461426,0.000000,4.000000,77.000000,,,,0.000000,0.000000,0.000000,0.000000,0.000000,0.000000,0.000000,0.000000,0.000000,0.000000,0.000000,0.000000,0.000000,0.000000,0.000000,0.000000,,,,,,,,,,,,,,,,,,,,,,,,,,,,,,,,,,,,,,,,,,,,,,,,,,,,,,,,,,,,0.021014,0.021398,0.019997,0.023628,0.028497,0.023160,0.025603,0.013180,0.022579,0.017533,0.040005,0.036504,0.039054,0.014666,0.022894,0.011288,0.033028,0.025059,0.011793,0.024588,0.045547,0.020414,0.022937,0.031480,0.039207,0.008676,0.018399,0.027242,0.016066,0.024525,0.086909,0.025959,0.032621,0.030283,0.028451,0.026799,0.034253,0.020133,0.019073,0.029364,0.024134,0.032808,0.033410,0.023976,0.024210,0.004746,0.032267,0.005778,0.009551,0.018671,0.020291,0.011841,0.036648,0.007926,0.025127,0.024812,0.032449,0.024232,0.017395,0.014557,0.076743,0.073292,0.037709,0.030623,0.038916,0.032379,0.020417,0.015973,0.024492,0.033622
1738754853.363853,1738754853.364084,127.000000,0.000000,4322.692383,4348.461426,4253.846191,4301.410156,4349.615234,4360.641113,4361.282227,4549.615234,4538.846191,4560.000000,4497.436035,5662.948730,4308.077148,4255.641113,77.000000,4.000000,77.000000,,,,0.000000,0.000000,0.000000,0.000000,0.000000,0.000000,0.000000,0.000000,0.000000,0.000000,0.000000,0.000000,0.000000,0.000000,0.000000,0.000000,,,,,,,,,,,,,,,,,,,,,,,,,,,,,,,,,,,,,,,,,,,,,,,,,,,,,,,,,,,,,,,,,,,,,,,,,,,,,,,,,,,,,,,,,,,,,,,,,,,,,,,,,,,,,,,,,,,,,,,,,,,,,,,,,
1738754853.371661,1738754853.371892,0.000000,0.000000,4325.256348,4348.589844,4256.410156,4300.128418,4353.333496,4361.538574,4362.307617,4550.128418,4540.384766,4560.384766,4498.846191,5664.102539,4307.948730,4255.128418,0.000000,4.000000,77.000000,,,,0.000000,0.000000,0.000000,0.000000,0.000000,0.000000,0.000000,0.000000,0.000000,0.000000,0.000000,0.000000,0.000000,0.000000,0.000000,0.000000,,,,,,,,,,,,,,,,,0.000000,0.000000,0.785017,-0.615845,-0.061279,0.026978,0.068368,-0.979123,0.234892,4.520692,-15.500315,23.063259,,,,,,,,,,,,,,,,,,,,,,,,,,,,,,,,,,,,,,,,,,,,,,,,,,,,,,,,,,,,,,,,,,,,,,,,,,,,,,,,,,,,,,,,,,,,,,,,,,,,,
1738754853.379469,1738754853.379600,1.000000,0.000000,4324.615234,4349.487305,4254.487305,4302.051270,4351.794922,4361.666504,4366.153809,4551.410156,4540.128418,4557.820313,4497.563965,5664.230957,4307.563965,4257.051270,0.000000,4.000000,77.000000,,,,0.000000,0.000000,0.000000,0.000000,0.000000,0.000000,0.000000,0.000000,0.000000,0.000000,0.000000,0.000000,0.000000,0.000000,0.000000,0.000000,,,,,,,,,,,,,,,,,,,,,,,,,,,,,,,,,,,,,,,,,,,,,,,,,,,,,,,,,,,,,,,,,,,,,,,,,,,,,,,,,,,,,,,,,,,,,,,,,,,,,,,,,,,,,,,,,,,,,,,,,,,,,,,,,
1738754853.387277,1738754853.387408,2.000000,0.000000,4323.205078,4348.461426,4254.230957,4303.974121,4349.102539,4360.897461,4364.102539,4551.538574,4538.846191,4556.794922,4496.922852,5665.128418,4308.333496,4257.051270,0.000000,4.000000,77.000000,,,,0.000000,0.000000,0.000000,0.000000,0.000000,0.000000,0.000000,0.000000,0.000000,0.000000,0.000000,0.000000,0.000000,0.000000,0.000000,0.000000,,,,,,,,,,,,,,,,,,,,,,,,,,,,,,,,,,,,,,,,,,,,,,,,,,,,,,,,,,,,,,,,,,,,,,,,,,,,,,,,,,,,,,,,,,,,,,,,,,,,,,,,,,,,,,,,,,,,,,,,,,,,,,,,,
1738754853.395085,1738754853.395116,3.000000,0.000000,4325.512695,4349.230957,4256.922852,4304.358887,4351.153809,4358.846191,4361.282227,4549.743652,4539.615234,4558.333496,4497.307617,5664.743652,4309.230957,4257.179688,0.000000,4.000000,77.000000,,,,0.000000,0.000000,0.000000,0.000000,0.000000,0.000000,0.000000,0.000000,0.000000,0.000000,0.000000,0.000000,0.000000,0.000000,0.000000,0.000000,,,,,,,,,,,,,,,,,,,,,,,,,,,,,,,,,,,,,,,,,,,,,,,,,,,,,,,,,,,,,,,,,,,,,,,,,,,,,,,,,,,,,,,,,,,,,,,,,,,,,,,,,,,,,,,,,,,,,,,,,,,,,,,,,
1738754853.402893,1738754853.402924,4.000000,0.000000,4324.487305,4350.256348,4256.153809,4303.717773,4351.794922,4359.487305,4364.102539,4551.410156,4540.384766,4558.077148,4495.897461,5664.230957,4308.333496,4256.794922,0.000000,4.000000,77.000000,,,,0.000000,0.000000,0.000000,0.000000,0.000000,0.000000,0.000000,0.000000,0.000000,0.000000,0.000000,0.000000,0.000000,0.000000,0.000000,0.000000,,,,,,,,,,,,,,,,,1.000000,0.000000,0.785022,-0.615845,-0.061218,0.026978,0.076670,-0.977170,0.242217,4.401956,-15.483617,23.090265,,,,,,,,,,,,,,,,,,,,,,,,,,,,,,,,,,,,,,,,,,,,,,,,,,,,,,,,,,,,,,,,,,,,,,,,,,,,,,,,,,,,,,,,,,,,,,,,,,,,,
1738754853.410702,1738754853.410632,5.000000,0.000000,4321.410156,4348.846191,4253.974121,4300.897461,4349.230957,4362.307617,4364.871582,4553.461426,4539.871582,4557.436035,4496.794922,5663.461426,4310.641113,4257.948730,0.000000,4.000000,77.000000,,,,0.000000,0.000000,0.000000,0.000000,0.000000,0.000000,0.000000,0.000000,0.000000,0.000000,0.000000,0.000000,0.000000,0.000000,0.000000,0.000000,,,,,,,,,,,,,,,,,,,,,,,,,,,,,,,,,,,,,,,,,,,,,,,,,,,,,,,,,,,,,,,,,,,,,,,,,,,,,,,,,,,,,,,,,,,,,,,,,,,,,,,,,,,,,,,,,,,,,,,,,,,,,,,,,
1738754853.418510,1738754853.418540,6.000000,0.000000,4323.205078,4348.717773,4254.102539,4300.641113,4350.512695,4362.436035,4363.333496,4549.487305,4539.230957,4557.692383,4497.179688,5664.743652,4311.794922,4259.358887,0.000000,4.000000,77.000000,,,,0.000000,0.000000,0.000000,0.000000,0.000000,0.000000,0.000000,0.000000,0.000000,0.000000,0.000000,0.000000,0.000000,0.000000,0.000000,0.000000,,,,,,,,,,,,,,,,,,,,,,,,,,,,,,,,,,,,,,,,,,,,,,,,,,,,,,,,,,,,,,,,,,,,,,,,,,,,,,,,,,,,,,,,,,,,,,,,,,,,,,,,,,,,,,,,,,,,,,,,,,,,,,,,,
1738754853.426318,1738754853.426348,7.000000,0.000000,4324.102539,4350.641113,4254.102539,4302.179688,4353.974121,4361.025879,4365.256348,4548.717773,4541.025879,4558.974121,4497.436035,5666.025879,4310.384766,4256.794922,0.000000,4.000000,77.000000,,,,0.000000,0.000000,0.000000,0.000000,0.000000,0.000000,0.000000,0.000000,0.000000,0.000000,0.000000,0.000000,0.000000,0.000000,0.000000,0.000000,,,,,,,,,,,,,,,,,,,,,,,,,,,,,,,,,,,,,,,,,,,,,,,,,,,,,,,,,,,,,,,,,,,,,,,,,,,,,,,,,,,,,,,,,,,,,,,,,,,,,,,,,,,,,,,,,,,,,,,,,,,,,,,,,
1738754853.434126,1738754853.434256,8.000000,0.000000,4321.794922,4351.666504,4252.307617,4301.922852,4352.692383,4360.256348,4366.025879,4552.307617,4541.794922,4559.743652,4500.897461,5663.717773,4310.897461,4254.487305,0.000000,4.000000,77.000000,,,,0.000000,0.000000,0.000000,0.000000,0.000000,0.000000,0.000000,0.000000,0.000000,0.000000,0.000000,0.000000,0.000000,0.000000,0.000000,0.000000,,,,,,,,,,,,,,,,,2.000000,0.000000,0.785022,-0.615845,-0.061218,0.026978,0.065438,-0.971310,0.233427,4.378427,-15.518588,23.114573,,,,,,,,,,,,,,,,,,,,,,,,,,,,,,,,,,,,,,,,,,,,,,,,,,,,,,,,,,,,,,,,,,,,,,,,,,,,,,,,,,,,,,,,,,,,,,,,,,,,,
1738754853.441934,1738754853.442065,9.000000,0.000000,4323.205078,4351.538574,4253.461426,4301.666504,4350.128418,4360.256348,4363.589844,4551.538574,4538.077148,4557.051270,4500.769043,5664.230957,4312.051270,4255.384766,0.000000,4.000000,77.000000,,,,0.000000,0.000000,0.000000,0.000000,0.000000,0.000000,0.000000,0.000000,0.000000,0.000000,0.000000,0.000000,0.000000,0.000000,0.000000,0.000000,,,,,,,,,,,,,,,,,,,,,,,,,,,,,,,,,,,,,,,,,,,,,,,,,,,,,,,,,,,,,,,,,,,,,,,,,,,,,,,,,,,,,,,,,,,,,,,,,,,,,,,,,,,,,,,,,,,,,,,,,,,,,,,,,
1738754853.449742,1738754853.449973,10.000000,0.000000,4322.692383,4351.282227,4255.512695,4301.410156,4349.871582,4360.641113,4364.743652,4550.897461,4538.589844,4556.666504,4496.025879,5664.871582,4311.666504,4258.589844,0.000000,4.000000,77.000000,,,,0.000000,0.000000,0.000000,0.000000,0.000000,0.000000,0.000000,0.000000,0.000000,0.000000,0.000000,0.000000,0.000000,0.000000,0.000000,0.000000,,,,,,,,,,,,,,,,,,,,,,,,,,,,,,,,,,,,,,,,,,,,,,,,,,,,,,,,,,,,,,,,,,,,,,,,,,,,,,,,,,,,,,,,,,,,,,,,,,,,,,,,,,,,,,,,,,,,,,,,,,,,,,,,,
1738754853.457550,1738754853.457781,11.000000,0.000000,4319.230957,4351.922852,4256.153809,4302.051270,4351.282227,4359.871582,4366.282227,4552.948730,4541.282227,4560.256348,4495.256348,5663.589844,4308.461426,4257.051270,0.000000,4.000000,77.000000,,,,0.000000,0.000000,0.000000,0.000000,0.000000,0.000000,0.000000,0.000000,0.000000,0.000000,0.000000,0.000000,0.000000,0.000000,0.000000,0.000000,,,,,,,,,,,,,,,,,,,,,,,,,,,,,,,,,,,,,,,,,,,,,,,,,,,,,,,,,,,,,,,,,,,,,,,,,,,,,,,,,,,,,,,,,,,,,,,,,,,,,,,,,,,,,,,,,,,,,,,,,,,,,,,,,
1738754853.465358,1738754853.465689,12.000000,0.000000,4321.153809,4352.820313,4256.153809,4304.871582,4353.205078,4359.102539,4363.205078,4550.512695,4538.717773,4558.333496,4496.538574,5663.461426,4308.205078,4255.641113,0.000000,4.000000,77.000000,,,,0.000000,0.000000,0.000000,0.000000,0.000000,0.000000,0.000000,0.000000,0.000000,0.000000,0.000000,0.000000,0.000000,0.000000,0.000000,0.000000,,,,,,,,,,,,,,,,,3.000000,0.000000,0.785027,-0.615845,-0.061157,0.026978,0.066414,-0.974728,0.233427,4.340584,-15.566730,23.103115,,,,,,,,,,,,,,,,,,,,,,,,,,,,,,,,,,,,,,,,,,,,,,,,,,,,,,,,,,,,,,,,,,,,,,,,,,,,,,,,,,,,,,,,,,,,,,,,,,,,,
1738754853.473166,1738754853.473497,13.000000,0.000000,4323.205078,4351.025879,4254.487305,4302.820313,4352.051270,4360.384766,4363.333496,4545.512695,4537.563965,4554.615234,4496.025879,5663.589844,4312.563965,4259.102539,0.000000,4.000000,77.000000,,,,0.000000,0.000000,0.000000,0.000000,0.000000,0.000000,0.000000,0.000000,0.000000,0.000000,0.000000,0.000000,0.000000,0.000000,0.000000,0.000000,,,,,,,,,,,,,,,,,,,,,,,,,,,,,,,,,,,,,,,,,,,,,,,,,,,,,,,,,,,,,,,,,,,,,,,,,,,,,,,,,,,,,,,,,,,,,,,,,,,,,,,,,,,,,,,,,,,,,,,,,,,,,,,,,
1738754853.480975,1738754853.481405,14.000000,0.000000,4321.794922,4348.077148,4252.307617,4301.538574,4349.743652,4361.410156,4367.307617,4549.358887,4538.589844,4558.333496,4497.307617,5663.205078,4312.051270,4259.871582,0.000000,4.000000,77.000000,,,,0.000000,0.000000,0.000000,0.000000,0.000000,0.000000,0.000000,0.000000,0.000000,0.000000,0.000000,0.000000,0.000000,0.000000,0.000000,0.000000,,,,,,,,,,,,,,,,,,,,,,,,,,,,,,,,,,,,,,,,,,,,,,,,,,,,,,,,,,,,0.018690,0.021466,0.026749,0.019334,0.030026,0.021025,0.024274,0.013286,0.020564,0.017068,0.035897,0.034938,0.033027,0.016997,0.024669,0.008090,0.028196,0.025542,0.011933,0.025712,0.042915,0.020581,0.020372,0.031402,0.039021,0.008939,0.017302,0.026730,0.016758,0.025074,0.093079,0.020054,0.031397,0.027183,0.030584,0.031186,0.038087,0.020505,0.019656,0.027454,0.022422,0.033566,0.029010,0.023041,0.022597,0.005332,0.034186,0.006532,0.010828,0.021375,0.023760,0.014515,0.035566,0.007650,0.024653,0.032307,0.038813,0.021023,0.019334,0.015657,0.073667,0.064403,0.034742,0.031565,0.040524,0.032485,0.014671,0.018294,0.023516,0.031936
1738754853.488783,1738754853.489214,15.000000,0.000000,4322.307617,4348.846191,4251.794922,4305.384766,4350.384766,4361.794922,4368.589844,4555.512695,4538.461426,4562.051270,4496.410156,5663.589844,4308.589844,4257.179688,0.000000,4.000000,77.000000,,,,0.000000,0.000000,0.000000,0.000000,0.000000,0.000000,0.000000,0.000000,0.000000,0.000000,0.000000,0.000000,0.000000,0.000000,0.000000,0.000000,,,,,,,,,,,,,,,,,,,,,,,,,,,,,,,,,,,,,,,,,,,,,,,,,,,,,,,,,,,,,,,,,,,,,,,,,,,,,,,,,,,,,,,,,,,,,,,,,,,,,,,,,,,,,,,,,,,,,,,,,,,,,,,,,
1738754853.496591,1738754853.497122,16.000000,0.000000,4324.358887,4349.871582,4253.846191,4303.333496,4350.897461,4363.205078,4366.666504,4552.051270,4538.974121,4560.897461,4495.897461,5664.743652,4309.230957,4256.282227,0.000000,4.000000,77.000000,,,,0.000000,0.000000,0.000000,0.000000,0.000000,0.000000,0.000000,0.000000,0.000000,0.000000,0.000000,0.000000,0.000000,0.000000,0.000000,0.000000,,,,,,,,,,,,,,,,,4.000000,0.000000,0.785075,-0.615784,-0.061157,0.026978,0.058601,-0.972287,0.240264,4.406526,-15.493390,22.992804,,,,,,,,,,,,,,,,,,,,,,,,,,,,,,,,,,,,,,,,,,,,,,,,,,,,,,,,,,,,,,,,,,,,,,,,,,,,,,,,,,,,,,,,,,,,,,,,,,,,,
1738754853.504399,1738754853.504930,17.000000,0.000000,4322.436035,4348.974121,4255.128418,4301.282227,4350.641113,4362.563965,4366.794922,4548.717773,4537.820313,4560.256348,4498.589844,5664.358887,4310.641113,4256.282227,0.000000,4.000000,77.000000,,,,0.000000,0.000000,0.000000,0.000000,0.000000,0.000000,0.000000,0.000000,0.000000,0.000000,0.000000,0.000000,0.000000,0.000000,0.000000,0.000000,,,,,,,,,,,,,,,,,,,,,,,,,,,,,,,,,,,,,,,,,,,,,,,,,,,,,,,,,,,,,,,,,,,,,,,,,,,,,,,,,,,,,,,,,,,,,,,,,,,,,,,,,,,,,,,,,,,,,,,,,,,,,,,,,
1738754853.512207,1738754853.512838,18.000000,0.000000,4319.487305,4350.384766,4253.077148,4301.538574,4351.794922,4362.051270,4367.692383,4551.410156,4538.846191,4558.589844,4498.205078,5664.871582,4313.077148,4256.410156,0.000000,4.000000,77.000000,,,,0.000000,0.000000,0.000000,0.000000,0.000000,0.000000,0.000000,0.000000,0.000000,0.000000,0.000000,0.000000,0.000000,0.000000,0.000000,0.000000,,,,,,,,,,,,,,,,,,,,,,,,,,,,,,,,,,,,,,,,,,,,,,,,,,,,,,,,,,,,,,,,,,,,,,,,,,,,,,,,,,,,,,,,,,,,,,,,,,,,,,,,,,,,,,,,,,,,,,,,,,,,,,,,,
1738754853.520015,1738754853.520646,19.000000,0.000000,4319.230957,4350.128418,4252.179688,4300.000000,4351.922852,4361.794922,4367.179688,4553.717773,4541.538574,4558.333496,4497.179688,5665.384766,4313.717773,4257.563965,0.000000,4.000000,77.000000,,,,0.000000,0.000000,0.000000,0.000000,0.000000,0.000000,0.000000,0.000000,0.000000,0.000000,0.000000,0.000000,0.000000,0.000000,0.000000,0.000000,,,,,,,,,,,,,,,,,,,,,,,,,,,,,,,,,,,,,,,,,,,,,,,,,,,,,,,,,,,,,,,,,,,,,,,,,,,,,,,,,,,,,,,,,,,,,,,,,,,,,,,,,,,,,,,,,,,,,,,,,,,,,,,,,
1738754853.527823,1738754853.528354,20.000000,0.000000,4320.128418,4349.615234,4253.717773,4301.922852,4352.179688,4359.615234,4366.794922,4550.000000,4539.230957,4560.897461,4499.615234,5663.205078,4310.769043,4258.333496,0.000000,4.000000,77.000000,,,,0.000000,0.000000,0.000000,0.000000,0.000000,0.000000,0.000000,0.000000,0.000000,0.000000,0.000000,0.000000,0.000000,0.000000,0.000000,0.000000,,,,,,,,,,,,,,,,,5.000000,0.000000,0.785075,-0.615784,-0.061157,0.026978,0.060066,-0.971798,0.237822,4.382540,-15.477384,22.976856,,,,,,,,,,,,,,,,,,,,,,,,,,,,,,,,,,,,,,,,,,,,,,,,,,,,,,,,,,,,,,,,,,,,,,,,,,,,,,,,,,,,,,,,,,,,,,,,,,,,,
1738754853.535631,1738754853.536162,21.000000,0.000000,4321.666504,4352.692383,4254.871582,4303.461426,4353.846191,4360.641113,4367.436035,4549.230957,4538.461426,4560.641113,4499.743652,5663.717773,4311.282227,4258.333496,0.000000,4.000000,77.000000,,,,0.000000,0.000000,0.000000,0.000000,0.000000,0.000000,0.000000,0.000000,0.000000,0.000000,0.000000,0.000000,0.000000,0.000000,0.000000,0.000000,,,,,,,,,,,,,,,,,,,,,,,,,,,,,,,,,,,,,,,,,,,,,,,,,,,,,,,,,,,,,,,,,,,,,,,,,,,,,,,,,,,,,,,,,,,,,,,,,,,,,,,,,,,,,,,,,,,,,,,,,,,,,,,,,
1738754853.543439,1738754853.543870,22.000000,0.000000,4321.025879,4352.179688,4254.230957,4302.948730,4353.461426,4363.461426,4366.025879,4551.666504,4541.025879,4558.717773,4496.153809,5664.871582,4312.563965,4257.820313,0.000000,4.000000,77.000000,,,,0.000000,0.000000,0.000000,0.000000,0.000000,0.000000,0.000000,0.000000,0.000000,0.000000,0.000000,0.000000,0.000000,0.000000,0.000000,0.000000,,,,,,,,,,,,,,,,,,,,,,,,,,,,,,,,,,,,,,,,,,,,,,,,,,,,,,,,,,,,,,,,,,,,,,,,,,,,,,,,,,,,,,,,,,,,,,,,,,,,,,,,,,,,,,,,,,,,,,,,,,,,,,,,,
1738754853.551247,1738754853.551778,23.000000,0.000000,4319.871582,4348.333496,4254.743652,4304.487305,4351.410156,4360.384766,4364.615234,4546.666504,4538.333496,4559.358887,4497.563965,5662.307617,4311.153809,4256.794922,0.000000,4.000000,77.000000,,,,0.000000,0.000000,0.000000,0.000000,0.000000,0.000000,0.000000,0.000000,0.000000,0.000000,0.000000,0.000000,0.000000,0.000000,0.000000,0.000000,,,,,,,,,,,,,,,,,,,,,,,,,,,,,,,,,,,,,,,,,,,,,,,,,,,,,,,,,,,,,,,,,,,,,,,,,,,,,,,,,,,,,,,,,,,,,,,,,,,,,,,,,,,,,,,,,,,,,,,,,,,,,,,,,
1738754853.559055,1738754853.559587,24.000000,0.000000,4321.153809,4350.128418,4256.666504,4306.153809,4350.128418,4358.846191,4367.692383,4545.128418,4536.153809,4561.025879,4500.384766,5662.692383,4308.589844,4257.307617,0.000000,4.000000,77.000000,,,,0.000000,0.000000,0.000000,0.000000,0.000000,0.000000,0.000000,0.000000,0.000000,0.000000,0.000000,0.000000,0.000000,0.000000,0.000000,0.000000,,,,,,,,,,,,,,,,,6.000000,0.000000,0.785075,-0.615784,-0.061157,0.026978,0.063973,-0.963008,0.242705,4.460953,-15.396313,22.895838,,,,,,,,,,,,,,,,,,,,,,,,,,,,,,,,,,,,,,,,,,,,,,,,,,,,,,,,,,,,,,,,,,,,,,,,,,,,,,,,,,,,,,,,,,,,,,,,,,,,,
1738754853.566864,1738754853.567395,25.000000,0.000000,4321.025879,4352.179688,4256.538574,4303.461426,4349.615234,4362.820313,4368.205078,4549.358887,4539.615234,4559.743652,4498.461426,5664.743652,4307.179688,4258.205078,0.000000,4.000000,77.000000,,,,0.000000,0.000000,0.000000,0.000000,0.000000,0.000000,0.000000,0.000000,0.000000,0.000000,0.000000,0.000000,0.000000,0.000000,0.000000,0.000000,,,,,,,,,,,,,,,,,,,,,,,,,,,,,,,,,,,,,,,,,,,,,,,,,,,,,,,,,,,,,,,,,,,,,,,,,,,,,,,,,,,,,,,,,,,,,,,,,,,,,,,,,,,,,,,,,,,,,,,,,,,,,,,,,
1738754853.574672,1738754853.575103,26.000000,0.000000,4319.487305,4347.307617,4254.871582,4301.794922,4351.666504,4363.333496,4364.102539,4548.974121,4540.512695,4559.102539,4496.538574,5663.846191,4308.333496,4257.692383,0.000000,4.000000,77.000000,,,,0.000000,0.000000,0.000000,0.000000,0.000000,0.000000,0.000000,0.000000,0.000000,0.000000,0.000000,0.000000,0.000000,0.000000,0.000000,0.000000,,,,,,,,,,,,,,,,,,,,,,,,,,,,,,,,,,,,,,,,,,,,,,,,,,,,,,,,,,,,,,,,,,,,,,,,,,,,,,,,,,,,,,,,,,,,,,,,,,,,,,,,,,,,,,,,,,,,,,,,,,,,,,,,,
1738754853.582480,1738754853.582911,27.000000,0.000000,4318.717773,4346.922852,4252.820313,4303.589844,4354.487305,4359.871582,4366.282227,4548.589844,4537.820313,4559.102539,4497.692383,5664.358887,4307.820313,4254.615234,0.000000,4.000000,77.000000,,,,0.000000,0.000000,0.000000,0.000000,0.000000,0.000000,0.000000,0.000000,0.000000,0.000000,0.000000,0.000000,0.000000,0.000000,0.000000,0.000000,,,,,,,,,,,,,,,,,,,,,,,,,,,,,,,,,,,,,,,,,,,,,,,,,,,,,,,,,,,,,,,,,,,,,,,,,,,,,,,,,,,,,,,,,,,,,,,,,,,,,,,,,,,,,,,,,,,,,,,,,,,,,,,,,
1738754853.590288,1738754853.590619,28.000000,0.000000,4319.615234,4353.846191,4251.153809,4302.820313,4350.897461,4359.102539,4369.615234,4550.000000,4537.692383,4558.846191,4500.000000,5662.563965,4310.128418,4254.871582,0.000000,4.000000,77.000000,,,,0.000000,0.000000,0.000000,0.000000,0.000000,0.000000,0.000000,0.000000,0.000000,0.000000,0.000000,0.000000,0.000000,0.000000,0.000000,0.000000,,,,,,,,,,,,,,,,,7.000000,0.000000,0.785077,-0.615784,-0.061157,0.026917,0.060066,-0.968380,0.235380,4.381524,-15.306681,22.972921,,,,,,,,,,,,,,,,,,,,,,,,,,,,,,,,,,,,,,,,,,,,,,,,,,,,,,,,,,,,,,,,,,,,,,,,,,,,,,,,,,,,,,,,,,,,,,,,,,,,,
1738754853.598096,1738754853.598427,29.000000,0.000000,4321.282227,4355.256348,4251.794922,4303.205078,4347.820313,4361.282227,4367.692383,4548.974121,4538.461426,4559.871582,4499.871582,5660.897461,4311.794922,4256.410156,0.000000,4.000000,77.000000,,,,0.000000,0.000000,0.000000,0.000000,0.000000,0.000000,0.000000,0.000000,0.000000,0.000000,0.000000,0.000000,0.000000,0.000000,0.000000,0.000000,,,,,,,,,,,,,,,,,,,,,,,,,,,,,,,,,,,,,,,,,,,,,,,,,,,,,,,,,,,,,,,,,,,,,,,,,,,,,,,,,,,,,,,,,,,,,,,,,,,,,,,,,,,,,,,,,,,,,,,,,,,,,,,,,
1738754853.605904,1738754853.606135,30.000000,0.000000,4321.922852,4349.871582,4255.000000,4306.282227,4351.410156,4360.641113,4363.974121,4549.487305,4538.974121,4559.358887,4497.436035,5663.717773,4305.897461,4255.384766,0.000000,4.000000,77.000000,,,,0.000000,0.000000,0.000000,0.000000,0.000000,0.000000,0.000000,0.000000,0.000000,0.000000,0.000000,0.000000,0.000000,0.000000,0.000000,0.000000,1.000000,0.000000,0.000000,0.000000,0.000000,0.000000,0.000000,0.000000,0.000000,0.000000,0.000000,0.000000,0.000000,0.000000,0.000000,0.000000,,,,,,,,,,,,,,,,,,,,,,,,,,,,,,,,,,,,,,,,,,,,0.017994,0.023364,0.034382,0.014923,0.031374,0.018829,0.022724,0.013179,0.018490,0.016694,0.032156,0.033912,0.026888,0.019605,0.026372,0.006037,0.022423,0.025292,0.012244,0.027291,0.042288,0.021326,0.018510,0.031227,0.038036,0.009221,0.016016,0.024152,0.017406,0.024421,0.098653,0.017928,0.029441,0.024908,0.033145,0.036245,0.040272,0.021611,0.020379,0.025109,0.020588,0.032327,0.023629,0.021568,0.020519,0.005961,0.037148,0.008882,0.012761,0.024086,0.026618,0.017888,0.032506,0.007650,0.023067,0.039679,0.042252,0.017278,0.020459,0.017657,0.070056,0.053932,0.029456,0.030148,0.042406,0.032302,0.012862,0.019497,0.023256,0.030132
1738754853.613712,1738754853.614043,31.000000,0.000000,4321.666504,4348.461426,4257.436035,4305.897461,4352.820313,4358.333496,4360.256348,4551.025879,4539.358887,4556.025879,4496.410156,5666.538574,4306.025879,4256.538574,0.000000,4.000000,77.000000,,,,0.000000,0.000000,0.000000,0.000000,0.000000,0.000000,0.000000,0.000000,0.000000,0.000000,0.000000,0.000000,0.000000,0.000000,0.000000,0.000000,,,,,,,,,,,,,,,,,,,,,,,,,,,,,,,,,,,,,,,,,,,,,,,,,,,,,,,,,,,,,,,,,,,,,,,,,,,,,,,,,,,,,,,,,,,,,,,,,,,,,,,,,,,,,,,,,,,,,,,,,,,,,,,,,
1738754853.621520,1738754853.621851,32.000000,0.000000,4324.102539,4350.897461,4256.153809,4303.846191,4350.769043,4358.205078,4361.922852,4550.256348,4540.256348,4556.666504,4496.538574,5667.692383,4312.179688,4256.794922,0.000000,4.000000,77.000000,,,,0.000000,0.000000,0.000000,0.000000,0.000000,0.000000,0.000000,0.000000,0.000000,0.000000,0.000000,0.000000,0.000000,0.000000,0.000000,0.000000,,,,,,,,,,,,,,,,,8.000000,0.000000,0.785127,-0.615723,-0.061157,0.026855,0.060066,-0.974728,0.236357,4.426705,-15.326013,23.025629,,,,,,,,,,,,,,,,,,,,,,,,,,,,,,,,,,,,,,,,,,,,,,,,,,,,,,,,,,,,,,,,,,,,,,,,,,,,,,,,,,,,,,,,,,,,,,,,,,,,,
1738754853.629328,1738754853.629659,33.000000,0.000000,4325.256348,4350.128418,4252.436035,4303.205078,4351.922852,4361.794922,4364.871582,4549.871582,4542.179688,4561.666504,4496.282227,5664.487305,4314.487305,4254.743652,0.000000,4.000000,77.000000,,,,0.000000,0.000000,0.000000,0.000000,0.000000,0.000000,0.000000,0.000000,0.000000,0.000000,0.000000,0.000000,0.000000,0.000000,0.000000,0.000000,,,,,,,,,,,,,,,,,,,,,,,,,,,,,,,,,,,,,,,,,,,,,,,,,,,,,,,,,,,,,,,,,,,,,,,,,,,,,,,,,,,,,,,,,,,,,,,,,,,,,,,,,,,,,,,,,,,,,,,,,,,,,,,,,
1738754853.637137,1738754853.637368,34.000000,0.000000,4321.025879,4349.615234,4253.589844,4303.205078,4353.333496,4362.820313,4363.974121,4549.358887,4538.974121,4561.922852,4497.820313,5660.641113,4308.846191,4255.000000,0.000000,4.000000,77.000000,,,,0.000000,0.000000,0.000000,0.000000,0.000000,0.000000,0.000000,0.000000,0.000000,0.000000,0.000000,0.000000,0.000000,0.000000,0.000000,0.000000,,,,,,,,,,,,,,,,,,,,,,,,,,,,,,,,,,,,,,,,,,,,,,,,,,,,,,,,,,,,,,,,,,,,,,,,,,,,,,,,,,,,,,,,,,,,,,,,,,,,,,,,,,,,,,,,,,,,,,,,,,,,,,,,,
1738754853.644945,1738754853.645276,35.000000,0.000000,4321.153809,4351.666504,4258.974121,4301.922852,4351.538574,4360.769043,4362.179688,4550.000000,4535.384766,4558.974121,4499.102539,5661.922852,4305.897461,4255.512695,0.000000,4.000000,77.000000,,,,0.000000,0.000000,0.000000,0.000000,0.000000,0.000000,0.000000,0.000000,0.000000,0.000000,0.000000,0.000000,0.000000,0.000000,0.000000,0.000000,,,,,,,,,,,,,,,,,,,,,,,,,,,,,,,,,,,,,,,,,,,,,,,,,,,,,,,,,,,,,,,,,,,,,,,,,,,,,,,,,,,,,,,,,,,,,,,,,,,,,,,,,,,,,,,,,,,,,,,,,,,,,,,,,
1738754853.652753,1738754853.653084,36.000000,0.000000,4323.589844,4352.051270,4257.820313,4300.256348,4350.000000,4360.769043,4363.974121,4551.666504,4539.743652,4559.102539,4497.692383,5663.717773,4308.717773,4256.025879,0.000000,4.000000,77.000000,,,,0.000000,0.000000,0.000000,0.000000,0.000000,0.000000,0.000000,0.000000,0.000000,0.000000,0.000000,0.000000,0.000000,0.000000,0.000000,0.000000,,,,,,,,,,,,,,,,,9.000000,0.000000,0.785079,-0.615784,-0.061157,0.026855,0.065438,-0.980588,0.246612,4.384035,-15.393412,22.856400,,,,,,,,,,,,,,,,,,,,,,,,,,,,,,,,,,,,,,,,,,,,,,,,,,,,,,,,,,,,,,,,,,,,,,,,,,,,,,,,,,,,,,,,,,,,,,,,,,,,,
1738754853.660561,1738754853.660992,37.000000,0.000000,4324.102539,4350.641113,4253.333496,4301.282227,4348.974121,4361.410156,4366.666504,4550.769043,4542.692383,4558.974121,4496.153809,5662.563965,4310.000000,4256.025879,0.000000,4.000000,77.000000,,,,0.000000,0.000000,0.000000,0.000000,0.000000,0.000000,0.000000,0.000000,0.000000,0.000000,0.000000,0.000000,0.000000,0.000000,0.000000,0.000000,,,,,,,,,,,,,,,,,,,,,,,,,,,,,,,,,,,,,,,,,,,,,,,,,,,,,,,,,,,,,,,,,,,,,,,,,,,,,,,,,,,,,,,,,,,,,,,,,,,,,,,,,,,,,,,,,,,,,,,,,,,,,,,,,
1738754853.668369,1738754853.668900,38.000000,0.000000,4324.358887,4350.256348,4253.589844,4303.717773,4347.820313,4359.871582,4363.717773,4549.358887,4538.205078,4558.974121,4495.256348,5663.846191,4309.230957,4255.769043,0.000000,4.000000,77.000000,,,,0.000000,0.000000,0.000000,0.000000,0.000000,0.000000,0.000000,0.000000,0.000000,0.000000,0.000000,0.000000,0.000000,0.000000,0.000000,0.000000,,,,,,,,,,,,,,,,,,,,,,,,,,,,,,,,,,,,,,,,,,,,,,,,,,,,,,,,,,,,,,,,,,,,,,,,,,,,,,,,,,,,,,,,,,,,,,,,,,,,,,,,,,,,,,,,,,,,,,,,,,,,,,,,,
1738754853.676177,1738754853.676708,39.000000,0.000000,4323.589844,4350.256348,4254.230957,4303.333496,4350.000000,4356.794922,4360.769043,4549.230957,4535.897461,4560.256348,4495.641113,5666.025879,4307.820313,4256.410156,0.000000,4.000000,77.000000,,,,0.000000,0.000000,0.000000,0.000000,0.000000,0.000000,0.000000,0.000000,0.000000,0.000000,0.000000,0.000000,0.000000,0.000000,0.000000,0.000000,,,,,,,,,,,,,,,,,,,,,,,,,,,,,,,,,,,,,,,,,,,,,,,,,,,,,,,,,,,,,,,,,,,,,,,,,,,,,,,,,,,,,,,,,,,,,,,,,,,,,,,,,,,,,,,,,,,,,,,,,,,,,,,,,
1738754853.683985,1738754853.684516,40.000000,0.000000,4322.051270,4350.384766,4252.820313,4303.077148,4350.897461,4358.077148,4363.077148,4548.077148,4538.717773,4560.000000,4497.436035,5664.358887,4308.589844,4255.512695,0.000000,4.000000,77.000000,,,,0.000000,0.000000,0.000000,0.000000,0.000000,0.000000,0.000000,0.000000,0.000000,0.000000,0.000000,0.000000,0.000000,0.000000,0.000000,0.000000,,,,,,,,,,,,,,,,,10.000000,0.000000,0.785126,-0.615723,-0.061218,0.026733,0.056648,-0.963497,0.234892,4.212298,-15.320737,22.920759,,,,,,,,,,,,,,,,,,,,,,,,,,,,,,,,,,,,,,,,,,,,,,,,,,,,,,,,,,,,,,,,,,,,,,,,,,,,,,,,,,,,,,,,,,,,,,,,,,,,,
1738754853.691793,1738754853.692425,41.000000,0.000000,4321.666504,4352.051270,4253.205078,4304.743652,4348.205078,4359.615234,4363.846191,4547.820313,4538.589844,4560.256348,4497.820313,5661.538574,4307.948730,4251.538574,0.000000,4.000000,77.000000,,,,0.000000,0.000000,0.000000,0.000000,0.000000,0.000000,0.000000,0.000000,0.000000,0.000000,0.000000,0.000000,0.000000,0.000000,0.000000,0.000000,,,,,,,,,,,,,,,,,,,,,,,,,,,,,,,,,,,,,,,,,,,,,,,,,,,,,,,,,,,,,,,,,,,,,,,,,,,,,,,,,,,,,,,,,,,,,,,,,,,,,,,,,,,,,,,,,,,,,,,,,,,,,,,,,
1738754853.699601,1738754853.700233,42.000000,0.000000,4323.717773,4353.205078,4254.102539,4305.128418,4349.102539,4357.436035,4361.794922,4548.974121,4535.641113,4561.922852,4496.153809,5662.307617,4305.512695,4252.563965,0.000000,4.000000,77.000000,,,,0.000000,0.000000,0.000000,0.000000,0.000000,0.000000,0.000000,0.000000,0.000000,0.000000,0.000000,0.000000,0.000000,0.000000,0.000000,0.000000,,,,,,,,,,,,,,,,,,,,,,,,,,,,,,,,,,,,,,,,,,,,,,,,,,,,,,,,,,,,,,,,,,,,,,,,,,,,,,,,,,,,,,,,,,,,,,,,,,,,,,,,,,,,,,,,,,,,,,,,,,,,,,,,,
1738754853.707410,1738754853.707941,43.000000,0.000000,4321.922852,4351.922852,4254.102539,4304.102539,4351.538574,4357.051270,4362.692383,4549.230957,4536.538574,4561.922852,4496.538574,5663.974121,4309.615234,4256.922852,0.000000,4.000000,77.000000,,,,0.000000,0.000000,0.000000,0.000000,0.000000,0.000000,0.000000,0.000000,0.000000,0.000000,0.000000,0.000000,0.000000,0.000000,0.000000,0.000000,,,,,,,,,,,,,,,,,,,,,,,,,,,,,,,,,,,,,,,,,,,,,,,,,,,,,,,,,,,,,,,,,,,,,,,,,,,,,,,,,,,,,,,,,,,,,,,,,,,,,,,,,,,,,,,,,,,,,,,,,,,,,,,,,
1738754853.715217,1738754853.715749,44.000000,0.000000,4319.487305,4350.384766,4254.230957,4303.205078,4351.538574,4359.102539,4365.641113,4550.384766,4540.897461,4560.769043,4495.769043,5663.205078,4313.589844,4255.000000,0.000000,4.000000,77.000000,,,,0.000000,0.000000,0.000000,0.000000,0.000000,0.000000,0.000000,0.000000,0.000000,0.000000,0.000000,0.000000,0.000000,0.000000,0.000000,0.000000,,,,,,,,,,,,,,,,,11.000000,0.000000,0.785076,-0.615784,-0.061218,0.026794,0.064949,-0.978147,0.230497,4.241068,-15.271996,22.795349,,,,,,,,,,,,,,,,,,,,,,,,,,,,,,,,,,,,,,,,,,,,,,,,,,,,,,,,,,,,,,,,,,,,,,,,,,,,,,,,,,,,,,,,,,,,,,,,,,,,,
1738754853.723026,1738754853.723457,45.000000,0.000000,4320.128418,4349.871582,4255.000000,4301.282227,4352.307617,4359.230957,4365.769043,4553.077148,4539.871582,4560.128418,4494.487305,5663.974121,4312.948730,4255.256348,0.000000,4.000000,77.000000,,,,0.000000,0.000000,0.000000,0.000000,0.000000,0.000000,0.000000,0.000000,0.000000,0.000000,0.000000,0.000000,0.000000,0.000000,0.000000,0.000000,,,,,,,,,,,,,,,,,,,,,,,,,,,,,,,,,,,,,,,,,,,,,,,,,,,,,,,,,,,,,,,,,,,,,,,,,,,,,,,,,,,,,,,,,,,,,,,,,,,,,,,,,,,,,,,,,,,,,,,,,,,,,,,,,
1738754853.730834,1738754853.731265,46.000000,0.000000,4318.974121,4351.153809,4255.256348,4301.153809,4351.538574,4358.205078,4364.102539,4552.692383,4537.179688,4560.769043,4497.179688,5666.538574,4312.307617,4258.589844,0.000000,4.000000,77.000000,,,,0.000000,0.000000,0.000000,0.000000,0.000000,0.000000,0.000000,0.000000,0.000000,0.000000,0.000000,0.000000,0.000000,0.000000,0.000000,0.000000,,,,,,,,,,,,,,,,,,,,,,,,,,,,,,,,,,,,,,,,,,,,,,,,,,,,,,,,,,,,0.019041,0.026842,0.040729,0.011618,0.031697,0.017750,0.022237,0.012636,0.016568,0.016353,0.029092,0.032675,0.021600,0.022024,0.027487,0.004990,0.017070,0.024925,0.012922,0.028789,0.043117,0.022337,0.018870,0.031476,0.036272,0.009749,0.014762,0.020857,0.018244,0.022874,0.103085,0.017726,0.026941,0.024657,0.035992,0.041316,0.040549,0.022585,0.021159,0.022780,0.018903,0.028862,0.018387,0.019460,0.018454,0.006348,0.040657,0.012819,0.015171,0.026325,0.027878,0.021505,0.028235,0.007909,0.021022,0.046065,0.041792,0.013649,0.020658,0.019957,0.065268,0.044300,0.024106,0.026564,0.043951,0.031242,0.014300,0.019311,0.023794,0.028446
1738754853.738642,1738754853.738973,47.000000,0.000000,4319.743652,4352.436035,4255.512695,4303.974121,4349.487305,4360.897461,4363.333496,4548.846191,4540.256348,4561.922852,4496.282227,5665.256348,4309.871582,4255.897461,0.000000,4.000000,77.000000,,,,0.000000,0.000000,0.000000,0.000000,0.000000,0.000000,0.000000,0.000000,0.000000,0.000000,0.000000,0.000000,0.000000,0.000000,0.000000,0.000000,,,,,,,,,,,,,,,,,,,,,,,,,,,,,,,,,,,,,,,,,,,,,,,,,,,,,,,,,,,,,,,,,,,,,,,,,,,,,,,,,,,,,,,,,,,,,,,,,,,,,,,,,,,,,,,,,,,,,,,,,,,,,,,,,
1738754853.746450,1738754853.746781,48.000000,0.000000,4322.179688,4350.897461,4256.282227,4304.487305,4351.025879,4361.410156,4363.077148,4547.948730,4544.230957,4561.922852,4493.205078,5662.692383,4307.179688,4254.102539,0.000000,4.000000,77.000000,,,,0.000000,0.000000,0.000000,0.000000,0.000000,0.000000,0.000000,0.000000,0.000000,0.000000,0.000000,0.000000,0.000000,0.000000,0.000000,0.000000,,,,,,,,,,,,,,,,,12.000000,0.000000,0.785031,-0.615845,-0.061218,0.026733,0.060066,-0.976682,0.236845,4.266961,-15.194798,22.849148,,,,,,,,,,,,,,,,,,,,,,,,,,,,,,,,,,,,,,,,,,,,,,,,,,,,,,,,,,,,,,,,,,,,,,,,,,,,,,,,,,,,,,,,,,,,,,,,,,,,,
1738754853.754258,1738754853.754489,49.000000,0.000000,4321.153809,4349.230957,4255.128418,4302.820313,4351.666504,4359.102539,4364.487305,4550.769043,4543.461426,4560.000000,4495.128418,5664.358887,4309.487305,4256.153809,0.000000,4.000000,77.000000,,,,0.000000,0.000000,0.000000,0.000000,0.000000,0.000000,0.000000,0.000000,0.000000,0.000000,0.000000,0.000000,0.000000,0.000000,0.000000,0.000000,,,,,,,,,,,,,,,,,,,,,,,,,,,,,,,,,,,,,,,,,,,,,,,,,,,,,,,,,,,,,,,,,,,,,,,,,,,,,,,,,,,,,,,,,,,,,,,,,,,,,,,,,,,,,,,,,,,,,,,,,,,,,,,,,
1738754853.762066,1738754853.762297,50.000000,0.000000,4321.282227,4349.871582,4254.358887,4302.051270,4350.384766,4360.000000,4365.256348,4550.769043,4539.487305,4558.717773,4498.077148,5665.128418,4308.846191,4256.922852,0.000000,4.000000,77.000000,,,,0.000000,0.000000,0.000000,0.000000,0.000000,0.000000,0.000000,0.000000,0.000000,0.000000,0.000000,0.000000,0.000000,0.000000,0.000000,0.000000,,,,,,,,,,,,,,,,,,,,,,,,,,,,,,,,,,,,,,,,,,,,,,,,,,,,,,,,,,,,,,,,,,,,,,,,,,,,,,,,,,,,,,,,,,,,,,,,,,,,,,,,,,,,,,,,,,,,,,,,,,,,,,,,,
1738754853.769874,1738754853.770005,51.000000,0.000000,4326.410156,4350.897461,4255.000000,4303.589844,4354.102539,4361.794922,4365.256348,4549.743652,4538.333496,4559.102539,4496.025879,5662.436035,4306.538574,4255.897461,0.000000,4.000000,77.000000,,,,0.000000,0.000000,0.000000,0.000000,0.000000,0.000000,0.000000,0.000000,0.000000,0.000000,0.000000,0.000000,0.000000,0.000000,0.000000,0.000000,,,,,,,,,,,,,,,,,,,,,,,,,,,,,,,,,,,,,,,,,,,,,,,,,,,,,,,,,,,,,,,,,,,,,,,,,,,,,,,,,,,,,,,,,,,,,,,,,,,,,,,,,,,,,,,,,,,,,,,,,,,,,,,,,
1738754853.777682,1738754853.777813,52.000000,0.000000,4326.153809,4350.256348,4254.615234,4305.641113,4355.641113,4360.897461,4368.974121,4552.179688,4541.025879,4559.615234,4492.820313,5663.589844,4307.307617,4254.102539,0.000000,4.000000,77.000000,,,,0.000000,0.000000,0.000000,0.000000,0.000000,0.000000,0.000000,0.000000,0.000000,0.000000,0.000000,0.000000,0.000000,0.000000,0.000000,0.000000,,,,,,,,,,,,,,,,,13.000000,0.000000,0.785031,-0.615845,-0.061218,0.026733,0.065438,-0.972775,0.234892,4.340265,-15.341984,22.897566,,,,,,,,,,,,,,,,,,,,,,,,,,,,,,,,,,,,,,,,,,,,,,,,,,,,,,,,,,,,,,,,,,,,,,,,,,,,,,,,,,,,,,,,,,,,,,,,,,,,,
1738754853.785490,1738754853.785521,53.000000,0.000000,4322.563965,4349.871582,4254.871582,4304.615234,4351.794922,4358.846191,4369.743652,4551.922852,4543.077148,4559.615234,4493.589844,5666.153809,4309.487305,4255.897461,0.000000,4.000000,77.000000,,,,0.000000,0.000000,0.000000,0.000000,0.000000,0.000000,0.000000,0.000000,0.000000,0.000000,0.000000,0.000000,0.000000,0.000000,0.000000,0.000000,,,,,,,,,,,,,,,,,,,,,,,,,,,,,,,,,,,,,,,,,,,,,,,,,,,,,,,,,,,,,,,,,,,,,,,,,,,,,,,,,,,,,,,,,,,,,,,,,,,,,,,,,,,,,,,,,,,,,,,,,,,,,,,,,
1738754853.793299,1738754853.793329,54.000000,0.000000,4323.205078,4351.666504,4254.615234,4302.692383,4352.051270,4357.820313,4363.589844,4548.333496,4541.538574,4559.487305,4495.384766,5665.384766,4309.102539,4259.102539,0.000000,4.000000,77.000000,,,,0.000000,0.000000,0.000000,0.000000,0.000000,0.000000,0.000000,0.000000,0.000000,0.000000,0.000000,0.000000,0.000000,0.000000,0.000000,0.000000,,,,,,,,,,,,,,,,,,,,,,,,,,,,,,,,,,,,,,,,,,,,,,,,,,,,,,,,,,,,,,,,,,,,,,,,,,,,,,,,,,,,,,,,,,,,,,,,,,,,,,,,,,,,,,,,,,,,,,,,,,,,,,,,,
1738754853.801107,1738754853.801037,55.000000,0.000000,4322.563965,4352.307617,4253.974121,4303.846191,4353.205078,4356.666504,4360.641113,4547.692383,4539.743652,4560.384766,4495.512695,5664.615234,4303.461426,4255.512695,0.000000,4.000000,77.000000,,,,0.000000,0.000000,0.000000,0.000000,0.000000,0.000000,0.000000,0.000000,0.000000,0.000000,0.000000,0.000000,0.000000,0.000000,0.000000,0.000000,,,,,,,,,,,,,,,,,,,,,,,,,,,,,,,,,,,,,,,,,,,,,,,,,,,,,,,,,,,,,,,,,,,,,,,,,,,,,,,,,,,,,,,,,,,,,,,,,,,,,,,,,,,,,,,,,,,,,,,,,,,,,,,,,
1738754853.808915,1738754853.808845,56.000000,0.000000,4318.205078,4349.358887,4254.615234,4302.307617,4350.897461,4355.769043,4362.948730,4548.974121,4539.358887,4560.512695,4496.282227,5663.333496,4303.077148,4255.256348,0.000000,4.000000,77.000000,,,,0.000000,0.000000,0.000000,0.000000,0.000000,0.000000,0.000000,0.000000,0.000000,0.000000,0.000000,0.000000,0.000000,0.000000,0.000000,0.000000,,,,,,,,,,,,,,,,,14.000000,0.000000,0.785031,-0.615845,-0.061218,0.026733,0.063484,-0.968380,0.233427,4.406239,-15.291119,22.891144,,,,,,,,,,,,,,,,,,,,,,,,,,,,,,,,,,,,,,,,,,,,,,,,,,,,,,,,,,,,,,,,,,,,,,,,,,,,,,,,,,,,,,,,,,,,,,,,,,,,,
1738754853.816723,1738754853.816553,57.000000,0.000000,4317.307617,4347.307617,4255.384766,4300.000000,4350.384766,4357.179688,4364.230957,4550.128418,4539.230957,4557.692383,4498.846191,5662.948730,4310.128418,4259.871582,0.000000,4.000000,77.000000,,,,0.000000,0.000000,0.000000,0.000000,0.000000,0.000000,0.000000,0.000000,0.000000,0.000000,0.000000,0.000000,0.000000,0.000000,0.000000,0.000000,,,,,,,,,,,,,,,,,,,,,,,,,,,,,,,,,,,,,,,,,,,,,,,,,,,,,,,,,,,,,,,,,,,,,,,,,,,,,,,,,,,,,,,,,,,,,,,,,,,,,,,,,,,,,,,,,,,,,,,,,,,,,,,,,
1738754853.824531,1738754853.824461,58.000000,0.000000,4321.666504,4349.615234,4254.615234,4302.179688,4351.282227,4359.230957,4364.487305,4551.666504,4540.897461,4557.692383,4497.436035,5664.358887,4309.743652,4256.794922,0.000000,4.000000,77.000000,,,,0.000000,0.000000,0.000000,0.000000,0.000000,0.000000,0.000000,0.000000,0.000000,0.000000,0.000000,0.000000,0.000000,0.000000,0.000000,0.000000,,,,,,,,,,,,,,,,,,,,,,,,,,,,,,,,,,,,,,,,,,,,,,,,,,,,,,,,,,,,,,,,,,,,,,,,,,,,,,,,,,,,,,,,,,,,,,,,,,,,,,,,,,,,,,,,,,,,,,,,,,,,,,,,,
1738754853.832339,1738754853.832269,59.000000,0.000000,4323.589844,4352.307617,4254.230957,4301.794922,4349.487305,4360.128418,4363.717773,4552.179688,4540.897461,4561.025879,4494.230957,5662.820313,4307.051270,4252.820313,0.000000,4.000000,77.000000,,,,0.000000,0.000000,0.000000,0.000000,0.000000,0.000000,0.000000,0.000000,0.000000,0.000000,0.000000,0.000000,0.000000,0.000000,0.000000,0.000000,,,,,,,,,,,,,,,,,,,,,,,,,,,,,,,,,,,,,,,,,,,,,,,,,,,,,,,,,,,,,,,,,,,,,,,,,,,,,,,,,,,,,,,,,,,,,,,,,,,,,,,,,,,,,,,,,,,,,,,,,,,,,,,,,
1738754853.840147,1738754853.840178,60.000000,0.000000,4321.666504,4350.128418,4254.743652,4299.615234,4349.102539,4359.743652,4364.615234,4552.051270,4538.589844,4559.743652,4495.512695,5662.436035,4308.717773,4254.487305,0.000000,4.000000,77.000000,,,,0.000000,0.000000,0.000000,0.000000,0.000000,0.000000,0.000000,0.000000,0.000000,0.000000,0.000000,0.000000,0.000000,0.000000,0.000000,0.000000,,,,,,,,,,,,,,,,,15.000000,0.000000,0.785037,-0.615845,-0.061157,0.026672,0.062508,-0.970822,0.229520,4.265615,-15.312007,22.868696,,,,,,,,,,,,,,,,,,,,,,,,,,,,,,,,,,,,,,,,,,,,,,,,,,,,,,,,,,,,,,,,,,,,,,,,,,,,,,,,,,,,,,,,,,,,,,,,,,,,,
1738754853.847955,1738754853.847986,61.000000,0.000000,4322.051270,4348.461426,4254.230957,4301.282227,4350.897461,4359.743652,4368.717773,4552.051270,4538.717773,4556.410156,4497.563965,5662.563965,4312.436035,4255.897461,0.000000,4.000000,77.000000,,,,0.000000,0.000000,0.000000,0.000000,0.000000,0.000000,0.000000,0.000000,0.000000,0.000000,0.000000,0.000000,0.000000,0.000000,0.000000,0.000000,,,,,,,,,,,,,,,,,,,,,,,,,,,,,,,,,,,,,,,,,,,,,,,,,,,,,,,,,,,,,,,,,,,,,,,,,,,,,,,,,,,,,,,,,,,,,,,,,,,,,,,,,,,,,,,,,,,,,,,,,,,,,,,,,
1738754853.855763,1738754853.855894,62.000000,0.000000,4321.922852,4350.000000,4253.461426,4303.589844,4350.000000,4360.512695,4369.615234,4550.512695,4540.897461,4558.974121,4495.897461,5660.512695,4310.641113,4254.358887,0.000000,4.000000,77.000000,,,,0.000000,0.000000,0.000000,0.000000,0.000000,0.000000,0.000000,0.000000,0.000000,0.000000,0.000000,0.000000,0.000000,0.000000,0.000000,0.000000,,,,,,,,,,,,,,,,,,,,,,,,,,,,,,,,,,,,,,,,,,,,,,,,,,,,,,,,,,,,0.021353,0.030877,0.043868,0.009969,0.030453,0.018159,0.023766,0.011848,0.014916,0.016129,0.026476,0.031262,0.017523,0.023965,0.027753,0.004541,0.013248,0.025132,0.014134,0.029494,0.043767,0.023381,0.021652,0.032242,0.033852,0.010767,0.013748,0.018259,0.019247,0.021020,0.104524,0.018290,0.024388,0.026439,0.038747,0.045315,0.038933,0.023114,0.021774,0.021131,0.017221,0.023971,0.014086,0.016775,0.016926,0.006551,0.043638,0.018057,0.017677,0.027800,0.026877,0.024528,0.023898,0.008499,0.019205,0.050395,0.037848,0.010872,0.020187,0.021928,0.058370,0.037480,0.020602,0.021890,0.044637,0.028835,0.016999,0.018206,0.024830,0.027044
1738754853.863572,1738754853.863702,63.000000,0.000000,4320.897461,4350.128418,4253.461426,4302.051270,4349.358887,4361.153809,4365.000000,4549.615234,4540.769043,4562.179688,4495.128418,5661.410156,4307.436035,4253.077148,0.000000,4.000000,77.000000,,,,0.000000,0.000000,0.000000,0.000000,0.000000,0.000000,0.000000,0.000000,0.000000,0.000000,0.000000,0.000000,0.000000,0.000000,0.000000,0.000000,,,,,,,,,,,,,,,,,,,,,,,,,,,,,,,,,,,,,,,,,,,,,,,,,,,,,,,,,,,,,,,,,,,,,,,,,,,,,,,,,,,,,,,,,,,,,,,,,,,,,,,,,,,,,,,,,,,,,,,,,,,,,,,,,
1738754853.871380,1738754853.871610,64.000000,0.000000,4322.436035,4350.000000,4255.128418,4302.051270,4351.538574,4360.512695,4363.205078,4550.641113,4539.102539,4560.641113,4496.025879,5662.948730,4311.922852,4255.641113,0.000000,4.000000,77.000000,,,,0.000000,0.000000,0.000000,0.000000,0.000000,0.000000,0.000000,0.000000,0.000000,0.000000,0.000000,0.000000,0.000000,0.000000,0.000000,0.000000,,,,,,,,,,,,,,,,,16.000000,0.000000,0.785033,-0.615845,-0.061218,0.026672,0.061531,-0.970822,0.238310,4.289053,-15.397473,22.948492,,,,,,,,,,,,,,,,,,,,,,,,,,,,,,,,,,,,,,,,,,,,,,,,,,,,,,,,,,,,,,,,,,,,,,,,,,,,,,,,,,,,,,,,,,,,,,,,,,,,,
1738754853.879188,1738754853.879418,65.000000,0.000000,4323.077148,4350.384766,4257.948730,4303.589844,4352.436035,4360.512695,4366.666504,4550.512695,4537.563965,4558.846191,4496.025879,5662.692383,4312.307617,4258.717773,0.000000,4.000000,77.000000,,,,0.000000,0.000000,0.000000,0.000000,0.000000,0.000000,0.000000,0.000000,0.000000,0.000000,0.000000,0.000000,0.000000,0.000000,0.000000,0.000000,,,,,,,,,,,,,,,,,,,,,,,,,,,,,,,,,,,,,,,,,,,,,,,,,,,,,,,,,,,,,,,,,,,,,,,,,,,,,,,,,,,,,,,,,,,,,,,,,,,,,,,,,,,,,,,,,,,,,,,,,,,,,,,,,
1738754853.886996,1738754853.887327,66.000000,0.000000,4320.897461,4347.820313,4255.897461,4300.256348,4351.282227,4360.000000,4363.589844,4547.948730,4538.974121,4559.487305,4498.333496,5663.205078,4307.820313,4257.948730,0.000000,4.000000,77.000000,,,,0.000000,0.000000,0.000000,0.000000,0.000000,0.000000,0.000000,0.000000,0.000000,0.000000,0.000000,0.000000,0.000000,0.000000,0.000000,0.000000,,,,,,,,,,,,,,,,,,,,,,,,,,,,,,,,,,,,,,,,,,,,,,,,,,,,,,,,,,,,,,,,,,,,,,,,,,,,,,,,,,,,,,,,,,,,,,,,,,,,,,,,,,,,,,,,,,,,,,,,,,,,,,,,,
1738754853.894804,1738754853.895135,67.000000,0.000000,4321.538574,4346.922852,4253.333496,4300.000000,4352.820313,4359.487305,4359.487305,4548.717773,4540.128418,4559.358887,4498.461426,5663.333496,4310.256348,4257.692383,0.000000,4.000000,77.000000,,,,0.000000,0.000000,0.000000,0.000000,0.000000,0.000000,0.000000,0.000000,0.000000,0.000000,0.000000,0.000000,0.000000,0.000000,0.000000,0.000000,,,,,,,,,,,,,,,,,,,,,,,,,,,,,,,,,,,,,,,,,,,,,,,,,,,,,,,,,,,,,,,,,,,,,,,,,,,,,,,,,,,,,,,,,,,,,,,,,,,,,,,,,,,,,,,,,,,,,,,,,,,,,,,,,
1738754853.902612,1738754853.902843,68.000000,0.000000,4323.461426,4350.000000,4256.153809,4302.563965,4354.102539,4358.205078,4367.051270,4552.820313,4538.717773,4557.307617,4496.153809,5664.230957,4312.820313,4260.256348,0.000000,4.000000,77.000000,,,,0.000000,0.000000,0.000000,0.000000,0.000000,0.000000,0.000000,0.000000,0.000000,0.000000,0.000000,0.000000,0.000000,0.000000,0.000000,0.000000,,,,,,,,,,,,,,,,,17.000000,0.000000,0.785032,-0.615845,-0.061279,0.026550,0.066414,-0.972775,0.238799,4.360148,-15.391059,22.820311,,,,,,,,,,,,,,,,,,,,,,,,,,,,,,,,,,,,,,,,,,,,,,,,,,,,,,,,,,,,,,,,,,,,,,,,,,,,,,,,,,,,,,,,,,,,,,,,,,,,,
1738754853.910420,1738754853.910651,69.000000,0.000000,4323.205078,4350.769043,4258.077148,4301.794922,4352.307617,4357.563965,4370.128418,4551.410156,4538.974121,4555.769043,4498.846191,5664.743652,4312.179688,4260.384766,0.000000,4.000000,77.000000,,,,0.000000,0.000000,0.000000,0.000000,0.000000,0.000000,0.000000,0.000000,0.000000,0.000000,0.000000,0.000000,0.000000,0.000000,0.000000,0.000000,,,,,,,,,,,,,,,,,,,,,,,,,,,,,,,,,,,,,,,,,,,,,,,,,,,,,,,,,,,,,,,,,,,,,,,,,,,,,,,,,,,,,,,,,,,,,,,,,,,,,,,,,,,,,,,,,,,,,,,,,,,,,,,,,
1738754853.918228,1738754853.918359,70.000000,0.000000,4324.102539,4348.717773,4254.487305,4301.538574,4350.256348,4359.230957,4364.743652,4549.230957,4539.615234,4556.922852,4498.846191,5662.563965,4308.333496,4258.077148,0.000000,4.000000,77.000000,,,,0.000000,0.000000,0.000000,0.000000,0.000000,0.000000,0.000000,0.000000,0.000000,0.000000,0.000000,0.000000,0.000000,0.000000,0.000000,0.000000,,,,,,,,,,,,,,,,,,,,,,,,,,,,,,,,,,,,,,,,,,,,,,,,,,,,,,,,,,,,,,,,,,,,,,,,,,,,,,,,,,,,,,,,,,,,,,,,,,,,,,,,,,,,,,,,,,,,,,,,,,,,,,,,,
1738754853.926036,1738754853.926167,71.000000,0.000000,4324.230957,4347.820313,4254.102539,4301.666504,4350.256348,4360.128418,4364.230957,4551.922852,4538.077148,4559.102539,4493.589844,5662.051270,4306.282227,4256.538574,0.000000,4.000000,77.000000,,,,0.000000,0.000000,0.000000,0.000000,0.000000,0.000000,0.000000,0.000000,0.000000,0.000000,0.000000,0.000000,0.000000,0.000000,0.000000,0.000000,,,,,,,,,,,,,,,,,,,,,,,,,,,,,,,,,,,,,,,,,,,,,,,,,,,,,,,,,,,,,,,,,,,,,,,,,,,,,,,,,,,,,,,,,,,,,,,,,,,,,,,,,,,,,,,,,,,,,,,,,,,,,,,,,
1738754853.933844,1738754853.933875,72.000000,0.000000,4323.461426,4347.563965,4258.974121,4300.256348,4351.153809,4359.102539,4366.153809,4553.205078,4537.051270,4558.717773,4495.128418,5662.692383,4309.871582,4256.666504,0.000000,4.000000,77.000000,,,,0.000000,0.000000,0.000000,0.000000,0.000000,0.000000,0.000000,0.000000,0.000000,0.000000,0.000000,0.000000,0.000000,0.000000,0.000000,0.000000,,,,,,,,,,,,,,,,,18.000000,0.000000,0.785035,-0.615845,-0.061218,0.026611,0.062508,-0.974240,0.238310,4.424133,-15.385286,22.871613,,,,,,,,,,,,,,,,,,,,,,,,,,,,,,,,,,,,,,,,,,,,,,,,,,,,,,,,,,,,,,,,,,,,,,,,,,,,,,,,,,,,,,,,,,,,,,,,,,,,,
1738754853.941652,1738754853.941683,73.000000,0.000000,4322.948730,4348.589844,4257.436035,4301.410156,4348.589844,4360.641113,4365.256348,4550.256348,4537.820313,4557.179688,4498.717773,5662.563965,4312.436035,4256.025879,0.000000,4.000000,77.000000,,,,0.000000,0.000000,0.000000,0.000000,0.000000,0.000000,0.000000,0.000000,0.000000,0.000000,0.000000,0.000000,0.000000,0.000000,0.000000,0.000000,,,,,,,,,,,,,,,,,,,,,,,,,,,,,,,,,,,,,,,,,,,,,,,,,,,,,,,,,,,,,,,,,,,,,,,,,,,,,,,,,,,,,,,,,,,,,,,,,,,,,,,,,,,,,,,,,,,,,,,,,,,,,,,,,
1738754853.949460,1738754853.949391,74.000000,0.000000,4320.000000,4350.897461,4252.692383,4301.153809,4348.589844,4361.922852,4365.128418,4547.948730,4540.128418,4559.487305,4497.692383,5662.307617,4310.512695,4256.282227,0.000000,4.000000,77.000000,,,,0.000000,0.000000,0.000000,0.000000,0.000000,0.000000,0.000000,0.000000,0.000000,0.000000,0.000000,0.000000,0.000000,0.000000,0.000000,0.000000,,,,,,,,,,,,,,,,,,,,,,,,,,,,,,,,,,,,,,,,,,,,,,,,,,,,,,,,,,,,,,,,,,,,,,,,,,,,,,,,,,,,,,,,,,,,,,,,,,,,,,,,,,,,,,,,,,,,,,,,,,,,,,,,,
1738754853.957269,1738754853.957199,75.000000,0.000000,4319.743652,4350.256348,4255.769043,4302.436035,4353.589844,4360.000000,4366.410156,4548.717773,4539.615234,4561.922852,4497.563965,5662.436035,4309.358887,4255.384766,0.000000,4.000000,77.000000,,,,0.000000,0.000000,0.000000,0.000000,0.000000,0.000000,0.000000,0.000000,0.000000,0.000000,0.000000,0.000000,0.000000,0.000000,0.000000,0.000000,,,,,,,,,,,,,,,,,,,,,,,,,,,,,,,,,,,,,,,,,,,,,,,,,,,,,,,,,,,,,,,,,,,,,,,,,,,,,,,,,,,,,,,,,,,,,,,,,,,,,,,,,,,,,,,,,,,,,,,,,,,,,,,,,
1738754853.965077,1738754853.964907,76.000000,0.000000,4321.794922,4347.692383,4256.666504,4306.153809,4353.333496,4358.589844,4365.128418,4550.384766,4538.205078,4560.256348,4498.205078,5662.051270,4309.743652,4254.102539,0.000000,4.000000,77.000000,,,,0.000000,0.000000,0.000000,0.000000,0.000000,0.000000,0.000000,0.000000,0.000000,0.000000,0.000000,0.000000,0.000000,0.000000,0.000000,0.000000,,,,,,,,,,,,,,,,,19.000000,0.000000,0.785035,-0.615845,-0.061218,0.026611,0.066903,-0.982053,0.237334,4.498386,-15.313424,22.934452,,,,,,,,,,,,,,,,,,,,,,,,,,,,,,,,,,,,,,,,,,,,,,,,,,,,,,,,,,,,,,,,,,,,,,,,,,,,,,,,,,,,,,,,,,,,,,,,,,,,,
1738754853.972885,1738754853.972715,77.000000,0.000000,4322.307617,4347.436035,4253.077148,4302.820313,4351.153809,4359.615234,4361.922852,4551.282227,4540.641113,4558.461426,4496.922852,5660.256348,4309.871582,4256.025879,0.000000,4.000000,77.000000,,,,0.000000,0.000000,0.000000,0.000000,0.000000,0.000000,0.000000,0.000000,0.000000,0.000000,0.000000,0.000000,0.000000,0.000000,0.000000,0.000000,,,,,,,,,,,,,,,,,,,,,,,,,,,,,,,,,,,,,,,,,,,,,,,,,,,,,,,,,,,,,,,,,,,,,,,,,,,,,,,,,,,,,,,,,,,,,,,,,,,,,,,,,,,,,,,,,,,,,,,,,,,,,,,,,
1738754853.980693,1738754853.980423,78.000000,0.000000,4323.461426,4348.333496,4253.717773,4299.871582,4353.846191,4359.230957,4362.051270,4550.384766,4543.077148,4558.589844,4495.256348,5662.179688,4310.641113,4256.794922,0.000000,4.000000,77.000000,,,,0.000000,0.000000,0.000000,0.000000,0.000000,0.000000,0.000000,0.000000,0.000000,0.000000,0.000000,0.000000,0.000000,0.000000,0.000000,0.000000,,,,,,,,,,,,,,,,,,,,,,,,,,,,,,,,,,,,,,,,,,,,,,,,,,,,,,,,,,,,0.025024,0.033848,0.043010,0.009899,0.027755,0.019576,0.027238,0.011193,0.013754,0.016307,0.023529,0.030358,0.014733,0.025383,0.027205,0.004342,0.011391,0.026626,0.015692,0.028905,0.042539,0.024410,0.025655,0.033227,0.031084,0.012192,0.013403,0.017241,0.020042,0.019468,0.101055,0.018834,0.022687,0.029178,0.040937,0.046800,0.035925,0.023435,0.022003,0.020711,0.015597,0.019241,0.011040,0.013972,0.016379,0.006996,0.044827,0.023404,0.019678,0.028382,0.023853,0.025973,0.020510,0.009654,0.018044,0.051714,0.031628,0.009110,0.019572,0.023081,0.049608,0.034662,0.019520,0.017870,0.044398,0.025190,0.019028,0.016813,0.025618,0.026002
1738754853.988501,1738754853.988331,79.000000,0.000000,4324.487305,4348.589844,4254.743652,4304.230957,4351.794922,4358.974121,4364.615234,4548.205078,4542.307617,4560.128418,4494.871582,5664.487305,4313.589844,4257.307617,0.000000,4.000000,77.000000,,,,0.000000,0.000000,0.000000,0.000000,0.000000,0.000000,0.000000,0.000000,0.000000,0.000000,0.000000,0.000000,0.000000,0.000000,0.000000,0.000000,,,,,,,,,,,,,,,,,,,,,,,,,,,,,,,,,,,,,,,,,,,,,,,,,,,,,,,,,,,,,,,,,,,,,,,,,,,,,,,,,,,,,,,,,,,,,,,,,,,,,,,,,,,,,,,,,,,,,,,,,,,,,,,,,
1738754853.996309,1738754853.996139,80.000000,0.000000,4323.589844,4347.179688,4255.128418,4306.153809,4348.333496,4360.769043,4365.897461,4548.846191,4542.948730,4561.153809,4496.410156,5663.333496,4312.820313,4258.461426,0.000000,4.000000,77.000000,,,,0.000000,0.000000,0.000000,0.000000,0.000000,0.000000,0.000000,0.000000,0.000000,0.000000,0.000000,0.000000,0.000000,0.000000,0.000000,0.000000,,,,,,,,,,,,,,,,,20.000000,0.000000,0.785033,-0.615845,-0.061218,0.026672,0.066414,-0.969357,0.243194,4.581881,-15.365416,23.057673,,,,,,,,,,,,,,,,,,,,,,,,,,,,,,,,,,,,,,,,,,,,,,,,,,,,,,,,,,,,,,,,,,,,,,,,,,,,,,,,,,,,,,,,,,,,,,,,,,,,,
1738754854.004117,1738754854.004047,81.000000,0.000000,4322.179688,4347.563965,4256.153809,4304.487305,4350.769043,4361.282227,4366.153809,4551.282227,4540.641113,4561.538574,4497.692383,5662.436035,4311.153809,4258.333496,0.000000,4.000000,77.000000,,,,0.000000,0.000000,0.000000,0.000000,0.000000,0.000000,0.000000,0.000000,0.000000,0.000000,0.000000,0.000000,0.000000,0.000000,0.000000,0.000000,,,,,,,,,,,,,,,,,,,,,,,,,,,,,,,,,,,,,,,,,,,,,,,,,,,,,,,,,,,,,,,,,,,,,,,,,,,,,,,,,,,,,,,,,,,,,,,,,,,,,,,,,,,,,,,,,,,,,,,,,,,,,,,,,
1738754854.011925,1738754854.011856,82.000000,0.000000,4320.769043,4349.487305,4253.717773,4302.948730,4352.692383,4361.538574,4366.153809,4547.820313,4538.717773,4560.512695,4497.563965,5662.307617,4311.410156,4256.794922,0.000000,4.000000,77.000000,,,,0.000000,0.000000,0.000000,0.000000,0.000000,0.000000,0.000000,0.000000,0.000000,0.000000,0.000000,0.000000,0.000000,0.000000,0.000000,0.000000,,,,,,,,,,,,,,,,,,,,,,,,,,,,,,,,,,,,,,,,,,,,,,,,,,,,,,,,,,,,,,,,,,,,,,,,,,,,,,,,,,,,,,,,,,,,,,,,,,,,,,,,,,,,,,,,,,,,,,,,,,,,,,,,,
1738754854.019733,1738754854.019764,83.000000,0.000000,4320.256348,4349.230957,4251.538574,4302.179688,4352.179688,4362.563965,4363.717773,4546.410156,4539.871582,4559.615234,4497.307617,5663.974121,4307.563965,4256.666504,0.000000,4.000000,77.000000,,,,0.000000,0.000000,0.000000,0.000000,0.000000,0.000000,0.000000,0.000000,0.000000,0.000000,0.000000,0.000000,0.000000,0.000000,0.000000,0.000000,,,,,,,,,,,,,,,,,,,,,,,,,,,,,,,,,,,,,,,,,,,,,,,,,,,,,,,,,,,,,,,,,,,,,,,,,,,,,,,,,,,,,,,,,,,,,,,,,,,,,,,,,,,,,,,,,,,,,,,,,,,,,,,,,
1738754854.027542,1738754854.027572,84.000000,0.000000,4320.769043,4350.000000,4256.666504,4302.563965,4352.563965,4361.025879,4361.538574,4551.153809,4540.769043,4559.615234,4498.205078,5664.230957,4308.717773,4258.077148,0.000000,4.000000,77.000000,,,,0.000000,0.000000,0.000000,0.000000,0.000000,0.000000,0.000000,0.000000,0.000000,0.000000,0.000000,0.000000,0.000000,0.000000,0.000000,0.000000,,,,,,,,,,,,,,,,,,,,,,,,,,,,,,,,,,,,,,,,,,,,,,,,,,,,,,,,,,,,,,,,,,,,,,,,,,,,,,,,,,,,,,,,,,,,,,,,,,,,,,,,,,,,,,,,,,,,,,,,,,,,,,,,,
1738754854.035349,1738754854.035480,85.000000,0.000000,4321.794922,4352.948730,4259.230957,4302.179688,4351.410156,4359.102539,4362.436035,4552.436035,4539.615234,4558.461426,4498.589844,5662.436035,4312.563965,4256.538574,0.000000,4.000000,77.000000,,,,0.000000,0.000000,0.000000,0.000000,0.000000,0.000000,0.000000,0.000000,0.000000,0.000000,0.000000,0.000000,0.000000,0.000000,0.000000,0.000000,,,,,,,,,,,,,,,,,,,,,,,,,,,,,,,,,,,,,,,,,,,,,,,,,,,,,,,,,,,,,,,,,,,,,,,,,,,,,,,,,,,,,,,,,,,,,,,,,,,,,,,,,,,,,,,,,,,,,,,,,,,,,,,,,
1738754854.043158,1738754854.043288,86.000000,0.000000,4322.307617,4353.717773,4253.461426,4303.077148,4352.692383,4360.512695,4364.743652,4551.025879,4538.717773,4557.179688,4498.077148,5661.410156,4308.717773,4255.128418,0.000000,4.000000,77.000000,,,,0.000000,0.000000,0.000000,0.000000,0.000000,0.000000,0.000000,0.000000,0.000000,0.000000,0.000000,0.000000,0.000000,0.000000,0.000000,0.000000,,,,,,,,,,,,,,,,,,,,,,,,,,,,,,,,,,,,,,,,,,,,,,,,,,,,,,,,,,,,,,,,,,,,,,,,,,,,,,,,,,,,,,,,,,,,,,,,,,,,,,,,,,,,,,,,,,,,,,,,,,,,,,,,,
