title:bread1, start timestamp:1738755281.544523, stop timestamp:1738755282.567384, headset type:EPOCX, headset serial:E50208A5, headset firmware:720, channels:168, sampling rate:eeg_128;mot_32;pm_0.1;pow_8, samples:132       , version:2.2, 
Timestamp,OriginalTimestamp,EEG.Counter,EEG.Interpolated,EEG.AF3,EEG.F7,EEG.F3,EEG.FC5,EEG.T7,EEG.P7,EEG.O1,EEG.O2,EEG.P8,EEG.T8,EEG.FC6,EEG.F4,EEG.F8,EEG.AF4,EEG.RawCq,EEG.Battery,EEG.BatteryPercent,MarkerIndex,MarkerType,MarkerValueInt,EEG.MarkerHardware,CQ.AF3,CQ.F7,CQ.F3,CQ.FC5,CQ.T7,CQ.P7,CQ.O1,CQ.O2,CQ.P8,CQ.T8,CQ.FC6,CQ.F4,CQ.F8,CQ.AF4,CQ.Overall,EQ.SampleRateQuality,EQ.OVERALL,EQ.AF3,EQ.F7,EQ.F3,EQ.FC5,EQ.T7,EQ.P7,EQ.O1,EQ.O2,EQ.P8,EQ.T8,EQ.FC6,EQ.F4,EQ.F8,EQ.AF4,MOT.CounterMems,MOT.InterpolatedMems,MOT.Q0,MOT.Q1,MOT.Q2,MOT.Q3,MOT.AccX,MOT.AccY,MOT.AccZ,MOT.MagX,MOT.MagY,MOT.MagZ,PM.Attention.IsActive,PM.Attention.Scaled,PM.Attention.Raw,PM.Attention.Min,PM.Attention.Max,PM.Engagement.IsActive,PM.Engagement.Scaled,PM.Engagement.Raw,PM.Engagement.Min,PM.Engagement.Max,PM.Excitement.IsActive,PM.Excitement.Scaled,PM.Excitement.Raw,PM.Excitement.Min,PM.Excitement.Max,PM.LongTermExcitement,PM.Stress.IsActive,PM.Stress.Scaled,PM.Stress.Raw,PM.Stress.Min,PM.Stress.Max,PM.Relaxation.IsActive,PM.Relaxation.Scaled,PM.Relaxation.Raw,PM.Relaxation.Min,PM.Relaxation.Max,PM.Interest.IsActive,PM.Interest.Scaled,PM.Interest.Raw,PM.Interest.Min,PM.Interest.Max,POW.AF3.Theta,POW.AF3.Alpha,POW.AF3.BetaL,POW.AF3.BetaH,POW.AF3.Gamma,POW.F7.Theta,POW.F7.Alpha,POW.F7.BetaL,POW.F7.BetaH,POW.F7.Gamma,POW.F3.Theta,POW.F3.Alpha,POW.F3.BetaL,POW.F3.BetaH,POW.F3.Gamma,POW.FC5.Theta,POW.FC5.Alpha,POW.FC5.BetaL,POW.FC5.BetaH,POW.FC5.Gamma,POW.T7.Theta,POW.T7.Alpha,POW.T7.BetaL,POW.T7.BetaH,POW.T7.Gamma,POW.P7.Theta,POW.P7.Alpha,POW.P7.BetaL,POW.P7.BetaH,POW.P7.Gamma,POW.O1.Theta,POW.O1.Alpha,POW.O1.BetaL,POW.O1.BetaH,POW.O1.Gamma,POW.O2.Theta,POW.O2.Alpha,POW.O2.BetaL,POW.O2.BetaH,POW.O2.Gamma,POW.P8.Theta,POW.P8.Alpha,POW.P8.BetaL,POW.P8.BetaH,POW.P8.Gamma,POW.T8.Theta,POW.T8.Alpha,POW.T8.BetaL,POW.T8.BetaH,POW.T8.Gamma,POW.FC6.Theta,POW.FC6.Alpha,POW.FC6.BetaL,POW.FC6.BetaH,POW.FC6.Gamma,POW.F4.Theta,POW.F4.Alpha,POW.F4.BetaL,POW.F4.BetaH,POW.F4.Gamma,POW.F8.Theta,POW.F8.Alpha,POW.F8.BetaL,POW.F8.BetaH,POW.F8.Gamma,POW.AF4.Theta,POW.AF4.Alpha,POW.AF4.BetaL,POW.AF4.BetaH,POW.AF4.Gamma
1738755281.544523,1738755281.544931,53.000000,0.000000,4324.102539,4351.025879,4254.487305,4300.769043,4349.615234,4360.641113,4364.743652,4551.922852,4539.871582,4557.307617,4496.538574,5663.077148,4313.717773,4258.077148,0.000000,4.000000,75.000000,,,,0.000000,0.000000,0.000000,0.000000,0.000000,0.000000,0.000000,0.000000,0.000000,0.000000,0.000000,0.000000,0.000000,0.000000,0.000000,0.000000,,,,,,,,,,,,,,,,,,,,,,,,,,,,,,,,,,,,,,,,,,,,,,,,,,,,,,,,,,,,,,,,,,,,,,,,,,,,,,,,,,,,,,,,,,,,,,,,,,,,,,,,,,,,,,,,,,,,,,,,,,,,,,,,,
1738755281.552331,1738755281.552739,54.000000,0.000000,4323.077148,4352.436035,4255.769043,4301.922852,4351.922852,4360.512695,4365.128418,4550.000000,4538.589844,4556.666504,4494.871582,5664.615234,4307.179688,4258.461426,0.000000,4.000000,75.000000,,,,0.000000,0.000000,0.000000,0.000000,0.000000,0.000000,0.000000,0.000000,0.000000,0.000000,0.000000,0.000000,0.000000,0.000000,0.000000,0.000000,,,,,,,,,,,,,,,,,,,,,,,,,,,,,,,,,,,,,,,,,,,,,,,,,,,,,,,,,,,,,,,,,,,,,,,,,,,,,,,,,,,,,,,,,,,,,,,,,,,,,,,,,,,,,,,,,,,,,,,,,,,,,,,,,
1738755281.560139,1738755281.560547,55.000000,0.000000,4320.897461,4350.128418,4254.743652,4303.461426,4354.230957,4359.358887,4365.000000,4547.820313,4538.461426,4560.897461,4498.589844,5661.025879,4307.307617,4258.846191,0.000000,4.000000,75.000000,,,,0.000000,0.000000,0.000000,0.000000,0.000000,0.000000,0.000000,0.000000,0.000000,0.000000,0.000000,0.000000,0.000000,0.000000,0.000000,0.000000,,,,,,,,,,,,,,,,,,,,,,,,,,,,,,,,,,,,,,,,,,,,,,,,,,,,,,,,,,,,,,,,,,,,,,,,,,,,,,,,,,,,,,,,,,,,,,,,,,,,,,,,,,,,,,,,,,,,,,,,,,,,,,,,,
1738755281.567947,1738755281.568255,56.000000,0.000000,4323.589844,4348.974121,4255.897461,4303.974121,4353.974121,4361.025879,4367.948730,4551.538574,4537.820313,4562.307617,4496.922852,5662.179688,4306.922852,4255.256348,0.000000,4.000000,75.000000,,,,0.000000,0.000000,0.000000,0.000000,0.000000,0.000000,0.000000,0.000000,0.000000,0.000000,0.000000,0.000000,0.000000,0.000000,0.000000,0.000000,,,,,,,,,,,,,,,,,14.000000,0.000000,0.785772,-0.614990,-0.061096,0.024841,0.063484,-0.977170,0.233915,4.691546,-15.187875,22.560247,,,,,,,,,,,,,,,,,,,,,,,,,,,,,,,,,,,,,,,,,,,,,,,,,,,,,,,,,,,,,,,,,,,,,,,,,,,,,,,,,,,,,,,,,,,,,,,,,,,,,
1738755281.575755,1738755281.576063,57.000000,0.000000,4324.487305,4352.179688,4255.512695,4301.538574,4352.307617,4361.282227,4367.692383,4551.410156,4537.179688,4558.974121,4495.769043,5665.512695,4308.974121,4255.897461,0.000000,4.000000,75.000000,,,,0.000000,0.000000,0.000000,0.000000,0.000000,0.000000,0.000000,0.000000,0.000000,0.000000,0.000000,0.000000,0.000000,0.000000,0.000000,0.000000,,,,,,,,,,,,,,,,,,,,,,,,,,,,,,,,,,,,,,,,,,,,,,,,,,,,,,,,,,,,,,,,,,,,,,,,,,,,,,,,,,,,,,,,,,,,,,,,,,,,,,,,,,,,,,,,,,,,,,,,,,,,,,,,,
1738755281.583563,1738755281.583771,58.000000,0.000000,4322.307617,4351.538574,4253.077148,4301.538574,4351.666504,4360.641113,4364.743652,4549.230957,4537.307617,4558.333496,4497.563965,5665.128418,4311.538574,4260.128418,0.000000,4.000000,75.000000,,,,0.000000,0.000000,0.000000,0.000000,0.000000,0.000000,0.000000,0.000000,0.000000,0.000000,0.000000,0.000000,0.000000,0.000000,0.000000,0.000000,,,,,,,,,,,,,,,,,,,,,,,,,,,,,,,,,,,,,,,,,,,,,,,,,,,,,,,,,,,,,,,,,,,,,,,,,,,,,,,,,,,,,,,,,,,,,,,,,,,,,,,,,,,,,,,,,,,,,,,,,,,,,,,,,
1738755281.591372,1738755281.591579,59.000000,0.000000,4322.563965,4348.205078,4251.538574,4306.025879,4352.563965,4361.025879,4365.897461,4549.487305,4539.871582,4560.512695,4495.384766,5665.641113,4310.128418,4259.743652,0.000000,4.000000,75.000000,,,,0.000000,0.000000,0.000000,0.000000,0.000000,0.000000,0.000000,0.000000,0.000000,0.000000,0.000000,0.000000,0.000000,0.000000,0.000000,0.000000,,,,,,,,,,,,,,,,,,,,,,,,,,,,,,,,,,,,,,,,,,,,,,,,,,,,,,,,,,,,,,,,,,,,,,,,,,,,,,,,,,,,,,,,,,,,,,,,,,,,,,,,,,,,,,,,,,,,,,,,,,,,,,,,,
1738755281.599180,1738755281.599287,60.000000,0.000000,4323.589844,4350.512695,4252.436035,4303.333496,4353.589844,4359.102539,4365.000000,4548.333496,4542.948730,4561.153809,4495.769043,5664.615234,4316.794922,4259.871582,0.000000,4.000000,75.000000,,,,0.000000,0.000000,0.000000,0.000000,0.000000,0.000000,0.000000,0.000000,0.000000,0.000000,0.000000,0.000000,0.000000,0.000000,0.000000,0.000000,,,,,,,,,,,,,,,,,15.000000,0.000000,0.785770,-0.614990,-0.061096,0.024902,0.054206,-0.974240,0.240752,4.805725,-15.202420,22.504223,,,,,,,,,,,,,,,,,,,,,,,,,,,,,,,,,,,,,,,,,,,,,,,,,,,,,,,,,,,,,,,,,,,,,,,,,,,,,,,,,,,,,,,,,,,,,,,,,,,,,
1738755281.606988,1738755281.607095,61.000000,0.000000,4323.077148,4351.666504,4253.846191,4300.256348,4353.077148,4356.922852,4365.641113,4550.897461,4540.256348,4561.153809,4497.692383,5667.179688,4312.563965,4257.948730,0.000000,4.000000,75.000000,,,,0.000000,0.000000,0.000000,0.000000,0.000000,0.000000,0.000000,0.000000,0.000000,0.000000,0.000000,0.000000,0.000000,0.000000,0.000000,0.000000,,,,,,,,,,,,,,,,,,,,,,,,,,,,,,,,,,,,,,,,,,,,,,,,,,,,,,,,,,,,,,,,,,,,,,,,,,,,,,,,,,,,,,,,,,,,,,,,,,,,,,,,,,,,,,,,,,,,,,,,,,,,,,,,,
1738755281.614796,1738755281.614803,62.000000,0.000000,4320.512695,4348.974121,4251.794922,4303.461426,4352.820313,4358.077148,4366.025879,4552.436035,4539.102539,4560.000000,4498.717773,5667.307617,4304.102539,4256.538574,0.000000,4.000000,75.000000,,,,0.000000,0.000000,0.000000,0.000000,0.000000,0.000000,0.000000,0.000000,0.000000,0.000000,0.000000,0.000000,0.000000,0.000000,0.000000,0.000000,,,,,,,,,,,,,,,,,,,,,,,,,,,,,,,,,,,,,,,,,,,,,,,,,,,,,,,,,,,,0.032139,0.010058,0.015280,0.020948,0.023131,0.022275,0.010328,0.040908,0.022822,0.023409,0.044107,0.042862,0.017262,0.028318,0.022747,0.016195,0.039488,0.046520,0.023351,0.027331,0.039200,0.083108,0.039978,0.027673,0.030779,0.020005,0.019060,0.007810,0.007389,0.013515,0.049222,0.038642,0.015158,0.044338,0.032797,0.023685,0.009335,0.023448,0.034287,0.024404,0.025978,0.032549,0.021387,0.024256,0.020276,0.037369,0.012522,0.014678,0.020478,0.018691,0.029253,0.029846,0.026415,0.016610,0.028164,0.058680,0.019251,0.018209,0.016512,0.022558,0.028901,0.035369,0.035033,0.032599,0.026611,0.057772,0.020118,0.022093,0.033303,0.024151
1738755281.622604,1738755281.622711,63.000000,0.000000,4320.512695,4350.512695,4252.179688,4306.666504,4353.846191,4360.512695,4364.615234,4548.717773,4540.641113,4558.333496,4498.461426,5662.436035,4309.871582,4259.230957,0.000000,4.000000,75.000000,,,,0.000000,0.000000,0.000000,0.000000,0.000000,0.000000,0.000000,0.000000,0.000000,0.000000,0.000000,0.000000,0.000000,0.000000,0.000000,0.000000,,,,,,,,,,,,,,,,,,,,,,,,,,,,,,,,,,,,,,,,,,,,,,,,,,,,,,,,,,,,,,,,,,,,,,,,,,,,,,,,,,,,,,,,,,,,,,,,,,,,,,,,,,,,,,,,,,,,,,,,,,,,,,,,,
1738755281.630412,1738755281.630520,64.000000,0.000000,4322.436035,4352.307617,4255.641113,4305.641113,4352.820313,4360.641113,4364.871582,4550.384766,4538.333496,4559.615234,4496.025879,5663.205078,4313.589844,4259.230957,0.000000,4.000000,75.000000,,,,0.000000,0.000000,0.000000,0.000000,0.000000,0.000000,0.000000,0.000000,0.000000,0.000000,0.000000,0.000000,0.000000,0.000000,0.000000,0.000000,,,,,,,,,,,,,,,,,16.000000,0.000000,0.785831,-0.614929,-0.060974,0.024780,0.057136,-0.970333,0.232450,4.725152,-15.198845,22.437134,,,,,,,,,,,,,,,,,,,,,,,,,,,,,,,,,,,,,,,,,,,,,,,,,,,,,,,,,,,,,,,,,,,,,,,,,,,,,,,,,,,,,,,,,,,,,,,,,,,,,
1738755281.638220,1738755281.638428,65.000000,0.000000,4319.358887,4350.384766,4254.102539,4300.769043,4351.666504,4360.000000,4364.743652,4552.436035,4537.563965,4561.538574,4496.282227,5661.410156,4315.641113,4260.128418,0.000000,4.000000,75.000000,,,,0.000000,0.000000,0.000000,0.000000,0.000000,0.000000,0.000000,0.000000,0.000000,0.000000,0.000000,0.000000,0.000000,0.000000,0.000000,0.000000,,,,,,,,,,,,,,,,,,,,,,,,,,,,,,,,,,,,,,,,,,,,,,,,,,,,,,,,,,,,,,,,,,,,,,,,,,,,,,,,,,,,,,,,,,,,,,,,,,,,,,,,,,,,,,,,,,,,,,,,,,,,,,,,,
1738755281.646028,1738755281.646236,66.000000,0.000000,4318.205078,4348.461426,4251.538574,4301.922852,4355.000000,4357.948730,4366.025879,4550.256348,4538.205078,4560.000000,4497.948730,5660.769043,4311.153809,4256.153809,0.000000,4.000000,75.000000,,,,0.000000,0.000000,0.000000,0.000000,0.000000,0.000000,0.000000,0.000000,0.000000,0.000000,0.000000,0.000000,0.000000,0.000000,0.000000,0.000000,,,,,,,,,,,,,,,,,,,,,,,,,,,,,,,,,,,,,,,,,,,,,,,,,,,,,,,,,,,,,,,,,,,,,,,,,,,,,,,,,,,,,,,,,,,,,,,,,,,,,,,,,,,,,,,,,,,,,,,,,,,,,,,,,
1738755281.653836,1738755281.654144,67.000000,0.000000,4321.666504,4351.538574,4252.563965,4305.512695,4356.410156,4358.717773,4366.794922,4549.871582,4537.948730,4559.102539,4498.461426,5665.769043,4308.461426,4253.846191,0.000000,4.000000,75.000000,,,,0.000000,0.000000,0.000000,0.000000,0.000000,0.000000,0.000000,0.000000,0.000000,0.000000,0.000000,0.000000,0.000000,0.000000,0.000000,0.000000,,,,,,,,,,,,,,,,,,,,,,,,,,,,,,,,,,,,,,,,,,,,,,,,,,,,,,,,,,,,,,,,,,,,,,,,,,,,,,,,,,,,,,,,,,,,,,,,,,,,,,,,,,,,,,,,,,,,,,,,,,,,,,,,,
1738755281.661644,1738755281.661952,68.000000,0.000000,4323.333496,4353.333496,4255.000000,4302.436035,4352.563965,4362.563965,4366.025879,4549.102539,4539.871582,4559.615234,4500.128418,5666.538574,4316.666504,4259.230957,0.000000,4.000000,75.000000,,,,0.000000,0.000000,0.000000,0.000000,0.000000,0.000000,0.000000,0.000000,0.000000,0.000000,0.000000,0.000000,0.000000,0.000000,0.000000,0.000000,,,,,,,,,,,,,,,,,17.000000,0.000000,0.785836,-0.614929,-0.060913,0.024780,0.055183,-0.966427,0.245635,4.652637,-15.278960,22.376753,,,,,,,,,,,,,,,,,,,,,,,,,,,,,,,,,,,,,,,,,,,,,,,,,,,,,,,,,,,,,,,,,,,,,,,,,,,,,,,,,,,,,,,,,,,,,,,,,,,,,
1738755281.669453,1738755281.669860,69.000000,0.000000,4323.461426,4349.871582,4256.538574,4300.769043,4350.769043,4362.563965,4368.205078,4549.487305,4540.897461,4558.333496,4499.743652,5663.974121,4310.384766,4257.563965,0.000000,4.000000,75.000000,,,,0.000000,0.000000,0.000000,0.000000,0.000000,0.000000,0.000000,0.000000,0.000000,0.000000,0.000000,0.000000,0.000000,0.000000,0.000000,0.000000,,,,,,,,,,,,,,,,,,,,,,,,,,,,,,,,,,,,,,,,,,,,,,,,,,,,,,,,,,,,,,,,,,,,,,,,,,,,,,,,,,,,,,,,,,,,,,,,,,,,,,,,,,,,,,,,,,,,,,,,,,,,,,,,,
1738755281.677261,1738755281.677669,70.000000,0.000000,4322.563965,4350.769043,4255.128418,4301.410156,4351.922852,4361.922852,4369.358887,4550.256348,4537.179688,4557.820313,4496.282227,5662.051270,4305.512695,4259.102539,0.000000,4.000000,75.000000,,,,0.000000,0.000000,0.000000,0.000000,0.000000,0.000000,0.000000,0.000000,0.000000,0.000000,0.000000,0.000000,0.000000,0.000000,0.000000,0.000000,,,,,,,,,,,,,,,,,,,,,,,,,,,,,,,,,,,,,,,,,,,,,,,,,,,,,,,,,,,,,,,,,,,,,,,,,,,,,,,,,,,,,,,,,,,,,,,,,,,,,,,,,,,,,,,,,,,,,,,,,,,,,,,,,
1738755281.685069,1738755281.685577,71.000000,0.000000,4321.025879,4353.205078,4253.846191,4301.153809,4353.333496,4361.922852,4367.692383,4552.820313,4537.436035,4558.717773,4494.871582,5665.000000,4311.282227,4261.538574,0.000000,4.000000,75.000000,,,,0.000000,0.000000,0.000000,0.000000,0.000000,0.000000,0.000000,0.000000,0.000000,0.000000,0.000000,0.000000,0.000000,0.000000,0.000000,0.000000,,,,,,,,,,,,,,,,,,,,,,,,,,,,,,,,,,,,,,,,,,,,,,,,,,,,,,,,,,,,,,,,,,,,,,,,,,,,,,,,,,,,,,,,,,,,,,,,,,,,,,,,,,,,,,,,,,,,,,,,,,,,,,,,,
1738755281.692877,1738755281.693385,72.000000,0.000000,4320.512695,4351.282227,4254.487305,4301.153809,4353.846191,4360.128418,4366.025879,4554.230957,4540.128418,4561.153809,4496.538574,5665.897461,4310.512695,4256.666504,0.000000,4.000000,75.000000,,,,0.000000,0.000000,0.000000,0.000000,0.000000,0.000000,0.000000,0.000000,0.000000,0.000000,0.000000,0.000000,0.000000,0.000000,0.000000,0.000000,,,,,,,,,,,,,,,,,18.000000,0.000000,0.785845,-0.614929,-0.060791,0.024780,0.067391,-0.980588,0.235380,4.687374,-15.334397,22.422411,,,,,,,,,,,,,,,,,,,,,,,,,,,,,,,,,,,,,,,,,,,,,,,,,,,,,,,,,,,,,,,,,,,,,,,,,,,,,,,,,,,,,,,,,,,,,,,,,,,,,
1738755281.700685,1738755281.701293,73.000000,0.000000,4322.179688,4349.871582,4252.820313,4300.897461,4353.717773,4359.487305,4363.461426,4549.358887,4540.128418,4562.820313,4499.743652,5662.436035,4308.846191,4255.641113,0.000000,4.000000,75.000000,,,,0.000000,0.000000,0.000000,0.000000,0.000000,0.000000,0.000000,0.000000,0.000000,0.000000,0.000000,0.000000,0.000000,0.000000,0.000000,0.000000,,,,,,,,,,,,,,,,,,,,,,,,,,,,,,,,,,,,,,,,,,,,,,,,,,,,,,,,,,,,,,,,,,,,,,,,,,,,,,,,,,,,,,,,,,,,,,,,,,,,,,,,,,,,,,,,,,,,,,,,,,,,,,,,,
1738755281.708493,1738755281.709101,74.000000,0.000000,4322.179688,4350.128418,4253.077148,4302.307617,4354.230957,4361.794922,4364.358887,4548.974121,4538.974121,4560.000000,4499.102539,5665.897461,4306.025879,4256.153809,0.000000,4.000000,75.000000,,,,0.000000,0.000000,0.000000,0.000000,0.000000,0.000000,0.000000,0.000000,0.000000,0.000000,0.000000,0.000000,0.000000,0.000000,0.000000,0.000000,,,,,,,,,,,,,,,,,,,,,,,,,,,,,,,,,,,,,,,,,,,,,,,,,,,,,,,,,,,,,,,,,,,,,,,,,,,,,,,,,,,,,,,,,,,,,,,,,,,,,,,,,,,,,,,,,,,,,,,,,,,,,,,,,
1738755281.716301,1738755281.717009,75.000000,0.000000,4319.487305,4351.410156,4256.282227,4301.153809,4353.461426,4361.282227,4368.974121,4549.615234,4539.871582,4557.820313,4496.025879,5665.384766,4309.871582,4258.205078,0.000000,4.000000,75.000000,,,,0.000000,0.000000,0.000000,0.000000,0.000000,0.000000,0.000000,0.000000,0.000000,0.000000,0.000000,0.000000,0.000000,0.000000,0.000000,0.000000,,,,,,,,,,,,,,,,,,,,,,,,,,,,,,,,,,,,,,,,,,,,,,,,,,,,,,,,,,,,,,,,,,,,,,,,,,,,,,,,,,,,,,,,,,,,,,,,,,,,,,,,,,,,,,,,,,,,,,,,,,,,,,,,,
1738755281.724109,1738755281.724818,76.000000,0.000000,4320.384766,4350.769043,4256.025879,4300.769043,4351.153809,4358.717773,4369.871582,4548.589844,4542.051270,4558.461426,4497.051270,5662.307617,4312.692383,4259.743652,0.000000,4.000000,75.000000,,,,0.000000,0.000000,0.000000,0.000000,0.000000,0.000000,0.000000,0.000000,0.000000,0.000000,0.000000,0.000000,0.000000,0.000000,0.000000,0.000000,,,,,,,,,,,,,,,,,19.000000,0.000000,0.785891,-0.614868,-0.060791,0.024841,0.058601,-0.969845,0.234404,4.635303,-15.334291,22.546837,,,,,,,,,,,,,,,,,,,,,,,,,,,,,,,,,,,,,,,,,,,,,,,,,,,,,,,,,,,,,,,,,,,,,,,,,,,,,,,,,,,,,,,,,,,,,,,,,,,,,
1738755281.731917,1738755281.732726,77.000000,0.000000,4320.769043,4349.743652,4254.230957,4301.153809,4353.333496,4358.846191,4366.794922,4550.128418,4538.333496,4558.205078,4499.743652,5666.153809,4307.563965,4258.205078,0.000000,4.000000,75.000000,,,,0.000000,0.000000,0.000000,0.000000,0.000000,0.000000,0.000000,0.000000,0.000000,0.000000,0.000000,0.000000,0.000000,0.000000,0.000000,0.000000,,,,,,,,,,,,,,,,,,,,,,,,,,,,,,,,,,,,,,,,,,,,,,,,,,,,,,,,,,,,,,,,,,,,,,,,,,,,,,,,,,,,,,,,,,,,,,,,,,,,,,,,,,,,,,,,,,,,,,,,,,,,,,,,,
1738755281.739725,1738755281.740534,78.000000,0.000000,4317.820313,4350.769043,4253.333496,4298.077148,4355.000000,4358.974121,4364.871582,4549.358887,4537.051270,4558.461426,4500.000000,5665.128418,4311.794922,4260.641113,0.000000,4.000000,75.000000,,,,0.000000,0.000000,0.000000,0.000000,0.000000,0.000000,0.000000,0.000000,0.000000,0.000000,0.000000,0.000000,0.000000,0.000000,0.000000,0.000000,,,,,,,,,,,,,,,,,,,,,,,,,,,,,,,,,,,,,,,,,,,,,,,,,,,,,,,,,,,,0.027515,0.011808,0.013387,0.019113,0.021778,0.021142,0.012666,0.044287,0.022596,0.024576,0.042364,0.048291,0.018917,0.028786,0.022013,0.014425,0.037469,0.047405,0.027007,0.028272,0.040148,0.083702,0.045258,0.025291,0.030136,0.024310,0.016590,0.008287,0.006978,0.013954,0.038363,0.032864,0.016569,0.044878,0.033984,0.021249,0.010451,0.020233,0.038888,0.023553,0.023932,0.028598,0.021036,0.022153,0.019872,0.035242,0.014511,0.017657,0.019405,0.022565,0.024699,0.028458,0.022504,0.017551,0.029172,0.053554,0.018985,0.015779,0.016230,0.023566,0.028781,0.043379,0.038974,0.032112,0.028286,0.063413,0.019414,0.023508,0.032622,0.021204
1738755281.747533,1738755281.748442,79.000000,0.000000,4318.077148,4348.589844,4253.589844,4300.641113,4351.666504,4359.871582,4367.948730,4549.615234,4539.871582,4560.384766,4498.461426,5663.461426,4312.692383,4259.743652,0.000000,4.000000,75.000000,,,,0.000000,0.000000,0.000000,0.000000,0.000000,0.000000,0.000000,0.000000,0.000000,0.000000,0.000000,0.000000,0.000000,0.000000,0.000000,0.000000,,,,,,,,,,,,,,,,,,,,,,,,,,,,,,,,,,,,,,,,,,,,,,,,,,,,,,,,,,,,,,,,,,,,,,,,,,,,,,,,,,,,,,,,,,,,,,,,,,,,,,,,,,,,,,,,,,,,,,,,,,,,,,,,,
1738755281.755342,1738755281.756250,80.000000,0.000000,4319.102539,4348.205078,4253.077148,4305.384766,4349.615234,4361.922852,4367.307617,4550.256348,4539.358887,4560.384766,4497.692383,5663.461426,4310.256348,4255.384766,0.000000,4.000000,75.000000,,,,0.000000,0.000000,0.000000,0.000000,0.000000,0.000000,0.000000,0.000000,0.000000,0.000000,0.000000,0.000000,0.000000,0.000000,0.000000,0.000000,,,,,,,,,,,,,,,,,20.000000,0.000000,0.785939,-0.614807,-0.060791,0.024841,0.066414,-0.971310,0.230497,4.671772,-15.284196,22.792152,,,,,,,,,,,,,,,,,,,,,,,,,,,,,,,,,,,,,,,,,,,,,,,,,,,,,,,,,,,,,,,,,,,,,,,,,,,,,,,,,,,,,,,,,,,,,,,,,,,,,
1738755281.763150,1738755281.763959,81.000000,0.000000,4320.641113,4353.077148,4253.974121,4303.846191,4350.384766,4361.025879,4364.615234,4550.769043,4539.102539,4559.487305,4497.948730,5663.333496,4312.179688,4256.153809,0.000000,4.000000,75.000000,,,,0.000000,0.000000,0.000000,0.000000,0.000000,0.000000,0.000000,0.000000,0.000000,0.000000,0.000000,0.000000,0.000000,0.000000,0.000000,0.000000,,,,,,,,,,,,,,,,,,,,,,,,,,,,,,,,,,,,,,,,,,,,,,,,,,,,,,,,,,,,,,,,,,,,,,,,,,,,,,,,,,,,,,,,,,,,,,,,,,,,,,,,,,,,,,,,,,,,,,,,,,,,,,,,,
1738755281.770958,1738755281.771867,82.000000,0.000000,4323.717773,4352.051270,4255.384766,4302.436035,4350.512695,4358.717773,4365.384766,4552.436035,4540.512695,4560.512695,4498.077148,5665.897461,4310.897461,4258.205078,0.000000,4.000000,75.000000,,,,0.000000,0.000000,0.000000,0.000000,0.000000,0.000000,0.000000,0.000000,0.000000,0.000000,0.000000,0.000000,0.000000,0.000000,0.000000,0.000000,,,,,,,,,,,,,,,,,,,,,,,,,,,,,,,,,,,,,,,,,,,,,,,,,,,,,,,,,,,,,,,,,,,,,,,,,,,,,,,,,,,,,,,,,,,,,,,,,,,,,,,,,,,,,,,,,,,,,,,,,,,,,,,,,
1738755281.778766,1738755281.779675,83.000000,0.000000,4321.666504,4347.436035,4253.461426,4301.538574,4350.000000,4360.128418,4362.563965,4552.307617,4541.538574,4562.563965,4500.512695,5663.589844,4312.692383,4258.846191,0.000000,4.000000,75.000000,,,,0.000000,0.000000,0.000000,0.000000,0.000000,0.000000,0.000000,0.000000,0.000000,0.000000,0.000000,0.000000,0.000000,0.000000,0.000000,0.000000,,,,,,,,,,,,,,,,,,,,,,,,,,,,,,,,,,,,,,,,,,,,,,,,,,,,,,,,,,,,,,,,,,,,,,,,,,,,,,,,,,,,,,,,,,,,,,,,,,,,,,,,,,,,,,,,,,,,,,,,,,,,,,,,,
1738755281.786574,1738755281.787583,84.000000,0.000000,4321.410156,4347.179688,4251.282227,4302.436035,4351.666504,4362.948730,4365.641113,4553.077148,4538.717773,4560.256348,4498.717773,5663.846191,4310.769043,4258.717773,0.000000,4.000000,75.000000,,,,0.000000,0.000000,0.000000,0.000000,0.000000,0.000000,0.000000,0.000000,0.000000,0.000000,0.000000,0.000000,0.000000,0.000000,0.000000,0.000000,,,,,,,,,,,,,,,,,21.000000,0.000000,0.785934,-0.614807,-0.060852,0.024841,0.055183,-0.976193,0.223172,4.787929,-15.289109,22.796270,,,,,,,,,,,,,,,,,,,,,,,,,,,,,,,,,,,,,,,,,,,,,,,,,,,,,,,,,,,,,,,,,,,,,,,,,,,,,,,,,,,,,,,,,,,,,,,,,,,,,
1738755281.794382,1738755281.795391,85.000000,0.000000,4323.846191,4350.128418,4251.666504,4303.205078,4353.461426,4361.153809,4368.717773,4552.563965,4539.358887,4558.461426,4495.769043,5666.282227,4310.384766,4259.871582,0.000000,4.000000,75.000000,,,,0.000000,0.000000,0.000000,0.000000,0.000000,0.000000,0.000000,0.000000,0.000000,0.000000,0.000000,0.000000,0.000000,0.000000,0.000000,0.000000,,,,,,,,,,,,,,,,,,,,,,,,,,,,,,,,,,,,,,,,,,,,,,,,,,,,,,,,,,,,,,,,,,,,,,,,,,,,,,,,,,,,,,,,,,,,,,,,,,,,,,,,,,,,,,,,,,,,,,,,,,,,,,,,,
1738755281.802190,1738755281.803199,86.000000,0.000000,4321.410156,4349.743652,4254.487305,4300.641113,4350.384766,4359.102539,4362.820313,4548.846191,4540.128418,4562.051270,4499.358887,5664.358887,4313.461426,4260.512695,0.000000,4.000000,75.000000,,,,0.000000,0.000000,0.000000,0.000000,0.000000,0.000000,0.000000,0.000000,0.000000,0.000000,0.000000,0.000000,0.000000,0.000000,0.000000,0.000000,,,,,,,,,,,,,,,,,,,,,,,,,,,,,,,,,,,,,,,,,,,,,,,,,,,,,,,,,,,,,,,,,,,,,,,,,,,,,,,,,,,,,,,,,,,,,,,,,,,,,,,,,,,,,,,,,,,,,,,,,,,,,,,,,
1738755281.809998,1738755281.810907,87.000000,0.000000,4321.922852,4347.948730,4256.025879,4300.897461,4349.358887,4361.410156,4361.666504,4548.717773,4537.307617,4561.025879,4501.538574,5665.128418,4308.333496,4256.666504,0.000000,4.000000,75.000000,,,,0.000000,0.000000,0.000000,0.000000,0.000000,0.000000,0.000000,0.000000,0.000000,0.000000,0.000000,0.000000,0.000000,0.000000,0.000000,0.000000,,,,,,,,,,,,,,,,,,,,,,,,,,,,,,,,,,,,,,,,,,,,,,,,,,,,,,,,,,,,,,,,,,,,,,,,,,,,,,,,,,,,,,,,,,,,,,,,,,,,,,,,,,,,,,,,,,,,,,,,,,,,,,,,,
1738755281.817806,1738755281.818715,88.000000,0.000000,4323.717773,4350.256348,4254.487305,4299.487305,4351.794922,4362.179688,4363.333496,4551.025879,4540.000000,4555.384766,4499.358887,5664.358887,4310.000000,4257.563965,0.000000,4.000000,75.000000,,,,0.000000,0.000000,0.000000,0.000000,0.000000,0.000000,0.000000,0.000000,0.000000,0.000000,0.000000,0.000000,0.000000,0.000000,0.000000,0.000000,,,,,,,,,,,,,,,,,22.000000,0.000000,0.785889,-0.614868,-0.060791,0.024902,0.064949,-0.965450,0.242705,4.759136,-14.976865,22.716644,,,,,,,,,,,,,,,,,,,,,,,,,,,,,,,,,,,,,,,,,,,,,,,,,,,,,,,,,,,,,,,,,,,,,,,,,,,,,,,,,,,,,,,,,,,,,,,,,,,,,
1738755281.825615,1738755281.826423,89.000000,0.000000,4319.743652,4350.384766,4252.051270,4298.717773,4350.897461,4360.384766,4363.974121,4551.794922,4540.384766,4553.077148,4497.179688,5663.205078,4313.333496,4260.384766,0.000000,4.000000,75.000000,,,,0.000000,0.000000,0.000000,0.000000,0.000000,0.000000,0.000000,0.000000,0.000000,0.000000,0.000000,0.000000,0.000000,0.000000,0.000000,0.000000,,,,,,,,,,,,,,,,,,,,,,,,,,,,,,,,,,,,,,,,,,,,,,,,,,,,,,,,,,,,,,,,,,,,,,,,,,,,,,,,,,,,,,,,,,,,,,,,,,,,,,,,,,,,,,,,,,,,,,,,,,,,,,,,,
1738755281.833423,1738755281.834231,90.000000,0.000000,4318.461426,4349.615234,4250.769043,4303.974121,4348.846191,4358.461426,4364.615234,4552.179688,4538.205078,4558.077148,4498.461426,5667.179688,4311.153809,4257.692383,0.000000,4.000000,75.000000,,,,0.000000,0.000000,0.000000,0.000000,0.000000,0.000000,0.000000,0.000000,0.000000,0.000000,0.000000,0.000000,0.000000,0.000000,0.000000,0.000000,,,,,,,,,,,,,,,,,,,,,,,,,,,,,,,,,,,,,,,,,,,,,,,,,,,,,,,,,,,,,,,,,,,,,,,,,,,,,,,,,,,,,,,,,,,,,,,,,,,,,,,,,,,,,,,,,,,,,,,,,,,,,,,,,
1738755281.841231,1738755281.841939,91.000000,0.000000,4323.846191,4351.794922,4252.051270,4304.743652,4351.922852,4358.077148,4365.256348,4552.820313,4541.025879,4562.179688,4498.589844,5667.820313,4311.922852,4254.615234,0.000000,4.000000,75.000000,,,,0.000000,0.000000,0.000000,0.000000,0.000000,0.000000,0.000000,0.000000,0.000000,0.000000,0.000000,0.000000,0.000000,0.000000,0.000000,0.000000,,,,,,,,,,,,,,,,,,,,,,,,,,,,,,,,,,,,,,,,,,,,,,,,,,,,,,,,,,,,,,,,,,,,,,,,,,,,,,,,,,,,,,,,,,,,,,,,,,,,,,,,,,,,,,,,,,,,,,,,,,,,,,,,,
1738755281.849039,1738755281.849747,92.000000,0.000000,4326.153809,4350.897461,4254.615234,4301.794922,4354.743652,4360.641113,4368.077148,4553.205078,4539.615234,4558.846191,4496.153809,5665.641113,4310.512695,4255.000000,0.000000,4.000000,75.000000,,,,0.000000,0.000000,0.000000,0.000000,0.000000,0.000000,0.000000,0.000000,0.000000,0.000000,0.000000,0.000000,0.000000,0.000000,0.000000,0.000000,,,,,,,,,,,,,,,,,23.000000,0.000000,0.785975,-0.614746,-0.060913,0.024902,0.071298,-0.980588,0.234404,4.783222,-14.879179,22.611647,,,,,,,,,,,,,,,,,,,,,,,,,,,,,,,,,,,,,,,,,,,,,,,,,,,,,,,,,,,,,,,,,,,,,,,,,,,,,,,,,,,,,,,,,,,,,,,,,,,,,
1738755281.856847,1738755281.857456,93.000000,0.000000,4322.436035,4348.974121,4255.512695,4301.922852,4351.794922,4361.410156,4367.307617,4549.743652,4537.307617,4557.563965,4498.589844,5664.871582,4314.102539,4260.512695,0.000000,4.000000,75.000000,,,,0.000000,0.000000,0.000000,0.000000,0.000000,0.000000,0.000000,0.000000,0.000000,0.000000,0.000000,0.000000,0.000000,0.000000,0.000000,0.000000,,,,,,,,,,,,,,,,,,,,,,,,,,,,,,,,,,,,,,,,,,,,,,,,,,,,,,,,,,,,,,,,,,,,,,,,,,,,,,,,,,,,,,,,,,,,,,,,,,,,,,,,,,,,,,,,,,,,,,,,,,,,,,,,,
1738755281.864655,1738755281.865364,94.000000,0.000000,4321.666504,4348.974121,4251.538574,4302.820313,4350.897461,4359.743652,4365.769043,4549.871582,4539.743652,4560.128418,4499.230957,5666.538574,4316.922852,4260.512695,0.000000,4.000000,75.000000,,,,0.000000,0.000000,0.000000,0.000000,0.000000,0.000000,0.000000,0.000000,0.000000,0.000000,0.000000,0.000000,0.000000,0.000000,0.000000,0.000000,1.000000,0.000000,0.000000,0.000000,0.000000,0.000000,0.000000,0.000000,0.000000,0.000000,0.000000,0.000000,0.000000,0.000000,0.000000,0.000000,,,,,,,,,,,,,,,,,,,,,,,,,,,,,,,,,,,,,,,,,,,,0.022587,0.013401,0.012592,0.016855,0.020781,0.022940,0.015236,0.048329,0.022230,0.026361,0.039439,0.051233,0.019581,0.027823,0.022035,0.013359,0.035035,0.045493,0.030478,0.028548,0.040688,0.077894,0.048885,0.025271,0.029289,0.026739,0.012980,0.008643,0.007407,0.015104,0.027366,0.026141,0.018090,0.044969,0.036879,0.022881,0.012393,0.018145,0.042281,0.022686,0.020771,0.023237,0.020842,0.020177,0.019833,0.031942,0.015484,0.019677,0.019077,0.026557,0.019487,0.029582,0.020717,0.019760,0.030605,0.047982,0.020152,0.014362,0.016736,0.024134,0.028167,0.047072,0.045018,0.030273,0.030856,0.067910,0.018724,0.025934,0.031245,0.019186
1738755281.872463,1738755281.873172,95.000000,0.000000,4322.179688,4350.128418,4249.615234,4300.769043,4352.179688,4360.000000,4366.410156,4553.717773,4541.153809,4560.384766,4496.922852,5666.025879,4312.820313,4257.051270,0.000000,4.000000,75.000000,,,,0.000000,0.000000,0.000000,0.000000,0.000000,0.000000,0.000000,0.000000,0.000000,0.000000,0.000000,0.000000,0.000000,0.000000,0.000000,0.000000,,,,,,,,,,,,,,,,,,,,,,,,,,,,,,,,,,,,,,,,,,,,,,,,,,,,,,,,,,,,,,,,,,,,,,,,,,,,,,,,,,,,,,,,,,,,,,,,,,,,,,,,,,,,,,,,,,,,,,,,,,,,,,,,,
1738755281.880271,1738755281.881080,96.000000,0.000000,4321.153809,4351.922852,4254.102539,4300.384766,4353.974121,4361.153809,4366.025879,4550.000000,4540.128418,4559.615234,4498.461426,5660.641113,4313.205078,4260.512695,0.000000,4.000000,75.000000,,,,0.000000,0.000000,0.000000,0.000000,0.000000,0.000000,0.000000,0.000000,0.000000,0.000000,0.000000,0.000000,0.000000,0.000000,0.000000,0.000000,,,,,,,,,,,,,,,,,24.000000,0.000000,0.786027,-0.614685,-0.060913,0.024780,0.066414,-0.977170,0.240752,4.804900,-14.841261,22.633816,,,,,,,,,,,,,,,,,,,,,,,,,,,,,,,,,,,,,,,,,,,,,,,,,,,,,,,,,,,,,,,,,,,,,,,,,,,,,,,,,,,,,,,,,,,,,,,,,,,,,
1738755281.888079,1738755281.888888,97.000000,0.000000,4321.282227,4349.871582,4256.282227,4301.922852,4354.743652,4361.025879,4367.436035,4549.487305,4537.692383,4559.102539,4499.102539,5661.922852,4309.358887,4258.974121,0.000000,4.000000,75.000000,,,,0.000000,0.000000,0.000000,0.000000,0.000000,0.000000,0.000000,0.000000,0.000000,0.000000,0.000000,0.000000,0.000000,0.000000,0.000000,0.000000,,,,,,,,,,,,,,,,,,,,,,,,,,,,,,,,,,,,,,,,,,,,,,,,,,,,,,,,,,,,,,,,,,,,,,,,,,,,,,,,,,,,,,,,,,,,,,,,,,,,,,,,,,,,,,,,,,,,,,,,,,,,,,,,,
1738755281.895887,1738755281.896796,98.000000,0.000000,4321.410156,4349.230957,4254.358887,4299.102539,4352.051270,4361.538574,4366.538574,4551.538574,4537.307617,4558.589844,4499.102539,5663.717773,4311.794922,4257.820313,0.000000,4.000000,75.000000,,,,0.000000,0.000000,0.000000,0.000000,0.000000,0.000000,0.000000,0.000000,0.000000,0.000000,0.000000,0.000000,0.000000,0.000000,0.000000,0.000000,,,,,,,,,,,,,,,,,,,,,,,,,,,,,,,,,,,,,,,,,,,,,,,,,,,,,,,,,,,,,,,,,,,,,,,,,,,,,,,,,,,,,,,,,,,,,,,,,,,,,,,,,,,,,,,,,,,,,,,,,,,,,,,,,
1738755281.903695,1738755281.904704,99.000000,0.000000,4320.769043,4352.051270,4253.846191,4300.256348,4350.000000,4361.922852,4364.871582,4550.128418,4538.333496,4560.128418,4500.769043,5662.948730,4315.128418,4261.410156,0.000000,4.000000,75.000000,,,,0.000000,0.000000,0.000000,0.000000,0.000000,0.000000,0.000000,0.000000,0.000000,0.000000,0.000000,0.000000,0.000000,0.000000,0.000000,0.000000,,,,,,,,,,,,,,,,,,,,,,,,,,,,,,,,,,,,,,,,,,,,,,,,,,,,,,,,,,,,,,,,,,,,,,,,,,,,,,,,,,,,,,,,,,,,,,,,,,,,,,,,,,,,,,,,,,,,,,,,,,,,,,,,,
1738755281.911504,1738755281.912513,100.000000,0.000000,4320.897461,4352.179688,4253.077148,4304.102539,4350.512695,4360.384766,4367.307617,4551.025879,4537.051270,4561.282227,4497.563965,5665.256348,4308.205078,4257.948730,0.000000,4.000000,75.000000,,,,0.000000,0.000000,0.000000,0.000000,0.000000,0.000000,0.000000,0.000000,0.000000,0.000000,0.000000,0.000000,0.000000,0.000000,0.000000,0.000000,,,,,,,,,,,,,,,,,25.000000,0.000000,0.786022,-0.614685,-0.060974,0.024780,0.066903,-0.972775,0.233427,4.724410,-14.957134,22.670433,,,,,,,,,,,,,,,,,,,,,,,,,,,,,,,,,,,,,,,,,,,,,,,,,,,,,,,,,,,,,,,,,,,,,,,,,,,,,,,,,,,,,,,,,,,,,,,,,,,,,
1738755281.919312,1738755281.920321,101.000000,0.000000,4321.410156,4351.410156,4252.179688,4301.666504,4352.692383,4359.615234,4367.563965,4551.153809,4537.948730,4561.025879,4495.897461,5661.153809,4313.589844,4255.641113,0.000000,4.000000,75.000000,,,,0.000000,0.000000,0.000000,0.000000,0.000000,0.000000,0.000000,0.000000,0.000000,0.000000,0.000000,0.000000,0.000000,0.000000,0.000000,0.000000,,,,,,,,,,,,,,,,,,,,,,,,,,,,,,,,,,,,,,,,,,,,,,,,,,,,,,,,,,,,,,,,,,,,,,,,,,,,,,,,,,,,,,,,,,,,,,,,,,,,,,,,,,,,,,,,,,,,,,,,,,,,,,,,,
1738755281.927120,1738755281.928229,102.000000,0.000000,4322.051270,4350.256348,4253.333496,4299.743652,4352.820313,4361.153809,4368.077148,4549.487305,4539.230957,4561.410156,4498.717773,5661.282227,4316.153809,4255.384766,0.000000,4.000000,75.000000,,,,0.000000,0.000000,0.000000,0.000000,0.000000,0.000000,0.000000,0.000000,0.000000,0.000000,0.000000,0.000000,0.000000,0.000000,0.000000,0.000000,,,,,,,,,,,,,,,,,,,,,,,,,,,,,,,,,,,,,,,,,,,,,,,,,,,,,,,,,,,,,,,,,,,,,,,,,,,,,,,,,,,,,,,,,,,,,,,,,,,,,,,,,,,,,,,,,,,,,,,,,,,,,,,,,
1738755281.934928,1738755281.936037,103.000000,0.000000,4321.025879,4348.589844,4252.307617,4300.128418,4351.666504,4362.179688,4366.538574,4549.871582,4539.615234,4561.922852,4498.333496,5666.153809,4309.487305,4256.794922,0.000000,4.000000,75.000000,,,,0.000000,0.000000,0.000000,0.000000,0.000000,0.000000,0.000000,0.000000,0.000000,0.000000,0.000000,0.000000,0.000000,0.000000,0.000000,0.000000,,,,,,,,,,,,,,,,,,,,,,,,,,,,,,,,,,,,,,,,,,,,,,,,,,,,,,,,,,,,,,,,,,,,,,,,,,,,,,,,,,,,,,,,,,,,,,,,,,,,,,,,,,,,,,,,,,,,,,,,,,,,,,,,,
1738755281.942736,1738755281.943745,104.000000,0.000000,4321.153809,4350.641113,4251.538574,4300.897461,4353.333496,4360.512695,4364.743652,4551.538574,4539.358887,4560.000000,4498.461426,5661.410156,4311.282227,4259.871582,0.000000,4.000000,75.000000,,,,0.000000,0.000000,0.000000,0.000000,0.000000,0.000000,0.000000,0.000000,0.000000,0.000000,0.000000,0.000000,0.000000,0.000000,0.000000,0.000000,,,,,,,,,,,,,,,,,26.000000,0.000000,0.786070,-0.614624,-0.060974,0.024780,0.064949,-0.965450,0.234404,4.668636,-15.128088,22.686724,,,,,,,,,,,,,,,,,,,,,,,,,,,,,,,,,,,,,,,,,,,,,,,,,,,,,,,,,,,,,,,,,,,,,,,,,,,,,,,,,,,,,,,,,,,,,,,,,,,,,
1738755281.950544,1738755281.951554,105.000000,0.000000,4324.487305,4351.666504,4255.512695,4304.487305,4355.128418,4359.102539,4368.974121,4552.436035,4538.717773,4557.307617,4499.487305,5658.589844,4312.948730,4257.563965,0.000000,4.000000,75.000000,,,,0.000000,0.000000,0.000000,0.000000,0.000000,0.000000,0.000000,0.000000,0.000000,0.000000,0.000000,0.000000,0.000000,0.000000,0.000000,0.000000,,,,,,,,,,,,,,,,,,,,,,,,,,,,,,,,,,,,,,,,,,,,,,,,,,,,,,,,,,,,,,,,,,,,,,,,,,,,,,,,,,,,,,,,,,,,,,,,,,,,,,,,,,,,,,,,,,,,,,,,,,,,,,,,,
1738755281.958352,1738755281.959262,106.000000,0.000000,4323.205078,4349.358887,4255.128418,4302.820313,4352.307617,4360.769043,4368.974121,4550.769043,4540.641113,4558.846191,4501.282227,5661.282227,4314.102539,4257.820313,0.000000,4.000000,75.000000,,,,0.000000,0.000000,0.000000,0.000000,0.000000,0.000000,0.000000,0.000000,0.000000,0.000000,0.000000,0.000000,0.000000,0.000000,0.000000,0.000000,,,,,,,,,,,,,,,,,,,,,,,,,,,,,,,,,,,,,,,,,,,,,,,,,,,,,,,,,,,,,,,,,,,,,,,,,,,,,,,,,,,,,,,,,,,,,,,,,,,,,,,,,,,,,,,,,,,,,,,,,,,,,,,,,
1738755281.966160,1738755281.967070,107.000000,0.000000,4320.897461,4347.820313,4252.820313,4299.487305,4348.717773,4361.538574,4366.282227,4552.179688,4540.384766,4560.256348,4500.384766,5664.615234,4310.512695,4258.333496,0.000000,4.000000,75.000000,,,,0.000000,0.000000,0.000000,0.000000,0.000000,0.000000,0.000000,0.000000,0.000000,0.000000,0.000000,0.000000,0.000000,0.000000,0.000000,0.000000,,,,,,,,,,,,,,,,,,,,,,,,,,,,,,,,,,,,,,,,,,,,,,,,,,,,,,,,,,,,,,,,,,,,,,,,,,,,,,,,,,,,,,,,,,,,,,,,,,,,,,,,,,,,,,,,,,,,,,,,,,,,,,,,,
1738755281.973968,1738755281.974778,108.000000,0.000000,4321.666504,4348.974121,4253.974121,4301.538574,4350.000000,4360.384766,4366.538574,4553.589844,4536.282227,4558.974121,4496.538574,5662.820313,4308.717773,4256.538574,0.000000,4.000000,75.000000,,,,0.000000,0.000000,0.000000,0.000000,0.000000,0.000000,0.000000,0.000000,0.000000,0.000000,0.000000,0.000000,0.000000,0.000000,0.000000,0.000000,,,,,,,,,,,,,,,,,27.000000,0.000000,0.786022,-0.614685,-0.060974,0.024780,0.068856,-0.964473,0.225125,4.718439,-15.215279,22.684717,,,,,,,,,,,,,,,,,,,,,,,,,,,,,,,,,,,,,,,,,,,,,,,,,,,,,,,,,,,,,,,,,,,,,,,,,,,,,,,,,,,,,,,,,,,,,,,,,,,,,
1738755281.981777,1738755281.982586,109.000000,0.000000,4320.897461,4352.051270,4253.717773,4302.436035,4350.641113,4360.384766,4367.051270,4550.897461,4538.205078,4558.974121,4496.410156,5659.230957,4313.205078,4257.820313,0.000000,4.000000,75.000000,,,,0.000000,0.000000,0.000000,0.000000,0.000000,0.000000,0.000000,0.000000,0.000000,0.000000,0.000000,0.000000,0.000000,0.000000,0.000000,0.000000,,,,,,,,,,,,,,,,,,,,,,,,,,,,,,,,,,,,,,,,,,,,,,,,,,,,,,,,,,,,,,,,,,,,,,,,,,,,,,,,,,,,,,,,,,,,,,,,,,,,,,,,,,,,,,,,,,,,,,,,,,,,,,,,,
1738755281.989585,1738755281.990294,110.000000,0.000000,4322.179688,4353.077148,4252.948730,4303.077148,4349.102539,4360.769043,4367.307617,4551.538574,4539.487305,4558.717773,4495.769043,5664.102539,4310.256348,4258.589844,0.000000,4.000000,75.000000,,,,0.000000,0.000000,0.000000,0.000000,0.000000,0.000000,0.000000,0.000000,0.000000,0.000000,0.000000,0.000000,0.000000,0.000000,0.000000,0.000000,,,,,,,,,,,,,,,,,,,,,,,,,,,,,,,,,,,,,,,,,,,,,,,,,,,,,,,,,,,,0.017907,0.014913,0.013126,0.014652,0.020307,0.026407,0.017540,0.051517,0.021794,0.028247,0.036503,0.051708,0.020091,0.025582,0.022234,0.013245,0.032141,0.041696,0.032876,0.028345,0.041116,0.068395,0.050310,0.026370,0.028078,0.026829,0.009583,0.008831,0.008816,0.016610,0.018563,0.020547,0.019364,0.044679,0.040498,0.028952,0.014695,0.018540,0.043355,0.021963,0.016946,0.018026,0.021116,0.018820,0.019963,0.027393,0.015490,0.020613,0.019206,0.029769,0.014197,0.033716,0.020991,0.023455,0.031707,0.042963,0.023075,0.013786,0.017515,0.024155,0.026577,0.045485,0.053403,0.027848,0.034586,0.070251,0.017587,0.028960,0.030161,0.018689
1738755281.997393,1738755281.998102,111.000000,0.000000,4322.948730,4352.051270,4252.436035,4301.666504,4349.230957,4360.384766,4362.692383,4551.282227,4537.948730,4558.333496,4494.230957,5665.000000,4311.153809,4258.461426,0.000000,4.000000,75.000000,,,,0.000000,0.000000,0.000000,0.000000,0.000000,0.000000,0.000000,0.000000,0.000000,0.000000,0.000000,0.000000,0.000000,0.000000,0.000000,0.000000,,,,,,,,,,,,,,,,,,,,,,,,,,,,,,,,,,,,,,,,,,,,,,,,,,,,,,,,,,,,,,,,,,,,,,,,,,,,,,,,,,,,,,,,,,,,,,,,,,,,,,,,,,,,,,,,,,,,,,,,,,,,,,,,,
1738755282.005201,1738755282.005810,112.000000,0.000000,4322.436035,4351.153809,4252.436035,4301.410156,4352.307617,4361.282227,4362.051270,4548.461426,4539.487305,4559.487305,4493.205078,5663.717773,4312.820313,4257.563965,0.000000,4.000000,75.000000,,,,0.000000,0.000000,0.000000,0.000000,0.000000,0.000000,0.000000,0.000000,0.000000,0.000000,0.000000,0.000000,0.000000,0.000000,0.000000,0.000000,,,,,,,,,,,,,,,,,28.000000,0.000000,0.786070,-0.614624,-0.060974,0.024780,0.056648,-0.976682,0.237334,4.679928,-15.110417,22.466246,,,,,,,,,,,,,,,,,,,,,,,,,,,,,,,,,,,,,,,,,,,,,,,,,,,,,,,,,,,,,,,,,,,,,,,,,,,,,,,,,,,,,,,,,,,,,,,,,,,,,
1738755282.013009,1738755282.013618,113.000000,0.000000,4321.538574,4348.077148,4254.102539,4302.948730,4353.846191,4359.871582,4367.692383,4549.230957,4540.897461,4560.512695,4494.871582,5665.000000,4312.692383,4256.666504,0.000000,4.000000,75.000000,,,,0.000000,0.000000,0.000000,0.000000,0.000000,0.000000,0.000000,0.000000,0.000000,0.000000,0.000000,0.000000,0.000000,0.000000,0.000000,0.000000,,,,,,,,,,,,,,,,,,,,,,,,,,,,,,,,,,,,,,,,,,,,,,,,,,,,,,,,,,,,,,,,,,,,,,,,,,,,,,,,,,,,,,,,,,,,,,,,,,,,,,,,,,,,,,,,,,,,,,,,,,,,,,,,,
1738755282.020817,1738755282.021326,114.000000,0.000000,4318.717773,4345.512695,4254.102539,4300.897461,4350.128418,4357.692383,4368.846191,4549.487305,4540.384766,4560.769043,4497.692383,5659.102539,4318.461426,4256.666504,0.000000,4.000000,75.000000,,,,0.000000,0.000000,0.000000,0.000000,0.000000,0.000000,0.000000,0.000000,0.000000,0.000000,0.000000,0.000000,0.000000,0.000000,0.000000,0.000000,,,,,,,,,,,,,,,,,,,,,,,,,,,,,,,,,,,,,,,,,,,,,,,,,,,,,,,,,,,,,,,,,,,,,,,,,,,,,,,,,,,,,,,,,,,,,,,,,,,,,,,,,,,,,,,,,,,,,,,,,,,,,,,,,
1738755282.028625,1738755282.029134,115.000000,0.000000,4319.487305,4345.641113,4254.230957,4302.179688,4348.974121,4360.000000,4366.282227,4551.666504,4538.974121,4561.666504,4496.794922,5658.333496,4312.307617,4257.051270,0.000000,4.000000,75.000000,,,,0.000000,0.000000,0.000000,0.000000,0.000000,0.000000,0.000000,0.000000,0.000000,0.000000,0.000000,0.000000,0.000000,0.000000,0.000000,0.000000,,,,,,,,,,,,,,,,,,,,,,,,,,,,,,,,,,,,,,,,,,,,,,,,,,,,,,,,,,,,,,,,,,,,,,,,,,,,,,,,,,,,,,,,,,,,,,,,,,,,,,,,,,,,,,,,,,,,,,,,,,,,,,,,,
1738755282.036433,1738755282.036842,116.000000,0.000000,4322.692383,4348.717773,4255.256348,4303.717773,4352.051270,4362.051270,4363.717773,4553.846191,4539.102539,4560.769043,4495.769043,5663.077148,4307.820313,4258.333496,0.000000,4.000000,75.000000,,,,0.000000,0.000000,0.000000,0.000000,0.000000,0.000000,0.000000,0.000000,0.000000,0.000000,0.000000,0.000000,0.000000,0.000000,0.000000,0.000000,,,,,,,,,,,,,,,,,29.000000,0.000000,0.786072,-0.614624,-0.060913,0.024841,0.047369,-0.962520,0.234404,4.611935,-15.116043,22.602955,,,,,,,,,,,,,,,,,,,,,,,,,,,,,,,,,,,,,,,,,,,,,,,,,,,,,,,,,,,,,,,,,,,,,,,,,,,,,,,,,,,,,,,,,,,,,,,,,,,,,
1738755282.044241,1738755282.044751,117.000000,0.000000,4323.461426,4348.717773,4257.307617,4301.666504,4350.512695,4360.128418,4365.000000,4553.846191,4537.436035,4558.077148,4495.769043,5662.436035,4310.769043,4255.769043,0.000000,4.000000,75.000000,,,,0.000000,0.000000,0.000000,0.000000,0.000000,0.000000,0.000000,0.000000,0.000000,0.000000,0.000000,0.000000,0.000000,0.000000,0.000000,0.000000,,,,,,,,,,,,,,,,,,,,,,,,,,,,,,,,,,,,,,,,,,,,,,,,,,,,,,,,,,,,,,,,,,,,,,,,,,,,,,,,,,,,,,,,,,,,,,,,,,,,,,,,,,,,,,,,,,,,,,,,,,,,,,,,,
1738755282.052050,1738755282.052559,118.000000,0.000000,4323.461426,4346.153809,4257.179688,4301.282227,4346.794922,4359.615234,4368.589844,4551.025879,4536.153809,4558.717773,4497.563965,5661.794922,4310.897461,4254.230957,0.000000,4.000000,75.000000,,,,0.000000,0.000000,0.000000,0.000000,0.000000,0.000000,0.000000,0.000000,0.000000,0.000000,0.000000,0.000000,0.000000,0.000000,0.000000,0.000000,,,,,,,,,,,,,,,,,,,,,,,,,,,,,,,,,,,,,,,,,,,,,,,,,,,,,,,,,,,,,,,,,,,,,,,,,,,,,,,,,,,,,,,,,,,,,,,,,,,,,,,,,,,,,,,,,,,,,,,,,,,,,,,,,
1738755282.059857,1738755282.060467,119.000000,0.000000,4321.025879,4349.102539,4254.487305,4300.641113,4348.205078,4361.922852,4367.820313,4547.692383,4540.256348,4561.538574,4497.179688,5661.282227,4312.179688,4260.000000,0.000000,4.000000,75.000000,,,,0.000000,0.000000,0.000000,0.000000,0.000000,0.000000,0.000000,0.000000,0.000000,0.000000,0.000000,0.000000,0.000000,0.000000,0.000000,0.000000,,,,,,,,,,,,,,,,,,,,,,,,,,,,,,,,,,,,,,,,,,,,,,,,,,,,,,,,,,,,,,,,,,,,,,,,,,,,,,,,,,,,,,,,,,,,,,,,,,,,,,,,,,,,,,,,,,,,,,,,,,,,,,,,,
1738755282.067666,1738755282.068275,120.000000,0.000000,4319.871582,4350.256348,4253.461426,4301.153809,4352.051270,4362.179688,4366.666504,4548.461426,4541.282227,4560.128418,4494.102539,5662.179688,4308.717773,4258.846191,0.000000,4.000000,75.000000,,,,0.000000,0.000000,0.000000,0.000000,0.000000,0.000000,0.000000,0.000000,0.000000,0.000000,0.000000,0.000000,0.000000,0.000000,0.000000,0.000000,,,,,,,,,,,,,,,,,30.000000,0.000000,0.786115,-0.614563,-0.060974,0.024841,0.057624,-0.967403,0.223172,4.817409,-15.004438,22.592659,,,,,,,,,,,,,,,,,,,,,,,,,,,,,,,,,,,,,,,,,,,,,,,,,,,,,,,,,,,,,,,,,,,,,,,,,,,,,,,,,,,,,,,,,,,,,,,,,,,,,
1738755282.075474,1738755282.076183,121.000000,0.000000,4322.179688,4348.846191,4254.487305,4301.666504,4352.051270,4359.615234,4366.922852,4547.307617,4540.641113,4557.948730,4498.077148,5663.077148,4310.769043,4256.025879,0.000000,4.000000,75.000000,,,,0.000000,0.000000,0.000000,0.000000,0.000000,0.000000,0.000000,0.000000,0.000000,0.000000,0.000000,0.000000,0.000000,0.000000,0.000000,0.000000,,,,,,,,,,,,,,,,,,,,,,,,,,,,,,,,,,,,,,,,,,,,,,,,,,,,,,,,,,,,,,,,,,,,,,,,,,,,,,,,,,,,,,,,,,,,,,,,,,,,,,,,,,,,,,,,,,,,,,,,,,,,,,,,,
1738755282.083282,1738755282.083991,122.000000,0.000000,4322.179688,4350.384766,4253.974121,4301.282227,4351.282227,4359.615234,4367.179688,4546.922852,4541.153809,4561.282227,4500.897461,5661.538574,4313.461426,4256.666504,0.000000,4.000000,75.000000,,,,0.000000,0.000000,0.000000,0.000000,0.000000,0.000000,0.000000,0.000000,0.000000,0.000000,0.000000,0.000000,0.000000,0.000000,0.000000,0.000000,,,,,,,,,,,,,,,,,,,,,,,,,,,,,,,,,,,,,,,,,,,,,,,,,,,,,,,,,,,,,,,,,,,,,,,,,,,,,,,,,,,,,,,,,,,,,,,,,,,,,,,,,,,,,,,,,,,,,,,,,,,,,,,,,
1738755282.091090,1738755282.091899,123.000000,0.000000,4320.641113,4351.794922,4253.077148,4303.333496,4353.077148,4359.358887,4366.538574,4551.538574,4539.358887,4563.846191,4495.512695,5663.205078,4307.820313,4256.153809,0.000000,4.000000,75.000000,,,,0.000000,0.000000,0.000000,0.000000,0.000000,0.000000,0.000000,0.000000,0.000000,0.000000,0.000000,0.000000,0.000000,0.000000,0.000000,0.000000,,,,,,,,,,,,,,,,,,,,,,,,,,,,,,,,,,,,,,,,,,,,,,,,,,,,,,,,,,,,,,,,,,,,,,,,,,,,,,,,,,,,,,,,,,,,,,,,,,,,,,,,,,,,,,,,,,,,,,,,,,,,,,,,,
1738755282.098898,1738755282.099708,124.000000,0.000000,4319.615234,4351.410156,4254.230957,4301.282227,4354.743652,4358.461426,4363.717773,4551.025879,4539.871582,4562.436035,4495.641113,5663.205078,4309.358887,4259.871582,0.000000,4.000000,75.000000,,,,0.000000,0.000000,0.000000,0.000000,0.000000,0.000000,0.000000,0.000000,0.000000,0.000000,0.000000,0.000000,0.000000,0.000000,0.000000,0.000000,,,,,,,,,,,,,,,,,31.000000,0.000000,0.786111,-0.614563,-0.061035,0.024841,0.067391,-0.972775,0.230985,4.819001,-15.020661,22.683393,,,,,,,,,,,,,,,,,,,,,,,,,,,,,,,,,,,,,,,,,,,,,,,,,,,,,,,,,,,,,,,,,,,,,,,,,,,,,,,,,,,,,,,,,,,,,,,,,,,,,
1738755282.106706,1738755282.107616,125.000000,0.000000,4321.794922,4349.102539,4253.333496,4300.641113,4352.820313,4359.487305,4366.410156,4548.846191,4539.871582,4560.384766,4499.743652,5664.743652,4307.820313,4258.846191,0.000000,4.000000,75.000000,,,,0.000000,0.000000,0.000000,0.000000,0.000000,0.000000,0.000000,0.000000,0.000000,0.000000,0.000000,0.000000,0.000000,0.000000,0.000000,0.000000,,,,,,,,,,,,,,,,,,,,,,,,,,,,,,,,,,,,,,,,,,,,,,,,,,,,,,,,,,,,,,,,,,,,,,,,,,,,,,,,,,,,,,,,,,,,,,,,,,,,,,,,,,,,,,,,,,,,,,,,,,,,,,,,,
1738755282.114514,1738755282.115424,126.000000,0.000000,4323.846191,4348.717773,4252.307617,4303.205078,4349.871582,4358.333496,4367.820313,4550.769043,4538.717773,4560.000000,4496.410156,5665.000000,4306.922852,4255.897461,0.000000,4.000000,75.000000,,,,0.000000,0.000000,0.000000,0.000000,0.000000,0.000000,0.000000,0.000000,0.000000,0.000000,0.000000,0.000000,0.000000,0.000000,0.000000,0.000000,,,,,,,,,,,,,,,,,,,,,,,,,,,,,,,,,,,,,,,,,,,,,,,,,,,,,,,,,,,,0.014329,0.016899,0.014349,0.012930,0.020309,0.029436,0.018973,0.051971,0.021122,0.029790,0.034289,0.049859,0.021313,0.022845,0.022078,0.013978,0.028682,0.037417,0.033558,0.027956,0.041735,0.058252,0.049939,0.027353,0.026645,0.024926,0.007671,0.008757,0.011074,0.018015,0.013531,0.016910,0.019966,0.043595,0.043424,0.037484,0.016823,0.021659,0.041645,0.021499,0.013210,0.014299,0.021866,0.018339,0.020047,0.022405,0.015190,0.020993,0.019552,0.031655,0.009594,0.039624,0.022594,0.028298,0.031791,0.038696,0.027606,0.013853,0.017905,0.023884,0.024437,0.039860,0.062586,0.025958,0.039462,0.069116,0.016205,0.031985,0.030463,0.019681
1738755282.122322,1738755282.123132,127.000000,0.000000,4322.692383,4348.974121,4253.333496,4303.077148,4352.820313,4356.410156,4365.641113,4553.077148,4540.641113,4560.256348,4493.077148,5661.025879,4313.077148,4259.358887,75.000000,4.000000,75.000000,,,,0.000000,0.000000,0.000000,0.000000,0.000000,0.000000,0.000000,0.000000,0.000000,0.000000,0.000000,0.000000,0.000000,0.000000,0.000000,0.000000,,,,,,,,,,,,,,,,,,,,,,,,,,,,,,,,,,,,,,,,,,,,,,,,,,,,,,,,,,,,,,,,,,,,,,,,,,,,,,,,,,,,,,,,,,,,,,,,,,,,,,,,,,,,,,,,,,,,,,,,,,,,,,,,,
1738755282.130130,1738755282.130940,0.000000,0.000000,4321.666504,4347.436035,4253.846191,4304.102539,4354.615234,4358.846191,4367.692383,4551.153809,4539.743652,4559.871582,4497.307617,5662.436035,4308.205078,4256.922852,0.000000,4.000000,75.000000,,,,0.000000,0.000000,0.000000,0.000000,0.000000,0.000000,0.000000,0.000000,0.000000,0.000000,0.000000,0.000000,0.000000,0.000000,0.000000,0.000000,,,,,,,,,,,,,,,,,0.000000,0.000000,0.786111,-0.614563,-0.061035,0.024841,0.057624,-0.980100,0.229520,4.670434,-14.918595,22.665054,,,,,,,,,,,,,,,,,,,,,,,,,,,,,,,,,,,,,,,,,,,,,,,,,,,,,,,,,,,,,,,,,,,,,,,,,,,,,,,,,,,,,,,,,,,,,,,,,,,,,
1738755282.137939,1738755282.138649,1.000000,0.000000,4321.282227,4346.538574,4253.205078,4303.717773,4350.769043,4359.871582,4366.410156,4546.794922,4537.948730,4560.641113,4500.128418,5661.538574,4308.077148,4253.974121,0.000000,4.000000,75.000000,,,,0.000000,0.000000,0.000000,0.000000,0.000000,0.000000,0.000000,0.000000,0.000000,0.000000,0.000000,0.000000,0.000000,0.000000,0.000000,0.000000,,,,,,,,,,,,,,,,,,,,,,,,,,,,,,,,,,,,,,,,,,,,,,,,,,,,,,,,,,,,,,,,,,,,,,,,,,,,,,,,,,,,,,,,,,,,,,,,,,,,,,,,,,,,,,,,,,,,,,,,,,,,,,,,,
1738755282.145747,1738755282.146457,2.000000,0.000000,4321.794922,4345.384766,4252.307617,4301.794922,4349.615234,4357.948730,4366.410156,4550.128418,4538.461426,4560.769043,4495.384766,5660.000000,4311.410156,4254.487305,0.000000,4.000000,75.000000,,,,0.000000,0.000000,0.000000,0.000000,0.000000,0.000000,0.000000,0.000000,0.000000,0.000000,0.000000,0.000000,0.000000,0.000000,0.000000,0.000000,,,,,,,,,,,,,,,,,,,,,,,,,,,,,,,,,,,,,,,,,,,,,,,,,,,,,,,,,,,,,,,,,,,,,,,,,,,,,,,,,,,,,,,,,,,,,,,,,,,,,,,,,,,,,,,,,,,,,,,,,,,,,,,,,
1738755282.153555,1738755282.154165,3.000000,0.000000,4321.538574,4345.897461,4250.897461,4299.358887,4352.563965,4359.230957,4368.974121,4552.820313,4538.846191,4559.487305,4493.589844,5661.794922,4307.820313,4255.641113,0.000000,4.000000,75.000000,,,,0.000000,0.000000,0.000000,0.000000,0.000000,0.000000,0.000000,0.000000,0.000000,0.000000,0.000000,0.000000,0.000000,0.000000,0.000000,0.000000,,,,,,,,,,,,,,,,,,,,,,,,,,,,,,,,,,,,,,,,,,,,,,,,,,,,,,,,,,,,,,,,,,,,,,,,,,,,,,,,,,,,,,,,,,,,,,,,,,,,,,,,,,,,,,,,,,,,,,,,,,,,,,,,,
1738755282.161363,1738755282.161973,4.000000,0.000000,4320.769043,4348.717773,4252.179688,4296.794922,4352.307617,4361.794922,4365.897461,4547.563965,4539.230957,4561.153809,4497.051270,5663.461426,4309.871582,4258.974121,0.000000,4.000000,75.000000,,,,0.000000,0.000000,0.000000,0.000000,0.000000,0.000000,0.000000,0.000000,0.000000,0.000000,0.000000,0.000000,0.000000,0.000000,0.000000,0.000000,,,,,,,,,,,,,,,,,1.000000,0.000000,0.786112,-0.614563,-0.060974,0.024963,0.056159,-0.973263,0.245147,4.620058,-15.010069,22.765215,,,,,,,,,,,,,,,,,,,,,,,,,,,,,,,,,,,,,,,,,,,,,,,,,,,,,,,,,,,,,,,,,,,,,,,,,,,,,,,,,,,,,,,,,,,,,,,,,,,,,
1738755282.169171,1738755282.169681,5.000000,0.000000,4321.282227,4348.589844,4255.000000,4300.769043,4350.000000,4361.410156,4365.384766,4548.461426,4540.641113,4562.307617,4497.692383,5666.410156,4309.487305,4259.102539,0.000000,4.000000,75.000000,,,,0.000000,0.000000,0.000000,0.000000,0.000000,0.000000,0.000000,0.000000,0.000000,0.000000,0.000000,0.000000,0.000000,0.000000,0.000000,0.000000,,,,,,,,,,,,,,,,,,,,,,,,,,,,,,,,,,,,,,,,,,,,,,,,,,,,,,,,,,,,,,,,,,,,,,,,,,,,,,,,,,,,,,,,,,,,,,,,,,,,,,,,,,,,,,,,,,,,,,,,,,,,,,,,,
1738755282.176979,1738755282.177489,6.000000,0.000000,4321.922852,4347.307617,4254.230957,4304.615234,4351.922852,4361.153809,4367.692383,4551.538574,4542.436035,4560.897461,4498.461426,5662.307617,4312.179688,4257.820313,0.000000,4.000000,75.000000,,,,0.000000,0.000000,0.000000,0.000000,0.000000,0.000000,0.000000,0.000000,0.000000,0.000000,0.000000,0.000000,0.000000,0.000000,0.000000,0.000000,,,,,,,,,,,,,,,,,,,,,,,,,,,,,,,,,,,,,,,,,,,,,,,,,,,,,,,,,,,,,,,,,,,,,,,,,,,,,,,,,,,,,,,,,,,,,,,,,,,,,,,,,,,,,,,,,,,,,,,,,,,,,,,,,
1738755282.184787,1738755282.185197,7.000000,0.000000,4321.922852,4348.589844,4255.769043,4305.000000,4353.333496,4362.179688,4368.205078,4547.948730,4537.692383,4557.563965,4499.230957,5659.871582,4312.948730,4256.410156,0.000000,4.000000,75.000000,,,,0.000000,0.000000,0.000000,0.000000,0.000000,0.000000,0.000000,0.000000,0.000000,0.000000,0.000000,0.000000,0.000000,0.000000,0.000000,0.000000,,,,,,,,,,,,,,,,,,,,,,,,,,,,,,,,,,,,,,,,,,,,,,,,,,,,,,,,,,,,,,,,,,,,,,,,,,,,,,,,,,,,,,,,,,,,,,,,,,,,,,,,,,,,,,,,,,,,,,,,,,,,,,,,,
1738755282.192595,1738755282.193005,8.000000,0.000000,4322.307617,4348.205078,4255.897461,4304.871582,4351.410156,4361.666504,4367.948730,4547.820313,4534.615234,4556.922852,4495.512695,5662.948730,4307.307617,4255.897461,0.000000,4.000000,75.000000,,,,0.000000,0.000000,0.000000,0.000000,0.000000,0.000000,0.000000,0.000000,0.000000,0.000000,0.000000,0.000000,0.000000,0.000000,0.000000,0.000000,,,,,,,,,,,,,,,,,2.000000,0.000000,0.786110,-0.614563,-0.060974,0.025024,0.062996,-0.977170,0.242705,4.658051,-14.992395,22.822027,,,,,,,,,,,,,,,,,,,,,,,,,,,,,,,,,,,,,,,,,,,,,,,,,,,,,,,,,,,,,,,,,,,,,,,,,,,,,,,,,,,,,,,,,,,,,,,,,,,,,
1738755282.200403,1738755282.200713,9.000000,0.000000,4321.410156,4346.282227,4251.922852,4304.102539,4350.897461,4359.487305,4365.769043,4551.666504,4540.769043,4559.230957,4493.717773,5662.436035,4308.717773,4257.948730,0.000000,4.000000,75.000000,,,,0.000000,0.000000,0.000000,0.000000,0.000000,0.000000,0.000000,0.000000,0.000000,0.000000,0.000000,0.000000,0.000000,0.000000,0.000000,0.000000,,,,,,,,,,,,,,,,,,,,,,,,,,,,,,,,,,,,,,,,,,,,,,,,,,,,,,,,,,,,,,,,,,,,,,,,,,,,,,,,,,,,,,,,,,,,,,,,,,,,,,,,,,,,,,,,,,,,,,,,,,,,,,,,,
1738755282.208212,1738755282.208621,10.000000,0.000000,4322.179688,4349.102539,4253.846191,4304.743652,4353.077148,4359.358887,4365.000000,4554.487305,4541.794922,4559.102539,4493.717773,5664.358887,4307.179688,4255.128418,0.000000,4.000000,75.000000,,,,0.000000,0.000000,0.000000,0.000000,0.000000,0.000000,0.000000,0.000000,0.000000,0.000000,0.000000,0.000000,0.000000,0.000000,0.000000,0.000000,,,,,,,,,,,,,,,,,,,,,,,,,,,,,,,,,,,,,,,,,,,,,,,,,,,,,,,,,,,,,,,,,,,,,,,,,,,,,,,,,,,,,,,,,,,,,,,,,,,,,,,,,,,,,,,,,,,,,,,,,,,,,,,,,
1738755282.216020,1738755282.216430,11.000000,0.000000,4324.358887,4352.436035,4256.282227,4304.615234,4351.794922,4359.743652,4365.128418,4552.051270,4538.589844,4559.358887,4497.307617,5664.743652,4307.563965,4256.153809,0.000000,4.000000,75.000000,,,,0.000000,0.000000,0.000000,0.000000,0.000000,0.000000,0.000000,0.000000,0.000000,0.000000,0.000000,0.000000,0.000000,0.000000,0.000000,0.000000,,,,,,,,,,,,,,,,,,,,,,,,,,,,,,,,,,,,,,,,,,,,,,,,,,,,,,,,,,,,,,,,,,,,,,,,,,,,,,,,,,,,,,,,,,,,,,,,,,,,,,,,,,,,,,,,,,,,,,,,,,,,,,,,,
1738755282.223828,1738755282.224338,12.000000,0.000000,4323.589844,4349.487305,4253.205078,4303.846191,4350.256348,4358.589844,4366.282227,4549.358887,4541.282227,4558.589844,4497.820313,5663.589844,4310.000000,4257.179688,0.000000,4.000000,75.000000,,,,0.000000,0.000000,0.000000,0.000000,0.000000,0.000000,0.000000,0.000000,0.000000,0.000000,0.000000,0.000000,0.000000,0.000000,0.000000,0.000000,,,,,,,,,,,,,,,,,3.000000,0.000000,0.786112,-0.614563,-0.060913,0.025085,0.062508,-0.979123,0.232450,4.692246,-14.893156,22.789824,,,,,,,,,,,,,,,,,,,,,,,,,,,,,,,,,,,,,,,,,,,,,,,,,,,,,,,,,,,,,,,,,,,,,,,,,,,,,,,,,,,,,,,,,,,,,,,,,,,,,
1738755282.231636,1738755282.232146,13.000000,0.000000,4322.307617,4347.948730,4252.692383,4304.358887,4354.487305,4359.615234,4367.948730,4551.410156,4542.563965,4556.282227,4492.307617,5664.487305,4307.307617,4251.794922,0.000000,4.000000,75.000000,,,,0.000000,0.000000,0.000000,0.000000,0.000000,0.000000,0.000000,0.000000,0.000000,0.000000,0.000000,0.000000,0.000000,0.000000,0.000000,0.000000,,,,,,,,,,,,,,,,,,,,,,,,,,,,,,,,,,,,,,,,,,,,,,,,,,,,,,,,,,,,,,,,,,,,,,,,,,,,,,,,,,,,,,,,,,,,,,,,,,,,,,,,,,,,,,,,,,,,,,,,,,,,,,,,,
1738755282.239444,1738755282.240054,14.000000,0.000000,4320.897461,4349.743652,4256.153809,4303.717773,4354.615234,4362.051270,4364.615234,4550.641113,4540.897461,4558.717773,4494.102539,5662.692383,4311.410156,4254.358887,0.000000,4.000000,75.000000,,,,0.000000,0.000000,0.000000,0.000000,0.000000,0.000000,0.000000,0.000000,0.000000,0.000000,0.000000,0.000000,0.000000,0.000000,0.000000,0.000000,,,,,,,,,,,,,,,,,,,,,,,,,,,,,,,,,,,,,,,,,,,,,,,,,,,,,,,,,,,,0.012681,0.019751,0.015414,0.011908,0.020612,0.030311,0.019203,0.048682,0.020033,0.030716,0.032669,0.045978,0.023621,0.020841,0.021375,0.015398,0.025067,0.033594,0.032297,0.027628,0.042937,0.049064,0.048393,0.027421,0.025369,0.021975,0.007856,0.008307,0.013658,0.018945,0.012947,0.015283,0.019778,0.041242,0.044541,0.045152,0.018566,0.026430,0.037568,0.021248,0.010347,0.012578,0.022977,0.018644,0.019927,0.018446,0.015342,0.021638,0.020063,0.032154,0.006544,0.045165,0.024754,0.033285,0.030662,0.034790,0.032935,0.014748,0.017563,0.023833,0.022877,0.032629,0.069661,0.025507,0.044968,0.063536,0.014959,0.034597,0.032649,0.021515
1738755282.247252,1738755282.247862,15.000000,0.000000,4322.563965,4347.948730,4254.743652,4303.461426,4350.384766,4360.256348,4366.922852,4547.948730,4539.743652,4561.666504,4497.179688,5661.922852,4311.794922,4255.897461,0.000000,4.000000,75.000000,,,,0.000000,0.000000,0.000000,0.000000,0.000000,0.000000,0.000000,0.000000,0.000000,0.000000,0.000000,0.000000,0.000000,0.000000,0.000000,0.000000,,,,,,,,,,,,,,,,,,,,,,,,,,,,,,,,,,,,,,,,,,,,,,,,,,,,,,,,,,,,,,,,,,,,,,,,,,,,,,,,,,,,,,,,,,,,,,,,,,,,,,,,,,,,,,,,,,,,,,,,,,,,,,,,,
1738755282.255060,1738755282.255770,16.000000,0.000000,4322.307617,4347.948730,4251.153809,4301.666504,4351.153809,4358.717773,4369.102539,4547.948730,4541.153809,4559.743652,4494.230957,5660.384766,4307.563965,4254.615234,0.000000,4.000000,75.000000,,,,0.000000,0.000000,0.000000,0.000000,0.000000,0.000000,0.000000,0.000000,0.000000,0.000000,0.000000,0.000000,0.000000,0.000000,0.000000,0.000000,,,,,,,,,,,,,,,,,4.000000,0.000000,0.786117,-0.614563,-0.060852,0.025085,0.064949,-0.970333,0.232450,4.723022,-14.853840,22.844175,,,,,,,,,,,,,,,,,,,,,,,,,,,,,,,,,,,,,,,,,,,,,,,,,,,,,,,,,,,,,,,,,,,,,,,,,,,,,,,,,,,,,,,,,,,,,,,,,,,,,
1738755282.262868,1738755282.263578,17.000000,0.000000,4321.794922,4353.846191,4253.077148,4300.897461,4351.666504,4361.666504,4366.282227,4548.846191,4542.179688,4559.615234,4494.358887,5659.230957,4307.179688,4256.538574,0.000000,4.000000,75.000000,,,,0.000000,0.000000,0.000000,0.000000,0.000000,0.000000,0.000000,0.000000,0.000000,0.000000,0.000000,0.000000,0.000000,0.000000,0.000000,0.000000,,,,,,,,,,,,,,,,,,,,,,,,,,,,,,,,,,,,,,,,,,,,,,,,,,,,,,,,,,,,,,,,,,,,,,,,,,,,,,,,,,,,,,,,,,,,,,,,,,,,,,,,,,,,,,,,,,,,,,,,,,,,,,,,,
1738755282.270676,1738755282.271487,18.000000,0.000000,4324.358887,4354.358887,4254.487305,4301.153809,4350.256348,4362.179688,4368.205078,4548.846191,4540.128418,4561.282227,4499.102539,5663.589844,4307.563965,4253.589844,0.000000,4.000000,75.000000,,,,0.000000,0.000000,0.000000,0.000000,0.000000,0.000000,0.000000,0.000000,0.000000,0.000000,0.000000,0.000000,0.000000,0.000000,0.000000,0.000000,,,,,,,,,,,,,,,,,,,,,,,,,,,,,,,,,,,,,,,,,,,,,,,,,,,,,,,,,,,,,,,,,,,,,,,,,,,,,,,,,,,,,,,,,,,,,,,,,,,,,,,,,,,,,,,,,,,,,,,,,,,,,,,,,
1738755282.278484,1738755282.279295,19.000000,0.000000,4321.025879,4347.563965,4252.179688,4298.717773,4351.538574,4358.846191,4370.641113,4547.820313,4538.846191,4559.487305,4497.692383,5662.179688,4311.153809,4252.820313,0.000000,4.000000,75.000000,,,,0.000000,0.000000,0.000000,0.000000,0.000000,0.000000,0.000000,0.000000,0.000000,0.000000,0.000000,0.000000,0.000000,0.000000,0.000000,0.000000,,,,,,,,,,,,,,,,,,,,,,,,,,,,,,,,,,,,,,,,,,,,,,,,,,,,,,,,,,,,,,,,,,,,,,,,,,,,,,,,,,,,,,,,,,,,,,,,,,,,,,,,,,,,,,,,,,,,,,,,,,,,,,,,,
1738755282.286292,1738755282.287203,20.000000,0.000000,4319.615234,4345.000000,4253.205078,4301.025879,4350.641113,4359.615234,4371.282227,4550.256348,4537.436035,4558.846191,4492.692383,5660.769043,4307.692383,4254.358887,0.000000,4.000000,75.000000,,,,0.000000,0.000000,0.000000,0.000000,0.000000,0.000000,0.000000,0.000000,0.000000,0.000000,0.000000,0.000000,0.000000,0.000000,0.000000,0.000000,,,,,,,,,,,,,,,,,5.000000,0.000000,0.786115,-0.614563,-0.060852,0.025146,0.067391,-0.973752,0.239287,4.667387,-14.818457,22.843092,,,,,,,,,,,,,,,,,,,,,,,,,,,,,,,,,,,,,,,,,,,,,,,,,,,,,,,,,,,,,,,,,,,,,,,,,,,,,,,,,,,,,,,,,,,,,,,,,,,,,
1738755282.294101,1738755282.295011,21.000000,0.000000,4323.974121,4348.589844,4256.025879,4304.230957,4348.846191,4360.384766,4370.384766,4550.641113,4537.051270,4561.538574,4497.307617,5663.589844,4306.666504,4254.871582,0.000000,4.000000,75.000000,,,,0.000000,0.000000,0.000000,0.000000,0.000000,0.000000,0.000000,0.000000,0.000000,0.000000,0.000000,0.000000,0.000000,0.000000,0.000000,0.000000,,,,,,,,,,,,,,,,,,,,,,,,,,,,,,,,,,,,,,,,,,,,,,,,,,,,,,,,,,,,,,,,,,,,,,,,,,,,,,,,,,,,,,,,,,,,,,,,,,,,,,,,,,,,,,,,,,,,,,,,,,,,,,,,,
1738755282.301909,1738755282.302819,22.000000,0.000000,4325.256348,4350.769043,4254.358887,4302.051270,4354.487305,4358.589844,4368.077148,4547.563965,4540.000000,4561.922852,4501.025879,5660.769043,4313.205078,4255.256348,0.000000,4.000000,75.000000,,,,0.000000,0.000000,0.000000,0.000000,0.000000,0.000000,0.000000,0.000000,0.000000,0.000000,0.000000,0.000000,0.000000,0.000000,0.000000,0.000000,,,,,,,,,,,,,,,,,,,,,,,,,,,,,,,,,,,,,,,,,,,,,,,,,,,,,,,,,,,,,,,,,,,,,,,,,,,,,,,,,,,,,,,,,,,,,,,,,,,,,,,,,,,,,,,,,,,,,,,,,,,,,,,,,
1738755282.309717,1738755282.310628,23.000000,0.000000,4323.461426,4349.230957,4253.846191,4302.179688,4355.769043,4359.871582,4369.230957,4549.615234,4540.897461,4559.615234,4496.922852,5660.641113,4308.717773,4252.307617,0.000000,4.000000,75.000000,,,,0.000000,0.000000,0.000000,0.000000,0.000000,0.000000,0.000000,0.000000,0.000000,0.000000,0.000000,0.000000,0.000000,0.000000,0.000000,0.000000,,,,,,,,,,,,,,,,,,,,,,,,,,,,,,,,,,,,,,,,,,,,,,,,,,,,,,,,,,,,,,,,,,,,,,,,,,,,,,,,,,,,,,,,,,,,,,,,,,,,,,,,,,,,,,,,,,,,,,,,,,,,,,,,,
1738755282.317525,1738755282.318336,24.000000,0.000000,4321.410156,4350.512695,4256.666504,4301.153809,4350.128418,4361.025879,4368.077148,4549.102539,4540.769043,4561.282227,4496.025879,5661.410156,4308.077148,4255.000000,0.000000,4.000000,75.000000,,,,0.000000,0.000000,0.000000,0.000000,0.000000,0.000000,0.000000,0.000000,0.000000,0.000000,0.000000,0.000000,0.000000,0.000000,0.000000,0.000000,,,,,,,,,,,,,,,,,6.000000,0.000000,0.786065,-0.614624,-0.060913,0.025085,0.062019,-0.972287,0.234892,4.733981,-14.786611,22.808783,,,,,,,,,,,,,,,,,,,,,,,,,,,,,,,,,,,,,,,,,,,,,,,,,,,,,,,,,,,,,,,,,,,,,,,,,,,,,,,,,,,,,,,,,,,,,,,,,,,,,
1738755282.325333,1738755282.326144,25.000000,0.000000,4321.794922,4351.666504,4257.820313,4300.384766,4353.077148,4360.000000,4365.000000,4545.769043,4541.538574,4562.436035,4498.717773,5659.615234,4307.820313,4256.794922,0.000000,4.000000,75.000000,,,,0.000000,0.000000,0.000000,0.000000,0.000000,0.000000,0.000000,0.000000,0.000000,0.000000,0.000000,0.000000,0.000000,0.000000,0.000000,0.000000,,,,,,,,,,,,,,,,,,,,,,,,,,,,,,,,,,,,,,,,,,,,,,,,,,,,,,,,,,,,,,,,,,,,,,,,,,,,,,,,,,,,,,,,,,,,,,,,,,,,,,,,,,,,,,,,,,,,,,,,,,,,,,,,,
1738755282.333141,1738755282.333852,26.000000,0.000000,4320.897461,4349.487305,4255.256348,4305.128418,4355.256348,4359.358887,4363.333496,4547.179688,4541.538574,4560.128418,4499.487305,5660.897461,4305.128418,4253.205078,0.000000,4.000000,75.000000,,,,0.000000,0.000000,0.000000,0.000000,0.000000,0.000000,0.000000,0.000000,0.000000,0.000000,0.000000,0.000000,0.000000,0.000000,0.000000,0.000000,,,,,,,,,,,,,,,,,,,,,,,,,,,,,,,,,,,,,,,,,,,,,,,,,,,,,,,,,,,,,,,,,,,,,,,,,,,,,,,,,,,,,,,,,,,,,,,,,,,,,,,,,,,,,,,,,,,,,,,,,,,,,,,,,
1738755282.340949,1738755282.341760,27.000000,0.000000,4318.717773,4350.897461,4251.922852,4306.666504,4351.282227,4359.102539,4361.922852,4549.871582,4539.743652,4559.615234,4498.205078,5661.666504,4310.256348,4255.512695,0.000000,4.000000,75.000000,,,,0.000000,0.000000,0.000000,0.000000,0.000000,0.000000,0.000000,0.000000,0.000000,0.000000,0.000000,0.000000,0.000000,0.000000,0.000000,0.000000,,,,,,,,,,,,,,,,,,,,,,,,,,,,,,,,,,,,,,,,,,,,,,,,,,,,,,,,,,,,,,,,,,,,,,,,,,,,,,,,,,,,,,,,,,,,,,,,,,,,,,,,,,,,,,,,,,,,,,,,,,,,,,,,,
1738755282.348757,1738755282.349568,28.000000,0.000000,4321.153809,4350.128418,4253.461426,4304.102539,4353.461426,4360.769043,4363.333496,4552.051270,4539.102539,4560.128418,4496.153809,5663.589844,4306.025879,4258.077148,0.000000,4.000000,75.000000,,,,0.000000,0.000000,0.000000,0.000000,0.000000,0.000000,0.000000,0.000000,0.000000,0.000000,0.000000,0.000000,0.000000,0.000000,0.000000,0.000000,,,,,,,,,,,,,,,,,7.000000,0.000000,0.786065,-0.614624,-0.060913,0.025085,0.073739,-0.974240,0.236357,4.743917,-14.824616,22.794571,,,,,,,,,,,,,,,,,,,,,,,,,,,,,,,,,,,,,,,,,,,,,,,,,,,,,,,,,,,,,,,,,,,,,,,,,,,,,,,,,,,,,,,,,,,,,,,,,,,,,
1738755282.356565,1738755282.357477,29.000000,0.000000,4324.230957,4346.153809,4255.000000,4301.666504,4356.282227,4361.922852,4365.128418,4548.974121,4541.282227,4560.897461,4495.512695,5662.948730,4306.282227,4258.461426,0.000000,4.000000,75.000000,,,,0.000000,0.000000,0.000000,0.000000,0.000000,0.000000,0.000000,0.000000,0.000000,0.000000,0.000000,0.000000,0.000000,0.000000,0.000000,0.000000,,,,,,,,,,,,,,,,,,,,,,,,,,,,,,,,,,,,,,,,,,,,,,,,,,,,,,,,,,,,,,,,,,,,,,,,,,,,,,,,,,,,,,,,,,,,,,,,,,,,,,,,,,,,,,,,,,,,,,,,,,,,,,,,,
1738755282.364374,1738755282.365285,30.000000,0.000000,4322.307617,4348.461426,4252.692383,4302.307617,4349.743652,4360.256348,4366.538574,4547.692383,4542.051270,4559.615234,4493.333496,5662.179688,4311.538574,4256.922852,0.000000,4.000000,75.000000,,,,0.000000,0.000000,0.000000,0.000000,0.000000,0.000000,0.000000,0.000000,0.000000,0.000000,0.000000,0.000000,0.000000,0.000000,0.000000,0.000000,1.000000,0.000000,0.000000,0.000000,0.000000,0.000000,0.000000,0.000000,0.000000,0.000000,0.000000,0.000000,0.000000,0.000000,0.000000,0.000000,,,,,,,,,,,,,,,,,,,,,,,,,,,,,,,,,,,,,,,,,,,,0.013093,0.023282,0.015889,0.011655,0.021048,0.028710,0.019205,0.042145,0.018688,0.030829,0.031123,0.040338,0.026565,0.020519,0.020261,0.016960,0.022292,0.030207,0.029516,0.027375,0.044774,0.041219,0.046685,0.026272,0.024671,0.019163,0.010080,0.007412,0.015784,0.019259,0.016307,0.015199,0.018824,0.037711,0.043525,0.049020,0.020096,0.031664,0.032309,0.021060,0.008694,0.012448,0.024600,0.019415,0.019575,0.016485,0.016253,0.023291,0.020878,0.031615,0.005757,0.048265,0.026945,0.037091,0.028822,0.030934,0.037885,0.016767,0.016682,0.024496,0.022442,0.026289,0.071875,0.026446,0.050120,0.053218,0.014264,0.036208,0.036096,0.023359
1738755282.372182,1738755282.373093,31.000000,0.000000,4321.282227,4348.974121,4252.051270,4305.000000,4347.436035,4361.025879,4366.794922,4551.153809,4540.128418,4557.692383,4492.820313,5664.615234,4306.153809,4251.538574,0.000000,4.000000,75.000000,,,,0.000000,0.000000,0.000000,0.000000,0.000000,0.000000,0.000000,0.000000,0.000000,0.000000,0.000000,0.000000,0.000000,0.000000,0.000000,0.000000,,,,,,,,,,,,,,,,,,,,,,,,,,,,,,,,,,,,,,,,,,,,,,,,,,,,,,,,,,,,,,,,,,,,,,,,,,,,,,,,,,,,,,,,,,,,,,,,,,,,,,,,,,,,,,,,,,,,,,,,,,,,,,,,,
1738755282.379990,1738755282.380801,32.000000,0.000000,4323.077148,4344.871582,4254.743652,4305.128418,4351.666504,4363.461426,4363.461426,4550.000000,4540.384766,4558.974121,4498.205078,5663.846191,4305.128418,4251.794922,0.000000,4.000000,75.000000,,,,0.000000,0.000000,0.000000,0.000000,0.000000,0.000000,0.000000,0.000000,0.000000,0.000000,0.000000,0.000000,0.000000,0.000000,0.000000,0.000000,,,,,,,,,,,,,,,,,8.000000,0.000000,0.786065,-0.614624,-0.060913,0.025085,0.062508,-0.980588,0.230985,4.686192,-14.875488,22.881781,,,,,,,,,,,,,,,,,,,,,,,,,,,,,,,,,,,,,,,,,,,,,,,,,,,,,,,,,,,,,,,,,,,,,,,,,,,,,,,,,,,,,,,,,,,,,,,,,,,,,
1738755282.387798,1738755282.388609,33.000000,0.000000,4321.025879,4347.436035,4255.000000,4305.641113,4350.769043,4361.666504,4364.102539,4549.230957,4540.897461,4557.436035,4498.461426,5665.128418,4305.512695,4255.897461,0.000000,4.000000,75.000000,,,,0.000000,0.000000,0.000000,0.000000,0.000000,0.000000,0.000000,0.000000,0.000000,0.000000,0.000000,0.000000,0.000000,0.000000,0.000000,0.000000,,,,,,,,,,,,,,,,,,,,,,,,,,,,,,,,,,,,,,,,,,,,,,,,,,,,,,,,,,,,,,,,,,,,,,,,,,,,,,,,,,,,,,,,,,,,,,,,,,,,,,,,,,,,,,,,,,,,,,,,,,,,,,,,,
1738755282.395606,1738755282.396317,34.000000,0.000000,4317.307617,4351.538574,4250.256348,4303.205078,4350.384766,4358.846191,4363.846191,4550.384766,4540.128418,4557.179688,4493.717773,5664.487305,4306.282227,4256.922852,0.000000,4.000000,75.000000,,,,0.000000,0.000000,0.000000,0.000000,0.000000,0.000000,0.000000,0.000000,0.000000,0.000000,0.000000,0.000000,0.000000,0.000000,0.000000,0.000000,,,,,,,,,,,,,,,,,,,,,,,,,,,,,,,,,,,,,,,,,,,,,,,,,,,,,,,,,,,,,,,,,,,,,,,,,,,,,,,,,,,,,,,,,,,,,,,,,,,,,,,,,,,,,,,,,,,,,,,,,,,,,,,,,
1738755282.403414,1738755282.404125,35.000000,0.000000,4322.051270,4349.487305,4250.512695,4300.897461,4351.153809,4360.000000,4363.333496,4552.436035,4539.102539,4562.436035,4495.769043,5660.512695,4308.205078,4255.769043,0.000000,4.000000,75.000000,,,,0.000000,0.000000,0.000000,0.000000,0.000000,0.000000,0.000000,0.000000,0.000000,0.000000,0.000000,0.000000,0.000000,0.000000,0.000000,0.000000,,,,,,,,,,,,,,,,,,,,,,,,,,,,,,,,,,,,,,,,,,,,,,,,,,,,,,,,,,,,,,,,,,,,,,,,,,,,,,,,,,,,,,,,,,,,,,,,,,,,,,,,,,,,,,,,,,,,,,,,,,,,,,,,,
1738755282.411222,1738755282.411833,36.000000,0.000000,4325.641113,4348.461426,4253.974121,4302.563965,4348.717773,4360.641113,4368.205078,4552.820313,4539.358887,4562.820313,4499.230957,5663.205078,4308.333496,4254.743652,0.000000,4.000000,75.000000,,,,0.000000,0.000000,0.000000,0.000000,0.000000,0.000000,0.000000,0.000000,0.000000,0.000000,0.000000,0.000000,0.000000,0.000000,0.000000,0.000000,,,,,,,,,,,,,,,,,9.000000,0.000000,0.786022,-0.614685,-0.060852,0.025085,0.059578,-0.966915,0.235869,4.584239,-15.054605,23.010269,,,,,,,,,,,,,,,,,,,,,,,,,,,,,,,,,,,,,,,,,,,,,,,,,,,,,,,,,,,,,,,,,,,,,,,,,,,,,,,,,,,,,,,,,,,,,,,,,,,,,
1738755282.419030,1738755282.419741,37.000000,0.000000,4319.230957,4351.410156,4253.205078,4302.563965,4350.897461,4361.025879,4368.205078,4548.589844,4541.025879,4558.974121,4497.563965,5663.717773,4313.846191,4255.000000,0.000000,4.000000,75.000000,,,,0.000000,0.000000,0.000000,0.000000,0.000000,0.000000,0.000000,0.000000,0.000000,0.000000,0.000000,0.000000,0.000000,0.000000,0.000000,0.000000,,,,,,,,,,,,,,,,,,,,,,,,,,,,,,,,,,,,,,,,,,,,,,,,,,,,,,,,,,,,,,,,,,,,,,,,,,,,,,,,,,,,,,,,,,,,,,,,,,,,,,,,,,,,,,,,,,,,,,,,,,,,,,,,,
1738755282.426838,1738755282.427549,38.000000,0.000000,4320.256348,4348.461426,4254.615234,4300.897461,4353.589844,4361.794922,4366.025879,4550.512695,4539.487305,4559.102539,4498.077148,5665.384766,4309.487305,4253.461426,0.000000,4.000000,75.000000,,,,0.000000,0.000000,0.000000,0.000000,0.000000,0.000000,0.000000,0.000000,0.000000,0.000000,0.000000,0.000000,0.000000,0.000000,0.000000,0.000000,,,,,,,,,,,,,,,,,,,,,,,,,,,,,,,,,,,,,,,,,,,,,,,,,,,,,,,,,,,,,,,,,,,,,,,,,,,,,,,,,,,,,,,,,,,,,,,,,,,,,,,,,,,,,,,,,,,,,,,,,,,,,,,,,
1738755282.434646,1738755282.435458,39.000000,0.000000,4326.153809,4346.922852,4256.153809,4299.871582,4347.563965,4360.512695,4368.589844,4555.128418,4538.461426,4561.794922,4498.589844,5666.538574,4305.384766,4254.615234,0.000000,4.000000,75.000000,,,,0.000000,0.000000,0.000000,0.000000,0.000000,0.000000,0.000000,0.000000,0.000000,0.000000,0.000000,0.000000,0.000000,0.000000,0.000000,0.000000,,,,,,,,,,,,,,,,,,,,,,,,,,,,,,,,,,,,,,,,,,,,,,,,,,,,,,,,,,,,,,,,,,,,,,,,,,,,,,,,,,,,,,,,,,,,,,,,,,,,,,,,,,,,,,,,,,,,,,,,,,,,,,,,,
1738755282.442454,1738755282.443266,40.000000,0.000000,4322.179688,4351.410156,4252.563965,4301.410156,4347.563965,4359.743652,4369.230957,4552.307617,4539.230957,4561.025879,4496.922852,5662.179688,4311.153809,4255.128418,0.000000,4.000000,75.000000,,,,0.000000,0.000000,0.000000,0.000000,0.000000,0.000000,0.000000,0.000000,0.000000,0.000000,0.000000,0.000000,0.000000,0.000000,0.000000,0.000000,,,,,,,,,,,,,,,,,10.000000,0.000000,0.786020,-0.614685,-0.060852,0.025146,0.066414,-0.977658,0.230497,4.692482,-15.065812,22.842575,,,,,,,,,,,,,,,,,,,,,,,,,,,,,,,,,,,,,,,,,,,,,,,,,,,,,,,,,,,,,,,,,,,,,,,,,,,,,,,,,,,,,,,,,,,,,,,,,,,,,
1738755282.450263,1738755282.451174,41.000000,0.000000,4318.974121,4351.538574,4252.179688,4303.974121,4355.256348,4361.282227,4367.948730,4551.282227,4538.461426,4558.077148,4497.307617,5663.717773,4309.358887,4253.333496,0.000000,4.000000,75.000000,,,,0.000000,0.000000,0.000000,0.000000,0.000000,0.000000,0.000000,0.000000,0.000000,0.000000,0.000000,0.000000,0.000000,0.000000,0.000000,0.000000,,,,,,,,,,,,,,,,,,,,,,,,,,,,,,,,,,,,,,,,,,,,,,,,,,,,,,,,,,,,,,,,,,,,,,,,,,,,,,,,,,,,,,,,,,,,,,,,,,,,,,,,,,,,,,,,,,,,,,,,,,,,,,,,,
1738755282.458071,1738755282.458982,42.000000,0.000000,4322.563965,4349.102539,4255.769043,4301.410156,4352.051270,4361.922852,4367.179688,4552.179688,4539.615234,4558.461426,4497.692383,5663.589844,4309.358887,4256.794922,0.000000,4.000000,75.000000,,,,0.000000,0.000000,0.000000,0.000000,0.000000,0.000000,0.000000,0.000000,0.000000,0.000000,0.000000,0.000000,0.000000,0.000000,0.000000,0.000000,,,,,,,,,,,,,,,,,,,,,,,,,,,,,,,,,,,,,,,,,,,,,,,,,,,,,,,,,,,,,,,,,,,,,,,,,,,,,,,,,,,,,,,,,,,,,,,,,,,,,,,,,,,,,,,,,,,,,,,,,,,,,,,,,
1738755282.465879,1738755282.466890,43.000000,0.000000,4325.512695,4349.743652,4255.256348,4300.641113,4347.307617,4361.153809,4368.589844,4549.358887,4537.692383,4560.769043,4492.436035,5661.666504,4306.794922,4254.487305,0.000000,4.000000,75.000000,,,,0.000000,0.000000,0.000000,0.000000,0.000000,0.000000,0.000000,0.000000,0.000000,0.000000,0.000000,0.000000,0.000000,0.000000,0.000000,0.000000,,,,,,,,,,,,,,,,,,,,,,,,,,,,,,,,,,,,,,,,,,,,,,,,,,,,,,,,,,,,,,,,,,,,,,,,,,,,,,,,,,,,,,,,,,,,,,,,,,,,,,,,,,,,,,,,,,,,,,,,,,,,,,,,,
1738755282.473687,1738755282.474698,44.000000,0.000000,4323.205078,4350.384766,4254.743652,4304.230957,4352.179688,4361.410156,4367.692383,4547.948730,4537.051270,4561.538574,4490.897461,5662.563965,4304.743652,4252.051270,0.000000,4.000000,75.000000,,,,0.000000,0.000000,0.000000,0.000000,0.000000,0.000000,0.000000,0.000000,0.000000,0.000000,0.000000,0.000000,0.000000,0.000000,0.000000,0.000000,,,,,,,,,,,,,,,,,11.000000,0.000000,0.786026,-0.614685,-0.060791,0.025085,0.057136,-0.971798,0.234892,4.673234,-14.959230,22.674984,,,,,,,,,,,,,,,,,,,,,,,,,,,,,,,,,,,,,,,,,,,,,,,,,,,,,,,,,,,,,,,,,,,,,,,,,,,,,,,,,,,,,,,,,,,,,,,,,,,,,
1738755282.481495,1738755282.482606,45.000000,0.000000,4320.384766,4349.487305,4255.897461,4303.589844,4353.717773,4361.538574,4367.051270,4550.897461,4541.410156,4560.256348,4496.666504,5662.307617,4309.487305,4259.358887,0.000000,4.000000,75.000000,,,,0.000000,0.000000,0.000000,0.000000,0.000000,0.000000,0.000000,0.000000,0.000000,0.000000,0.000000,0.000000,0.000000,0.000000,0.000000,0.000000,,,,,,,,,,,,,,,,,,,,,,,,,,,,,,,,,,,,,,,,,,,,,,,,,,,,,,,,,,,,,,,,,,,,,,,,,,,,,,,,,,,,,,,,,,,,,,,,,,,,,,,,,,,,,,,,,,,,,,,,,,,,,,,,,
1738755282.489303,1738755282.490415,46.000000,0.000000,4322.820313,4348.589844,4254.487305,4300.897461,4351.025879,4360.384766,4369.871582,4553.974121,4540.897461,4559.871582,4496.538574,5663.846191,4306.025879,4256.538574,0.000000,4.000000,75.000000,,,,0.000000,0.000000,0.000000,0.000000,0.000000,0.000000,0.000000,0.000000,0.000000,0.000000,0.000000,0.000000,0.000000,0.000000,0.000000,0.000000,,,,,,,,,,,,,,,,,,,,,,,,,,,,,,,,,,,,,,,,,,,,,,,,,,,,,,,,,,,,0.014769,0.026727,0.015683,0.012084,0.021422,0.025751,0.020684,0.034374,0.017675,0.030088,0.029475,0.033521,0.029303,0.021885,0.019038,0.018359,0.021616,0.027112,0.026306,0.026986,0.046785,0.034278,0.045285,0.024050,0.024850,0.017479,0.013860,0.006298,0.016740,0.019047,0.021751,0.016292,0.017208,0.033720,0.040681,0.047756,0.022032,0.036282,0.027332,0.020913,0.008160,0.013009,0.026425,0.020212,0.019072,0.017002,0.017559,0.026030,0.021985,0.030485,0.007687,0.047584,0.028642,0.038799,0.027322,0.027279,0.041016,0.019825,0.015883,0.025942,0.023295,0.022320,0.068257,0.027986,0.053739,0.039858,0.014431,0.036260,0.039340,0.024624
1738755282.497111,1738755282.498123,47.000000,0.000000,4325.128418,4350.641113,4252.436035,4300.256348,4354.615234,4360.256348,4367.692383,4551.922852,4538.589844,4561.153809,4495.512695,5662.692383,4307.563965,4252.307617,0.000000,4.000000,75.000000,,,,0.000000,0.000000,0.000000,0.000000,0.000000,0.000000,0.000000,0.000000,0.000000,0.000000,0.000000,0.000000,0.000000,0.000000,0.000000,0.000000,,,,,,,,,,,,,,,,,,,,,,,,,,,,,,,,,,,,,,,,,,,,,,,,,,,,,,,,,,,,,,,,,,,,,,,,,,,,,,,,,,,,,,,,,,,,,,,,,,,,,,,,,,,,,,,,,,,,,,,,,,,,,,,,,
1738755282.504919,1738755282.505931,48.000000,0.000000,4323.333496,4351.025879,4253.717773,4302.948730,4355.256348,4360.128418,4365.641113,4550.897461,4537.948730,4559.230957,4498.461426,5663.205078,4310.000000,4257.307617,0.000000,4.000000,75.000000,,,,0.000000,0.000000,0.000000,0.000000,0.000000,0.000000,0.000000,0.000000,0.000000,0.000000,0.000000,0.000000,0.000000,0.000000,0.000000,0.000000,,,,,,,,,,,,,,,,,12.000000,0.000000,0.785977,-0.614746,-0.060791,0.025146,0.056159,-0.984495,0.237334,4.705910,-14.946641,22.607487,,,,,,,,,,,,,,,,,,,,,,,,,,,,,,,,,,,,,,,,,,,,,,,,,,,,,,,,,,,,,,,,,,,,,,,,,,,,,,,,,,,,,,,,,,,,,,,,,,,,,
1738755282.512727,1738755282.513639,49.000000,0.000000,4320.897461,4348.333496,4254.358887,4303.846191,4350.128418,4359.230957,4367.563965,4553.333496,4536.794922,4558.205078,4498.974121,5664.743652,4306.794922,4259.743652,0.000000,4.000000,75.000000,,,,0.000000,0.000000,0.000000,0.000000,0.000000,0.000000,0.000000,0.000000,0.000000,0.000000,0.000000,0.000000,0.000000,0.000000,0.000000,0.000000,,,,,,,,,,,,,,,,,,,,,,,,,,,,,,,,,,,,,,,,,,,,,,,,,,,,,,,,,,,,,,,,,,,,,,,,,,,,,,,,,,,,,,,,,,,,,,,,,,,,,,,,,,,,,,,,,,,,,,,,,,,,,,,,,
1738755282.520536,1738755282.521447,50.000000,0.000000,4321.282227,4347.948730,4252.820313,4300.256348,4350.000000,4360.128418,4366.922852,4550.641113,4539.743652,4559.487305,4498.461426,5661.153809,4311.538574,4257.820313,0.000000,4.000000,75.000000,,,,0.000000,0.000000,0.000000,0.000000,0.000000,0.000000,0.000000,0.000000,0.000000,0.000000,0.000000,0.000000,0.000000,0.000000,0.000000,0.000000,,,,,,,,,,,,,,,,,,,,,,,,,,,,,,,,,,,,,,,,,,,,,,,,,,,,,,,,,,,,,,,,,,,,,,,,,,,,,,,,,,,,,,,,,,,,,,,,,,,,,,,,,,,,,,,,,,,,,,,,,,,,,,,,,
1738755282.528344,1738755282.529155,51.000000,0.000000,4323.974121,4348.461426,4254.358887,4303.333496,4352.820313,4361.794922,4366.666504,4548.205078,4540.641113,4558.589844,4495.769043,5662.436035,4312.051270,4253.461426,0.000000,4.000000,75.000000,,,,0.000000,0.000000,0.000000,0.000000,0.000000,0.000000,0.000000,0.000000,0.000000,0.000000,0.000000,0.000000,0.000000,0.000000,0.000000,0.000000,,,,,,,,,,,,,,,,,,,,,,,,,,,,,,,,,,,,,,,,,,,,,,,,,,,,,,,,,,,,,,,,,,,,,,,,,,,,,,,,,,,,,,,,,,,,,,,,,,,,,,,,,,,,,,,,,,,,,,,,,,,,,,,,,
1738755282.536152,1738755282.536963,52.000000,0.000000,4324.871582,4348.205078,4256.282227,4304.102539,4352.307617,4361.153809,4365.000000,4549.871582,4538.974121,4558.846191,4495.256348,5665.000000,4308.717773,4252.436035,0.000000,4.000000,75.000000,,,,0.000000,0.000000,0.000000,0.000000,0.000000,0.000000,0.000000,0.000000,0.000000,0.000000,0.000000,0.000000,0.000000,0.000000,0.000000,0.000000,,,,,,,,,,,,,,,,,13.000000,0.000000,0.785977,-0.614746,-0.060791,0.025146,0.062508,-0.982542,0.231474,4.801986,-15.101976,22.613403,,,,,,,,,,,,,,,,,,,,,,,,,,,,,,,,,,,,,,,,,,,,,,,,,,,,,,,,,,,,,,,,,,,,,,,,,,,,,,,,,,,,,,,,,,,,,,,,,,,,,
1738755282.543960,1738755282.544671,53.000000,0.000000,4321.410156,4348.717773,4255.128418,4299.743652,4354.102539,4360.384766,4364.102539,4551.153809,4538.974121,4561.282227,4498.333496,5666.410156,4307.948730,4253.077148,0.000000,4.000000,75.000000,,,,0.000000,0.000000,0.000000,0.000000,0.000000,0.000000,0.000000,0.000000,0.000000,0.000000,0.000000,0.000000,0.000000,0.000000,0.000000,0.000000,,,,,,,,,,,,,,,,,,,,,,,,,,,,,,,,,,,,,,,,,,,,,,,,,,,,,,,,,,,,,,,,,,,,,,,,,,,,,,,,,,,,,,,,,,,,,,,,,,,,,,,,,,,,,,,,,,,,,,,,,,,,,,,,,
1738755282.551768,1738755282.552479,54.000000,0.000000,4318.974121,4348.974121,4254.487305,4300.769043,4356.153809,4361.282227,4368.846191,4552.179688,4538.333496,4561.538574,4499.358887,5666.153809,4309.358887,4252.692383,0.000000,4.000000,75.000000,,,,0.000000,0.000000,0.000000,0.000000,0.000000,0.000000,0.000000,0.000000,0.000000,0.000000,0.000000,0.000000,0.000000,0.000000,0.000000,0.000000,,,,,,,,,,,,,,,,,,,,,,,,,,,,,,,,,,,,,,,,,,,,,,,,,,,,,,,,,,,,,,,,,,,,,,,,,,,,,,,,,,,,,,,,,,,,,,,,,,,,,,,,,,,,,,,,,,,,,,,,,,,,,,,,,
1738755282.559576,1738755282.560187,55.000000,0.000000,4319.230957,4350.384766,4255.512695,4302.820313,4352.692383,4361.025879,4368.717773,4551.794922,4538.589844,4560.128418,4496.922852,5661.922852,4312.051270,4256.153809,0.000000,4.000000,75.000000,,,,0.000000,0.000000,0.000000,0.000000,0.000000,0.000000,0.000000,0.000000,0.000000,0.000000,0.000000,0.000000,0.000000,0.000000,0.000000,0.000000,,,,,,,,,,,,,,,,,,,,,,,,,,,,,,,,,,,,,,,,,,,,,,,,,,,,,,,,,,,,,,,,,,,,,,,,,,,,,,,,,,,,,,,,,,,,,,,,,,,,,,,,,,,,,,,,,,,,,,,,,,,,,,,,,
1738755282.567384,1738755282.567995,56.000000,0.000000,4318.974121,4349.230957,4254.615234,4304.358887,4352.563965,4359.871582,4365.769043,4553.589844,4538.205078,4558.974121,4495.128418,5664.102539,4306.153809,4255.256348,0.000000,4.000000,75.000000,,,,0.000000,0.000000,0.000000,0.000000,0.000000,0.000000,0.000000,0.000000,0.000000,0.000000,0.000000,0.000000,0.000000,0.000000,0.000000,0.000000,,,,,,,,,,,,,,,,,,,,,,,,,,,,,,,,,,,,,,,,,,,,,,,,,,,,,,,,,,,,,,,,,,,,,,,,,,,,,,,,,,,,,,,,,,,,,,,,,,,,,,,,,,,,,,,,,,,,,,,,,,,,,,,,,
