title:bread1, start timestamp:1737283273.265769, stop timestamp:1737283276.295308, headset type:EPOCX, headset serial:E50208A5, headset firmware:720, channels:168, sampling rate:eeg_128;mot_32;pm_0.1;pow_8, samples:389       , version:2.2, 
Timestamp,OriginalTimestamp,EEG.Counter,EEG.Interpolated,EEG.AF3,EEG.F7,EEG.F3,EEG.FC5,EEG.T7,EEG.P7,EEG.O1,EEG.O2,EEG.P8,EEG.T8,EEG.FC6,EEG.F4,EEG.F8,EEG.AF4,EEG.RawCq,EEG.Battery,EEG.BatteryPercent,MarkerIndex,MarkerType,MarkerValueInt,EEG.MarkerHardware,CQ.AF3,CQ.F7,CQ.F3,CQ.FC5,CQ.T7,CQ.P7,CQ.O1,CQ.O2,CQ.P8,CQ.T8,CQ.FC6,CQ.F4,CQ.F8,CQ.AF4,CQ.Overall,EQ.SampleRateQuality,EQ.OVERALL,EQ.AF3,EQ.F7,EQ.F3,EQ.FC5,EQ.T7,EQ.P7,EQ.O1,EQ.O2,EQ.P8,EQ.T8,EQ.FC6,EQ.F4,EQ.F8,EQ.AF4,MOT.CounterMems,MOT.InterpolatedMems,MOT.Q0,MOT.Q1,MOT.Q2,MOT.Q3,MOT.AccX,MOT.AccY,MOT.AccZ,MOT.MagX,MOT.MagY,MOT.MagZ,PM.Attention.IsActive,PM.Attention.Scaled,PM.Attention.Raw,PM.Attention.Min,PM.Attention.Max,PM.Engagement.IsActive,PM.Engagement.Scaled,PM.Engagement.Raw,PM.Engagement.Min,PM.Engagement.Max,PM.Excitement.IsActive,PM.Excitement.Scaled,PM.Excitement.Raw,PM.Excitement.Min,PM.Excitement.Max,PM.LongTermExcitement,PM.Stress.IsActive,PM.Stress.Scaled,PM.Stress.Raw,PM.Stress.Min,PM.Stress.Max,PM.Relaxation.IsActive,PM.Relaxation.Scaled,PM.Relaxation.Raw,PM.Relaxation.Min,PM.Relaxation.Max,PM.Interest.IsActive,PM.Interest.Scaled,PM.Interest.Raw,PM.Interest.Min,PM.Interest.Max,POW.AF3.Theta,POW.AF3.Alpha,POW.AF3.BetaL,POW.AF3.BetaH,POW.AF3.Gamma,POW.F7.Theta,POW.F7.Alpha,POW.F7.BetaL,POW.F7.BetaH,POW.F7.Gamma,POW.F3.Theta,POW.F3.Alpha,POW.F3.BetaL,POW.F3.BetaH,POW.F3.Gamma,POW.FC5.Theta,POW.FC5.Alpha,POW.FC5.BetaL,POW.FC5.BetaH,POW.FC5.Gamma,POW.T7.Theta,POW.T7.Alpha,POW.T7.BetaL,POW.T7.BetaH,POW.T7.Gamma,POW.P7.Theta,POW.P7.Alpha,POW.P7.BetaL,POW.P7.BetaH,POW.P7.Gamma,POW.O1.Theta,POW.O1.Alpha,POW.O1.BetaL,POW.O1.BetaH,POW.O1.Gamma,POW.O2.Theta,POW.O2.Alpha,POW.O2.BetaL,POW.O2.BetaH,POW.O2.Gamma,POW.P8.Theta,POW.P8.Alpha,POW.P8.BetaL,POW.P8.BetaH,POW.P8.Gamma,POW.T8.Theta,POW.T8.Alpha,POW.T8.BetaL,POW.T8.BetaH,POW.T8.Gamma,POW.FC6.Theta,POW.FC6.Alpha,POW.FC6.BetaL,POW.FC6.BetaH,POW.FC6.Gamma,POW.F4.Theta,POW.F4.Alpha,POW.F4.BetaL,POW.F4.BetaH,POW.F4.Gamma,POW.F8.Theta,POW.F8.Alpha,POW.F8.BetaL,POW.F8.BetaH,POW.F8.Gamma,POW.AF4.Theta,POW.AF4.Alpha,POW.AF4.BetaL,POW.AF4.BetaH,POW.AF4.Gamma
1737283273.265769,1737283273.266042,107.000000,0.000000,4331.666504,4351.922852,4268.974121,4324.102539,4354.615234,4360.256348,4364.615234,4553.846191,4551.666504,4560.000000,4497.692383,5638.333496,4306.282227,4264.871582,0.000000,2.000000,35.000000,,,,0.000000,0.000000,0.000000,0.000000,0.000000,0.000000,0.000000,0.000000,0.000000,0.000000,0.000000,0.000000,0.000000,0.000000,0.000000,0.000000,,,,,,,,,,,,,,,,,,,,,,,,,,,,,,,,,,,,,,,,,,,,,,,,,,,,,,,,,,,,,,,,,,,,,,,,,,,,,,,,,,,,,,,,,,,,,,,,,,,,,,,,,,,,,,,,,,,,,,,,,,,,,,,,,
1737283273.273577,1737283273.273950,108.000000,0.000000,4328.333496,4350.128418,4270.000000,4317.436035,4354.230957,4358.077148,4367.948730,4552.436035,4552.692383,4562.179688,4495.256348,5633.333496,4304.230957,4258.205078,0.000000,2.000000,35.000000,,,,0.000000,0.000000,0.000000,0.000000,0.000000,0.000000,0.000000,0.000000,0.000000,0.000000,0.000000,0.000000,0.000000,0.000000,0.000000,0.000000,1.000000,0.000000,0.000000,0.000000,0.000000,0.000000,0.000000,0.000000,0.000000,0.000000,0.000000,0.000000,0.000000,0.000000,0.000000,0.000000,27.000000,0.000000,0.658685,-0.750488,0.022217,0.049072,-0.105970,-0.983030,-0.127457,15.203488,-31.183697,16.530190,,,,,,,,,,,,,,,,,,,,,,,,,,,,,,,,0.039313,0.049198,0.083310,0.038767,0.036327,0.021259,0.010290,0.019428,0.011657,0.029215,0.013961,0.020447,0.024797,0.034650,0.030137,0.021359,0.030633,0.035202,0.036399,0.040991,0.014120,0.015405,0.014452,0.028977,0.025083,0.021192,0.026439,0.020370,0.021409,0.019726,0.057798,0.021833,0.013810,0.029878,0.028457,0.035264,0.020688,0.015643,0.032200,0.017757,0.012967,0.012626,0.010031,0.013654,0.013964,0.031967,0.036917,0.048271,0.045281,0.027884,0.032456,0.016274,0.030422,0.020739,0.021270,0.046899,0.011026,0.026069,0.027967,0.026972,0.053275,0.095454,0.032519,0.021077,0.022656,0.103543,0.066423,0.038694,0.024066,0.024385
1737283273.281385,1737283273.281758,109.000000,0.000000,4335.769043,4352.563965,4275.128418,4318.846191,4354.615234,4360.256348,4362.179688,4553.461426,4551.153809,4561.153809,4497.179688,5641.410156,4309.487305,4266.538574,0.000000,2.000000,35.000000,,,,0.000000,0.000000,0.000000,0.000000,0.000000,0.000000,0.000000,0.000000,0.000000,0.000000,0.000000,0.000000,0.000000,0.000000,0.000000,0.000000,,,,,,,,,,,,,,,,,,,,,,,,,,,,,,,,,,,,,,,,,,,,,,,,,,,,,,,,,,,,,,,,,,,,,,,,,,,,,,,,,,,,,,,,,,,,,,,,,,,,,,,,,,,,,,,,,,,,,,,,,,,,,,,,,
1737283273.289193,1737283273.289466,110.000000,0.000000,4333.205078,4351.153809,4266.666504,4320.769043,4354.871582,4362.179688,4367.307617,4555.897461,4551.410156,4559.487305,4492.307617,5636.025879,4306.153809,4258.333496,0.000000,2.000000,35.000000,,,,0.000000,0.000000,0.000000,0.000000,0.000000,0.000000,0.000000,0.000000,0.000000,0.000000,0.000000,0.000000,0.000000,0.000000,0.000000,0.000000,,,,,,,,,,,,,,,,,,,,,,,,,,,,,,,,,,,,,,,,,,,,,,,,,,,,,,,,,,,,,,,,,,,,,,,,,,,,,,,,,,,,,,,,,,,,,,,,,,,,,,,,,,,,,,,,,,,,,,,,,,,,,,,,,
1737283273.297001,1737283273.297274,111.000000,0.000000,4332.692383,4352.436035,4269.871582,4322.051270,4356.282227,4360.000000,4365.512695,4553.461426,4552.436035,4557.948730,4495.384766,5636.410156,4307.051270,4261.666504,0.000000,2.000000,35.000000,,,,0.000000,0.000000,0.000000,0.000000,0.000000,0.000000,0.000000,0.000000,0.000000,0.000000,0.000000,0.000000,0.000000,0.000000,0.000000,0.000000,,,,,,,,,,,,,,,,,,,,,,,,,,,,,,,,,,,,,,,,,,,,,,,,,,,,,,,,,,,,,,,,,,,,,,,,,,,,,,,,,,,,,,,,,,,,,,,,,,,,,,,,,,,,,,,,,,,,,,,,,,,,,,,,,
1737283273.304809,1737283273.304982,112.000000,0.000000,4334.230957,4350.000000,4272.948730,4321.922852,4353.333496,4359.871582,4361.922852,4553.333496,4551.922852,4557.948730,4497.179688,5640.512695,4307.948730,4266.666504,0.000000,2.000000,35.000000,,,,0.000000,0.000000,0.000000,0.000000,0.000000,0.000000,0.000000,0.000000,0.000000,0.000000,0.000000,0.000000,0.000000,0.000000,0.000000,0.000000,,,,,,,,,,,,,,,,,28.000000,0.000000,0.658611,-0.750549,0.022339,0.049072,-0.113295,-0.985472,-0.125504,15.233140,-31.181993,16.660505,,,,,,,,,,,,,,,,,,,,,,,,,,,,,,,,,,,,,,,,,,,,,,,,,,,,,,,,,,,,,,,,,,,,,,,,,,,,,,,,,,,,,,,,,,,,,,,,,,,,,
1737283273.312618,1737283273.312790,113.000000,0.000000,4331.922852,4347.179688,4265.897461,4320.769043,4351.025879,4363.717773,4369.230957,4557.948730,4552.307617,4561.666504,4490.897461,5637.051270,4303.333496,4257.307617,0.000000,2.000000,35.000000,,,,0.000000,0.000000,0.000000,0.000000,0.000000,0.000000,0.000000,0.000000,0.000000,0.000000,0.000000,0.000000,0.000000,0.000000,0.000000,0.000000,,,,,,,,,,,,,,,,,,,,,,,,,,,,,,,,,,,,,,,,,,,,,,,,,,,,,,,,,,,,,,,,,,,,,,,,,,,,,,,,,,,,,,,,,,,,,,,,,,,,,,,,,,,,,,,,,,,,,,,,,,,,,,,,,
1737283273.320426,1737283273.320498,114.000000,0.000000,4336.282227,4353.717773,4271.922852,4323.461426,4354.230957,4363.205078,4368.461426,4556.025879,4553.077148,4562.948730,4497.051270,5644.615234,4305.641113,4264.871582,0.000000,2.000000,35.000000,,,,0.000000,0.000000,0.000000,0.000000,0.000000,0.000000,0.000000,0.000000,0.000000,0.000000,0.000000,0.000000,0.000000,0.000000,0.000000,0.000000,,,,,,,,,,,,,,,,,,,,,,,,,,,,,,,,,,,,,,,,,,,,,,,,,,,,,,,,,,,,,,,,,,,,,,,,,,,,,,,,,,,,,,,,,,,,,,,,,,,,,,,,,,,,,,,,,,,,,,,,,,,,,,,,,
1737283273.328234,1737283273.328306,115.000000,0.000000,4332.820313,4350.384766,4269.230957,4319.871582,4353.717773,4362.563965,4370.128418,4553.205078,4551.922852,4559.230957,4497.179688,5638.077148,4299.102539,4259.743652,0.000000,2.000000,35.000000,,,,0.000000,0.000000,0.000000,0.000000,0.000000,0.000000,0.000000,0.000000,0.000000,0.000000,0.000000,0.000000,0.000000,0.000000,0.000000,0.000000,,,,,,,,,,,,,,,,,,,,,,,,,,,,,,,,,,,,,,,,,,,,,,,,,,,,,,,,,,,,,,,,,,,,,,,,,,,,,,,,,,,,,,,,,,,,,,,,,,,,,,,,,,,,,,,,,,,,,,,,,,,,,,,,,
1737283273.336042,1737283273.336014,116.000000,0.000000,4332.692383,4349.102539,4268.589844,4320.512695,4352.948730,4361.666504,4367.948730,4553.974121,4550.128418,4557.563965,4494.487305,5636.025879,4301.794922,4262.307617,0.000000,2.000000,35.000000,,,,0.000000,0.000000,0.000000,0.000000,0.000000,0.000000,0.000000,0.000000,0.000000,0.000000,0.000000,0.000000,0.000000,0.000000,0.000000,0.000000,,,,,,,,,,,,,,,,,29.000000,0.000000,0.658618,-0.750549,0.022278,0.049011,-0.096691,-0.979123,-0.128434,15.393159,-31.180462,16.611120,,,,,,,,,,,,,,,,,,,,,,,,,,,,,,,,,,,,,,,,,,,,,,,,,,,,,,,,,,,,,,,,,,,,,,,,,,,,,,,,,,,,,,,,,,,,,,,,,,,,,
1737283273.343850,1737283273.343822,117.000000,0.000000,4334.871582,4353.717773,4272.948730,4324.358887,4354.230957,4360.769043,4364.615234,4554.230957,4551.025879,4559.487305,4496.153809,5641.666504,4309.615234,4269.871582,0.000000,2.000000,35.000000,,,,0.000000,0.000000,0.000000,0.000000,0.000000,0.000000,0.000000,0.000000,0.000000,0.000000,0.000000,0.000000,0.000000,0.000000,0.000000,0.000000,,,,,,,,,,,,,,,,,,,,,,,,,,,,,,,,,,,,,,,,,,,,,,,,,,,,,,,,,,,,,,,,,,,,,,,,,,,,,,,,,,,,,,,,,,,,,,,,,,,,,,,,,,,,,,,,,,,,,,,,,,,,,,,,,
1737283273.351658,1737283273.351530,118.000000,0.000000,4328.717773,4351.153809,4267.307617,4322.051270,4354.615234,4362.436035,4369.358887,4553.717773,4551.666504,4560.128418,4494.743652,5635.384766,4302.051270,4258.077148,0.000000,2.000000,35.000000,,,,0.000000,0.000000,0.000000,0.000000,0.000000,0.000000,0.000000,0.000000,0.000000,0.000000,0.000000,0.000000,0.000000,0.000000,0.000000,0.000000,,,,,,,,,,,,,,,,,,,,,,,,,,,,,,,,,,,,,,,,,,,,,,,,,,,,,,,,,,,,,,,,,,,,,,,,,,,,,,,,,,,,,,,,,,,,,,,,,,,,,,,,,,,,,,,,,,,,,,,,,,,,,,,,,
1737283273.359466,1737283273.359338,119.000000,0.000000,4332.051270,4351.794922,4272.051270,4324.487305,4355.641113,4361.666504,4366.025879,4550.897461,4550.000000,4560.256348,4499.230957,5641.794922,4304.615234,4266.025879,0.000000,2.000000,35.000000,,,,0.000000,0.000000,0.000000,0.000000,0.000000,0.000000,0.000000,0.000000,0.000000,0.000000,0.000000,0.000000,0.000000,0.000000,0.000000,0.000000,,,,,,,,,,,,,,,,,,,,,,,,,,,,,,,,,,,,,,,,,,,,,,,,,,,,,,,,,,,,,,,,,,,,,,,,,,,,,,,,,,,,,,,,,,,,,,,,,,,,,,,,,,,,,,,,,,,,,,,,,,,,,,,,,
1737283273.367274,1737283273.367046,120.000000,0.000000,4333.974121,4350.641113,4271.666504,4322.820313,4356.282227,4361.410156,4368.333496,4553.589844,4551.538574,4558.846191,4494.743652,5640.000000,4304.871582,4263.974121,0.000000,2.000000,35.000000,,,,0.000000,0.000000,0.000000,0.000000,0.000000,0.000000,0.000000,0.000000,0.000000,0.000000,0.000000,0.000000,0.000000,0.000000,0.000000,0.000000,,,,,,,,,,,,,,,,,30.000000,0.000000,0.658761,-0.750427,0.022278,0.048950,-0.101087,-0.986937,-0.128434,15.320510,-31.229082,16.650009,,,,,,,,,,,,,,,,,,,,,,,,,,,,,,,,,,,,,,,,,,,,,,,,,,,,,,,,,,,,,,,,,,,,,,,,,,,,,,,,,,,,,,,,,,,,,,,,,,,,,
1737283273.375082,1737283273.374854,121.000000,0.000000,4332.436035,4351.282227,4268.846191,4321.025879,4355.384766,4362.307617,4367.307617,4557.307617,4553.077148,4557.307617,4492.051270,5637.307617,4304.487305,4260.000000,0.000000,2.000000,35.000000,,,,0.000000,0.000000,0.000000,0.000000,0.000000,0.000000,0.000000,0.000000,0.000000,0.000000,0.000000,0.000000,0.000000,0.000000,0.000000,0.000000,,,,,,,,,,,,,,,,,,,,,,,,,,,,,,,,,,,,,,,,,,,,,,,,,,,,,,,,,,,,,,,,,,,,,,,,,,,,,,,,,,,,,,,,,,,,,,,,,,,,,,,,,,,,,,,,,,,,,,,,,,,,,,,,,
1737283273.382890,1737283273.382562,122.000000,0.000000,4333.974121,4355.128418,4272.948730,4326.153809,4354.358887,4361.666504,4363.205078,4555.769043,4551.794922,4557.179688,4498.589844,5643.846191,4307.307617,4268.717773,0.000000,2.000000,35.000000,,,,0.000000,0.000000,0.000000,0.000000,0.000000,0.000000,0.000000,0.000000,0.000000,0.000000,0.000000,0.000000,0.000000,0.000000,0.000000,0.000000,,,,,,,,,,,,,,,,,,,,,,,,,,,,,,,,,,,,,,,,,,,,,,,,,,,,,,,,,,,,,,,,,,,,,,,,,,,,,,,,,,,,,,,,,,,,,,,,,,,,,,,,,,,,,,,,,,,,,,,,,,,,,,,,,
1737283273.390699,1737283273.390470,123.000000,0.000000,4330.641113,4350.769043,4267.436035,4325.256348,4353.974121,4360.769043,4372.692383,4553.333496,4552.563965,4556.794922,4495.384766,5634.743652,4300.000000,4259.102539,0.000000,2.000000,35.000000,,,,0.000000,0.000000,0.000000,0.000000,0.000000,0.000000,0.000000,0.000000,0.000000,0.000000,0.000000,0.000000,0.000000,0.000000,0.000000,0.000000,,,,,,,,,,,,,,,,,,,,,,,,,,,,,,,,,,,,,,,,,,,,,,,,,,,,,,,,,,,,,,,,,,,,,,,,,,,,,,,,,,,,,,,,,,,,,,,,,,,,,,,,,,,,,,,,,,,,,,,,,,,,,,,,,
1737283273.398507,1737283273.398279,124.000000,0.000000,4333.589844,4351.666504,4271.538574,4324.743652,4355.000000,4357.692383,4368.589844,4549.743652,4552.436035,4559.102539,4496.282227,5639.102539,4302.307617,4262.948730,0.000000,2.000000,35.000000,,,,0.000000,0.000000,0.000000,0.000000,0.000000,0.000000,0.000000,0.000000,0.000000,0.000000,0.000000,0.000000,0.000000,0.000000,0.000000,0.000000,,,,,,,,,,,,,,,,,31.000000,0.000000,0.658757,-0.750427,0.022400,0.048950,-0.106947,-0.983030,-0.123550,15.238459,-31.206175,16.701675,,,,,,,,,,,,,,,,,,,,,,,,,,,,,,,,0.047080,0.045268,0.099149,0.043253,0.034714,0.020393,0.013107,0.020009,0.013026,0.032651,0.014617,0.022016,0.021094,0.030296,0.031856,0.024079,0.034616,0.025344,0.030965,0.031813,0.019567,0.015533,0.017197,0.025793,0.022804,0.017517,0.021785,0.017313,0.021857,0.018853,0.052629,0.028059,0.010127,0.029323,0.026978,0.040048,0.023898,0.013435,0.029873,0.016484,0.012244,0.011073,0.008508,0.013127,0.014722,0.026083,0.033795,0.044487,0.048664,0.024175,0.029514,0.019498,0.021979,0.019319,0.021320,0.046242,0.011735,0.029162,0.026806,0.022539,0.049544,0.086983,0.032622,0.024430,0.023548,0.092317,0.070730,0.037531,0.028690,0.027005
1737283273.406315,1737283273.406187,125.000000,0.000000,4332.307617,4353.077148,4271.922852,4319.358887,4354.102539,4358.077148,4364.743652,4552.948730,4550.769043,4561.538574,4497.051270,5641.282227,4301.153809,4261.538574,0.000000,2.000000,35.000000,,,,0.000000,0.000000,0.000000,0.000000,0.000000,0.000000,0.000000,0.000000,0.000000,0.000000,0.000000,0.000000,0.000000,0.000000,0.000000,0.000000,,,,,,,,,,,,,,,,,,,,,,,,,,,,,,,,,,,,,,,,,,,,,,,,,,,,,,,,,,,,,,,,,,,,,,,,,,,,,,,,,,,,,,,,,,,,,,,,,,,,,,,,,,,,,,,,,,,,,,,,,,,,,,,,,
1737283273.414123,1737283273.413995,126.000000,0.000000,4331.794922,4350.000000,4268.205078,4315.256348,4352.051270,4361.025879,4367.436035,4556.282227,4550.000000,4561.410156,4495.512695,5635.256348,4296.794922,4257.948730,0.000000,2.000000,35.000000,,,,0.000000,0.000000,0.000000,0.000000,0.000000,0.000000,0.000000,0.000000,0.000000,0.000000,0.000000,0.000000,0.000000,0.000000,0.000000,0.000000,,,,,,,,,,,,,,,,,,,,,,,,,,,,,,,,,,,,,,,,,,,,,,,,,,,,,,,,,,,,,,,,,,,,,,,,,,,,,,,,,,,,,,,,,,,,,,,,,,,,,,,,,,,,,,,,,,,,,,,,,,,,,,,,,
1737283273.421931,1737283273.421903,127.000000,0.000000,4336.666504,4350.769043,4275.256348,4322.563965,4352.051270,4361.666504,4363.461426,4550.769043,4549.487305,4561.025879,4498.333496,5640.128418,4304.230957,4269.102539,35.000000,2.000000,35.000000,,,,0.000000,0.000000,0.000000,0.000000,0.000000,0.000000,0.000000,0.000000,0.000000,0.000000,0.000000,0.000000,0.000000,0.000000,0.000000,0.000000,,,,,,,,,,,,,,,,,,,,,,,,,,,,,,,,,,,,,,,,,,,,,,,,,,,,,,,,,,,,,,,,,,,,,,,,,,,,,,,,,,,,,,,,,,,,,,,,,,,,,,,,,,,,,,,,,,,,,,,,,,,,,,,,,
1737283273.429739,1737283273.429711,0.000000,0.000000,4330.384766,4347.948730,4270.128418,4323.333496,4352.436035,4361.538574,4366.538574,4550.384766,4550.512695,4559.102539,4492.563965,5633.717773,4301.025879,4258.461426,0.000000,2.000000,35.000000,,,,0.000000,0.000000,0.000000,0.000000,0.000000,0.000000,0.000000,0.000000,0.000000,0.000000,0.000000,0.000000,0.000000,0.000000,0.000000,0.000000,,,,,,,,,,,,,,,,,0.000000,0.000000,0.658753,-0.750427,0.022400,0.049011,-0.104017,-0.989379,-0.125992,15.247947,-31.135557,16.631508,,,,,,,,,,,,,,,,,,,,,,,,,,,,,,,,,,,,,,,,,,,,,,,,,,,,,,,,,,,,,,,,,,,,,,,,,,,,,,,,,,,,,,,,,,,,,,,,,,,,,
1737283273.437547,1737283273.437619,1.000000,0.000000,4332.051270,4351.794922,4270.384766,4324.871582,4353.846191,4360.000000,4363.589844,4551.538574,4550.000000,4558.205078,4494.487305,5636.922852,4301.410156,4261.410156,0.000000,2.000000,35.000000,,,,0.000000,0.000000,0.000000,0.000000,0.000000,0.000000,0.000000,0.000000,0.000000,0.000000,0.000000,0.000000,0.000000,0.000000,0.000000,0.000000,,,,,,,,,,,,,,,,,,,,,,,,,,,,,,,,,,,,,,,,,,,,,,,,,,,,,,,,,,,,,,,,,,,,,,,,,,,,,,,,,,,,,,,,,,,,,,,,,,,,,,,,,,,,,,,,,,,,,,,,,,,,,,,,,
1737283273.445355,1737283273.445427,2.000000,0.000000,4335.128418,4354.230957,4273.589844,4325.641113,4354.358887,4358.846191,4363.846191,4552.563965,4549.743652,4558.846191,4500.256348,5640.769043,4306.666504,4265.769043,0.000000,2.000000,35.000000,,,,0.000000,0.000000,0.000000,0.000000,0.000000,0.000000,0.000000,0.000000,0.000000,0.000000,0.000000,0.000000,0.000000,0.000000,0.000000,0.000000,,,,,,,,,,,,,,,,,,,,,,,,,,,,,,,,,,,,,,,,,,,,,,,,,,,,,,,,,,,,,,,,,,,,,,,,,,,,,,,,,,,,,,,,,,,,,,,,,,,,,,,,,,,,,,,,,,,,,,,,,,,,,,,,,
1737283273.453163,1737283273.453335,3.000000,0.000000,4332.436035,4349.871582,4269.743652,4319.871582,4353.974121,4357.436035,4368.461426,4555.256348,4551.922852,4558.974121,4497.820313,5634.230957,4305.641113,4260.769043,0.000000,2.000000,35.000000,,,,0.000000,0.000000,0.000000,0.000000,0.000000,0.000000,0.000000,0.000000,0.000000,0.000000,0.000000,0.000000,0.000000,0.000000,0.000000,0.000000,,,,,,,,,,,,,,,,,,,,,,,,,,,,,,,,,,,,,,,,,,,,,,,,,,,,,,,,,,,,,,,,,,,,,,,,,,,,,,,,,,,,,,,,,,,,,,,,,,,,,,,,,,,,,,,,,,,,,,,,,,,,,,,,,
1737283273.460971,1737283273.461143,4.000000,0.000000,4335.897461,4352.307617,4273.077148,4320.512695,4355.769043,4355.641113,4361.153809,4552.179688,4552.563965,4558.846191,4498.333496,5641.153809,4306.922852,4271.666504,0.000000,2.000000,35.000000,,,,0.000000,0.000000,0.000000,0.000000,0.000000,0.000000,0.000000,0.000000,0.000000,0.000000,0.000000,0.000000,0.000000,0.000000,0.000000,0.000000,,,,,,,,,,,,,,,,,1.000000,0.000000,0.658757,-0.750427,0.022400,0.048950,-0.095715,-0.991332,-0.122574,15.256485,-31.155334,16.518356,,,,,,,,,,,,,,,,,,,,,,,,,,,,,,,,,,,,,,,,,,,,,,,,,,,,,,,,,,,,,,,,,,,,,,,,,,,,,,,,,,,,,,,,,,,,,,,,,,,,,
1737283273.468779,1737283273.469051,5.000000,0.000000,4330.384766,4349.615234,4267.692383,4318.846191,4353.846191,4357.948730,4363.461426,4551.922852,4552.436035,4559.487305,4494.871582,5639.487305,4301.794922,4261.282227,0.000000,2.000000,35.000000,,,,0.000000,0.000000,0.000000,0.000000,0.000000,0.000000,0.000000,0.000000,0.000000,0.000000,0.000000,0.000000,0.000000,0.000000,0.000000,0.000000,,,,,,,,,,,,,,,,,,,,,,,,,,,,,,,,,,,,,,,,,,,,,,,,,,,,,,,,,,,,,,,,,,,,,,,,,,,,,,,,,,,,,,,,,,,,,,,,,,,,,,,,,,,,,,,,,,,,,,,,,,,,,,,,,
1737283273.476588,1737283273.476859,6.000000,0.000000,4330.897461,4348.589844,4270.256348,4319.230957,4350.897461,4358.205078,4364.358887,4555.641113,4551.025879,4560.256348,4496.538574,5640.769043,4304.743652,4260.384766,0.000000,2.000000,35.000000,,,,0.000000,0.000000,0.000000,0.000000,0.000000,0.000000,0.000000,0.000000,0.000000,0.000000,0.000000,0.000000,0.000000,0.000000,0.000000,0.000000,,,,,,,,,,,,,,,,,,,,,,,,,,,,,,,,,,,,,,,,,,,,,,,,,,,,,,,,,,,,,,,,,,,,,,,,,,,,,,,,,,,,,,,,,,,,,,,,,,,,,,,,,,,,,,,,,,,,,,,,,,,,,,,,,
1737283273.484396,1737283273.484567,7.000000,0.000000,4335.641113,4349.743652,4272.307617,4320.256348,4351.922852,4356.538574,4362.307617,4556.025879,4549.871582,4560.897461,4497.307617,5641.025879,4307.820313,4265.769043,0.000000,2.000000,35.000000,,,,0.000000,0.000000,0.000000,0.000000,0.000000,0.000000,0.000000,0.000000,0.000000,0.000000,0.000000,0.000000,0.000000,0.000000,0.000000,0.000000,,,,,,,,,,,,,,,,,,,,,,,,,,,,,,,,,,,,,,,,,,,,,,,,,,,,,,,,,,,,,,,,,,,,,,,,,,,,,,,,,,,,,,,,,,,,,,,,,,,,,,,,,,,,,,,,,,,,,,,,,,,,,,,,,
1737283273.492204,1737283273.492375,8.000000,0.000000,4330.641113,4347.051270,4262.051270,4317.436035,4354.358887,4357.563965,4365.256348,4553.333496,4551.794922,4561.410156,4490.897461,5633.077148,4302.051270,4252.307617,0.000000,2.000000,35.000000,,,,0.000000,0.000000,0.000000,0.000000,0.000000,0.000000,0.000000,0.000000,0.000000,0.000000,0.000000,0.000000,0.000000,0.000000,0.000000,0.000000,,,,,,,,,,,,,,,,,2.000000,0.000000,0.658762,-0.750427,0.022400,0.048889,-0.101575,-0.982542,-0.129899,15.264170,-31.089800,16.383188,,,,,,,,,,,,,,,,,,,,,,,,,,,,,,,,,,,,,,,,,,,,,,,,,,,,,,,,,,,,,,,,,,,,,,,,,,,,,,,,,,,,,,,,,,,,,,,,,,,,,
1737283273.500012,1737283273.500083,9.000000,0.000000,4332.948730,4348.846191,4268.077148,4321.666504,4353.974121,4358.461426,4359.487305,4551.410156,4553.333496,4560.000000,4495.000000,5642.692383,4309.230957,4261.410156,0.000000,2.000000,35.000000,,,,0.000000,0.000000,0.000000,0.000000,0.000000,0.000000,0.000000,0.000000,0.000000,0.000000,0.000000,0.000000,0.000000,0.000000,0.000000,0.000000,,,,,,,,,,,,,,,,,,,,,,,,,,,,,,,,,,,,,,,,,,,,,,,,,,,,,,,,,,,,,,,,,,,,,,,,,,,,,,,,,,,,,,,,,,,,,,,,,,,,,,,,,,,,,,,,,,,,,,,,,,,,,,,,,
1737283273.507820,1737283273.507891,10.000000,0.000000,4332.436035,4344.743652,4266.025879,4321.025879,4352.179688,4357.948730,4360.128418,4554.487305,4552.051270,4557.820313,4494.230957,5637.820313,4309.871582,4261.922852,0.000000,2.000000,35.000000,,,,0.000000,0.000000,0.000000,0.000000,0.000000,0.000000,0.000000,0.000000,0.000000,0.000000,0.000000,0.000000,0.000000,0.000000,0.000000,0.000000,,,,,,,,,,,,,,,,,,,,,,,,,,,,,,,,,,,,,,,,,,,,,,,,,,,,,,,,,,,,,,,,,,,,,,,,,,,,,,,,,,,,,,,,,,,,,,,,,,,,,,,,,,,,,,,,,,,,,,,,,,,,,,,,,
1737283273.515628,1737283273.515799,11.000000,0.000000,4331.538574,4346.794922,4262.051270,4318.333496,4353.333496,4357.436035,4360.512695,4555.512695,4551.282227,4560.641113,4493.974121,5634.102539,4309.102539,4258.205078,3.000000,2.000000,35.000000,,,,0.000000,0.000000,0.000000,0.000000,0.000000,0.000000,0.000000,0.000000,0.000000,0.000000,0.000000,0.000000,0.000000,0.000000,0.000000,0.000000,,,,,,,,,,,,,,,,,,,,,,,,,,,,,,,,,,,,,,,,,,,,,,,,,,,,,,,,,,,,,,,,,,,,,,,,,,,,,,,,,,,,,,,,,,,,,,,,,,,,,,,,,,,,,,,,,,,,,,,,,,,,,,,,,
1737283273.523436,1737283273.523607,12.000000,0.000000,4333.077148,4351.538574,4266.538574,4318.717773,4354.871582,4357.692383,4360.128418,4554.743652,4552.307617,4563.205078,4498.846191,5643.461426,4312.307617,4264.230957,0.000000,2.000000,35.000000,,,,0.000000,0.000000,0.000000,0.000000,0.000000,0.000000,0.000000,0.000000,0.000000,0.000000,0.000000,0.000000,0.000000,0.000000,0.000000,0.000000,,,,,,,,,,,,,,,,,3.000000,0.000000,0.658768,-0.750427,0.022217,0.048889,-0.110365,-0.985472,-0.124527,15.221087,-31.164154,16.428202,,,,,,,,,,,,,,,,,,,,,,,,,,,,,,,,0.050082,0.042265,0.110769,0.047919,0.032322,0.018680,0.015814,0.019323,0.015100,0.034754,0.014701,0.022964,0.018683,0.024323,0.032479,0.028125,0.038173,0.020463,0.027561,0.024730,0.024615,0.014178,0.019159,0.022972,0.021003,0.014486,0.016791,0.015111,0.022128,0.018442,0.048164,0.034209,0.008613,0.026802,0.024319,0.044987,0.030567,0.012056,0.026876,0.015236,0.012267,0.010161,0.007277,0.012136,0.015575,0.021231,0.031555,0.038970,0.049108,0.022249,0.025895,0.023852,0.016213,0.018320,0.023059,0.044952,0.013884,0.030559,0.024678,0.019838,0.042710,0.070224,0.033088,0.027516,0.024295,0.077359,0.074043,0.034428,0.031669,0.030143
1737283273.531244,1737283273.531315,13.000000,0.000000,4328.333496,4347.307617,4262.051270,4315.897461,4353.589844,4356.794922,4363.974121,4558.461426,4553.461426,4559.102539,4494.743652,5636.410156,4308.974121,4258.461426,0.000000,2.000000,35.000000,,,,0.000000,0.000000,0.000000,0.000000,0.000000,0.000000,0.000000,0.000000,0.000000,0.000000,0.000000,0.000000,0.000000,0.000000,0.000000,0.000000,,,,,,,,,,,,,,,,,,,,,,,,,,,,,,,,,,,,,,,,,,,,,,,,,,,,,,,,,,,,,,,,,,,,,,,,,,,,,,,,,,,,,,,,,,,,,,,,,,,,,,,,,,,,,,,,,,,,,,,,,,,,,,,,,
1737283273.539052,1737283273.539223,14.000000,0.000000,4333.077148,4349.230957,4265.256348,4317.820313,4352.307617,4353.846191,4356.153809,4557.563965,4554.871582,4559.615234,4496.025879,5637.820313,4315.128418,4267.436035,0.000000,2.000000,35.000000,,,,0.000000,0.000000,0.000000,0.000000,0.000000,0.000000,0.000000,0.000000,0.000000,0.000000,0.000000,0.000000,0.000000,0.000000,0.000000,0.000000,,,,,,,,,,,,,,,,,,,,,,,,,,,,,,,,,,,,,,,,,,,,,,,,,,,,,,,,,,,,,,,,,,,,,,,,,,,,,,,,,,,,,,,,,,,,,,,,,,,,,,,,,,,,,,,,,,,,,,,,,,,,,,,,,
1737283273.546860,1737283273.547031,15.000000,0.000000,4332.948730,4347.307617,4262.436035,4316.794922,4352.179688,4357.179688,4359.487305,4556.538574,4557.179688,4560.897461,4494.615234,5636.922852,4313.205078,4263.461426,3.000000,2.000000,35.000000,,,,0.000000,0.000000,0.000000,0.000000,0.000000,0.000000,0.000000,0.000000,0.000000,0.000000,0.000000,0.000000,0.000000,0.000000,0.000000,0.000000,,,,,,,,,,,,,,,,,,,,,,,,,,,,,,,,,,,,,,,,,,,,,,,,,,,,,,,,,,,,,,,,,,,,,,,,,,,,,,,,,,,,,,,,,,,,,,,,,,,,,,,,,,,,,,,,,,,,,,,,,,,,,,,,,
1737283273.554669,1737283273.554939,16.000000,0.000000,4330.000000,4345.384766,4262.563965,4318.077148,4352.948730,4358.974121,4364.615234,4556.794922,4555.512695,4554.615234,4492.820313,5635.769043,4307.820313,4257.051270,0.000000,2.000000,35.000000,,,,0.000000,0.000000,0.000000,0.000000,0.000000,0.000000,0.000000,0.000000,0.000000,0.000000,0.000000,0.000000,0.000000,0.000000,0.000000,0.000000,,,,,,,,,,,,,,,,,4.000000,0.000000,0.658772,-0.750427,0.022217,0.048828,-0.104993,-0.974240,-0.125992,15.148977,-31.014406,16.335382,,,,,,,,,,,,,,,,,,,,,,,,,,,,,,,,,,,,,,,,,,,,,,,,,,,,,,,,,,,,,,,,,,,,,,,,,,,,,,,,,,,,,,,,,,,,,,,,,,,,,
1737283273.562477,1737283273.562747,17.000000,0.000000,4333.333496,4349.871582,4272.692383,4321.922852,4353.461426,4357.436035,4359.102539,4553.333496,4549.615234,4553.333496,4498.461426,5641.410156,4310.512695,4266.922852,0.000000,2.000000,35.000000,,,,0.000000,0.000000,0.000000,0.000000,0.000000,0.000000,0.000000,0.000000,0.000000,0.000000,0.000000,0.000000,0.000000,0.000000,0.000000,0.000000,,,,,,,,,,,,,,,,,,,,,,,,,,,,,,,,,,,,,,,,,,,,,,,,,,,,,,,,,,,,,,,,,,,,,,,,,,,,,,,,,,,,,,,,,,,,,,,,,,,,,,,,,,,,,,,,,,,,,,,,,,,,,,,,,
1737283273.570285,1737283273.570555,18.000000,0.000000,4330.897461,4349.230957,4267.307617,4318.461426,4353.333496,4363.717773,4365.256348,4553.077148,4549.102539,4556.538574,4494.487305,5631.538574,4302.820313,4258.461426,0.000000,2.000000,35.000000,,,,0.000000,0.000000,0.000000,0.000000,0.000000,0.000000,0.000000,0.000000,0.000000,0.000000,0.000000,0.000000,0.000000,0.000000,0.000000,0.000000,,,,,,,,,,,,,,,,,,,,,,,,,,,,,,,,,,,,,,,,,,,,,,,,,,,,,,,,,,,,,,,,,,,,,,,,,,,,,,,,,,,,,,,,,,,,,,,,,,,,,,,,,,,,,,,,,,,,,,,,,,,,,,,,,
1737283273.578093,1737283273.578264,19.000000,0.000000,4333.717773,4352.948730,4271.794922,4322.692383,4353.846191,4365.384766,4365.769043,4553.846191,4551.666504,4555.641113,4494.871582,5636.666504,4303.846191,4264.615234,0.000000,2.000000,35.000000,,,,0.000000,0.000000,0.000000,0.000000,0.000000,0.000000,0.000000,0.000000,0.000000,0.000000,0.000000,0.000000,0.000000,0.000000,0.000000,0.000000,,,,,,,,,,,,,,,,,,,,,,,,,,,,,,,,,,,,,,,,,,,,,,,,,,,,,,,,,,,,,,,,,,,,,,,,,,,,,,,,,,,,,,,,,,,,,,,,,,,,,,,,,,,,,,,,,,,,,,,,,,,,,,,,,
1737283273.585901,1737283273.586072,20.000000,0.000000,4333.205078,4352.563965,4273.461426,4322.051270,4352.820313,4360.769043,4364.615234,4554.102539,4551.282227,4554.230957,4494.615234,5638.974121,4305.769043,4263.333496,0.000000,2.000000,35.000000,,,,0.000000,0.000000,0.000000,0.000000,0.000000,0.000000,0.000000,0.000000,0.000000,0.000000,0.000000,0.000000,0.000000,0.000000,0.000000,0.000000,,,,,,,,,,,,,,,,,5.000000,0.000000,0.658837,-0.750366,0.022217,0.048889,-0.102552,-0.977170,-0.120620,15.117414,-31.096298,16.301844,,,,,,,,,,,,,,,,,,,,,,,,,,,,,,,,,,,,,,,,,,,,,,,,,,,,,,,,,,,,,,,,,,,,,,,,,,,,,,,,,,,,,,,,,,,,,,,,,,,,,
1737283273.593709,1737283273.593780,21.000000,0.000000,4331.922852,4348.461426,4265.384766,4316.666504,4351.538574,4360.384766,4366.410156,4552.307617,4549.871582,4556.794922,4493.077148,5630.256348,4303.461426,4253.717773,0.000000,2.000000,35.000000,,,,0.000000,0.000000,0.000000,0.000000,0.000000,0.000000,0.000000,0.000000,0.000000,0.000000,0.000000,0.000000,0.000000,0.000000,0.000000,0.000000,,,,,,,,,,,,,,,,,,,,,,,,,,,,,,,,,,,,,,,,,,,,,,,,,,,,,,,,,,,,,,,,,,,,,,,,,,,,,,,,,,,,,,,,,,,,,,,,,,,,,,,,,,,,,,,,,,,,,,,,,,,,,,,,,
1737283273.601517,1737283273.601688,22.000000,0.000000,4338.205078,4351.666504,4269.871582,4321.922852,4352.692383,4359.743652,4361.922852,4549.358887,4550.384766,4559.487305,4497.563965,5637.820313,4307.948730,4267.948730,0.000000,2.000000,35.000000,,,,0.000000,0.000000,0.000000,0.000000,0.000000,0.000000,0.000000,0.000000,0.000000,0.000000,0.000000,0.000000,0.000000,0.000000,0.000000,0.000000,,,,,,,,,,,,,,,,,,,,,,,,,,,,,,,,,,,,,,,,,,,,,,,,,,,,,,,,,,,,,,,,,,,,,,,,,,,,,,,,,,,,,,,,,,,,,,,,,,,,,,,,,,,,,,,,,,,,,,,,,,,,,,,,,
1737283273.609325,1737283273.609496,23.000000,0.000000,4332.179688,4350.641113,4266.922852,4320.769043,4353.846191,4360.384766,4366.410156,4553.717773,4551.922852,4558.461426,4491.922852,5633.974121,4301.922852,4261.538574,0.000000,2.000000,35.000000,,,,0.000000,0.000000,0.000000,0.000000,0.000000,0.000000,0.000000,0.000000,0.000000,0.000000,0.000000,0.000000,0.000000,0.000000,0.000000,0.000000,,,,,,,,,,,,,,,,,,,,,,,,,,,,,,,,,,,,,,,,,,,,,,,,,,,,,,,,,,,,,,,,,,,,,,,,,,,,,,,,,,,,,,,,,,,,,,,,,,,,,,,,,,,,,,,,,,,,,,,,,,,,,,,,,
1737283273.617133,1737283273.617404,24.000000,0.000000,4332.436035,4352.179688,4267.948730,4320.128418,4355.256348,4362.436035,4363.846191,4556.153809,4550.384766,4558.589844,4492.692383,5634.102539,4304.102539,4263.205078,0.000000,2.000000,35.000000,,,,0.000000,0.000000,0.000000,0.000000,0.000000,0.000000,0.000000,0.000000,0.000000,0.000000,0.000000,0.000000,0.000000,0.000000,0.000000,0.000000,,,,,,,,,,,,,,,,,6.000000,0.000000,0.658837,-0.750366,0.022217,0.048889,-0.107435,-0.991332,-0.128922,15.072338,-30.886669,16.421659,,,,,,,,,,,,,,,,,,,,,,,,,,,,,,,,,,,,,,,,,,,,,,,,,,,,,,,,,,,,,,,,,,,,,,,,,,,,,,,,,,,,,,,,,,,,,,,,,,,,,
1737283273.624941,1737283273.625212,25.000000,0.000000,4335.897461,4352.948730,4269.487305,4321.153809,4356.025879,4362.820313,4361.153809,4553.461426,4549.102539,4557.820313,4495.769043,5637.948730,4308.461426,4267.051270,0.000000,2.000000,35.000000,,,,0.000000,0.000000,0.000000,0.000000,0.000000,0.000000,0.000000,0.000000,0.000000,0.000000,0.000000,0.000000,0.000000,0.000000,0.000000,0.000000,,,,,,,,,,,,,,,,,,,,,,,,,,,,,,,,,,,,,,,,,,,,,,,,,,,,,,,,,,,,,,,,,,,,,,,,,,,,,,,,,,,,,,,,,,,,,,,,,,,,,,,,,,,,,,,,,,,,,,,,,,,,,,,,,
1737283273.632749,1737283273.633120,26.000000,0.000000,4330.384766,4349.487305,4264.487305,4317.051270,4354.487305,4362.051270,4366.025879,4553.589844,4551.025879,4558.205078,4491.922852,5633.717773,4301.025879,4256.153809,0.000000,2.000000,35.000000,,,,0.000000,0.000000,0.000000,0.000000,0.000000,0.000000,0.000000,0.000000,0.000000,0.000000,0.000000,0.000000,0.000000,0.000000,0.000000,0.000000,,,,,,,,,,,,,,,,,,,,,,,,,,,,,,,,,,,,,,,,,,,,,,,,,,,,,,,,,,,,,,,,,,,,,,,,,,,,,,,,,,,,,,,,,,,,,,,,,,,,,,,,,,,,,,,,,,,,,,,,,,,,,,,,,
1737283273.640557,1737283273.640928,27.000000,0.000000,4334.102539,4353.846191,4272.179688,4320.000000,4354.615234,4360.256348,4358.974121,4554.487305,4551.922852,4561.025879,4496.666504,5640.256348,4302.948730,4267.436035,0.000000,2.000000,35.000000,,,,0.000000,0.000000,0.000000,0.000000,0.000000,0.000000,0.000000,0.000000,0.000000,0.000000,0.000000,0.000000,0.000000,0.000000,0.000000,0.000000,,,,,,,,,,,,,,,,,,,,,,,,,,,,,,,,,,,,,,,,,,,,,,,,,,,,,,,,,,,,,,,,,,,,,,,,,,,,,,,,,,,,,,,,,,,,,,,,,,,,,,,,,,,,,,,,,,,,,,,,,,,,,,,,,
1737283273.648366,1737283273.648836,28.000000,0.000000,4334.487305,4352.948730,4269.230957,4320.000000,4354.743652,4359.743652,4362.820313,4556.025879,4551.666504,4561.794922,4493.333496,5636.794922,4301.410156,4262.820313,0.000000,2.000000,35.000000,,,,0.000000,0.000000,0.000000,0.000000,0.000000,0.000000,0.000000,0.000000,0.000000,0.000000,0.000000,0.000000,0.000000,0.000000,0.000000,0.000000,,,,,,,,,,,,,,,,,7.000000,0.000000,0.658768,-0.750427,0.022217,0.048889,-0.109877,-0.991820,-0.125015,15.131771,-30.714668,16.412827,,,,,,,,,,,,,,,,,,,,,,,,,,,,,,,,0.047711,0.040415,0.113709,0.051436,0.029990,0.016046,0.018061,0.017553,0.017188,0.034585,0.014117,0.023361,0.017206,0.018304,0.031699,0.031589,0.039702,0.019041,0.026523,0.020863,0.027420,0.012221,0.019805,0.020326,0.019885,0.013221,0.012262,0.014321,0.022271,0.018628,0.045922,0.038611,0.009045,0.023702,0.021044,0.049211,0.039053,0.011075,0.024011,0.014611,0.012983,0.009522,0.007000,0.011030,0.016124,0.019270,0.029998,0.033359,0.047370,0.022245,0.022848,0.028016,0.013585,0.017897,0.025709,0.043912,0.017998,0.029664,0.021740,0.018991,0.035915,0.051281,0.034897,0.029543,0.024708,0.062053,0.074028,0.030337,0.032426,0.033138
1737283273.656174,1737283273.656644,29.000000,0.000000,4332.692383,4352.307617,4265.769043,4319.487305,4352.563965,4359.615234,4368.333496,4552.820313,4552.051270,4562.563965,4491.538574,5637.692383,4303.333496,4260.384766,0.000000,2.000000,35.000000,,,,0.000000,0.000000,0.000000,0.000000,0.000000,0.000000,0.000000,0.000000,0.000000,0.000000,0.000000,0.000000,0.000000,0.000000,0.000000,0.000000,,,,,,,,,,,,,,,,,,,,,,,,,,,,,,,,,,,,,,,,,,,,,,,,,,,,,,,,,,,,,,,,,,,,,,,,,,,,,,,,,,,,,,,,,,,,,,,,,,,,,,,,,,,,,,,,,,,,,,,,,,,,,,,,,
1737283273.663982,1737283273.664552,30.000000,0.000000,4334.358887,4353.974121,4267.179688,4321.153809,4351.922852,4360.128418,4365.000000,4550.000000,4552.436035,4562.948730,4496.410156,5640.256348,4306.794922,4266.410156,0.000000,2.000000,35.000000,,,,0.000000,0.000000,0.000000,0.000000,0.000000,0.000000,0.000000,0.000000,0.000000,0.000000,0.000000,0.000000,0.000000,0.000000,0.000000,0.000000,,,,,,,,,,,,,,,,,,,,,,,,,,,,,,,,,,,,,,,,,,,,,,,,,,,,,,,,,,,,,,,,,,,,,,,,,,,,,,,,,,,,,,,,,,,,,,,,,,,,,,,,,,,,,,,,,,,,,,,,,,,,,,,,,
1737283273.671790,1737283273.672460,31.000000,0.000000,4332.563965,4350.641113,4262.948730,4320.384766,4352.948730,4360.769043,4366.538574,4555.000000,4552.051270,4558.077148,4493.846191,5629.487305,4302.563965,4257.179688,0.000000,2.000000,35.000000,,,,0.000000,0.000000,0.000000,0.000000,0.000000,0.000000,0.000000,0.000000,0.000000,0.000000,0.000000,0.000000,0.000000,0.000000,0.000000,0.000000,,,,,,,,,,,,,,,,,,,,,,,,,,,,,,,,,,,,,,,,,,,,,,,,,,,,,,,,,,,,,,,,,,,,,,,,,,,,,,,,,,,,,,,,,,,,,,,,,,,,,,,,,,,,,,,,,,,,,,,,,,,,,,,,,
1737283273.679598,1737283273.680268,32.000000,0.000000,4335.000000,4354.230957,4272.307617,4324.743652,4354.871582,4359.230957,4363.077148,4555.256348,4551.666504,4554.615234,4497.307617,5638.077148,4308.077148,4267.436035,0.000000,2.000000,35.000000,,,,0.000000,0.000000,0.000000,0.000000,0.000000,0.000000,0.000000,0.000000,0.000000,0.000000,0.000000,0.000000,0.000000,0.000000,0.000000,0.000000,,,,,,,,,,,,,,,,,8.000000,0.000000,0.658768,-0.750427,0.022217,0.048889,-0.099622,-0.978147,-0.130387,15.151928,-30.559868,16.538210,,,,,,,,,,,,,,,,,,,,,,,,,,,,,,,,,,,,,,,,,,,,,,,,,,,,,,,,,,,,,,,,,,,,,,,,,,,,,,,,,,,,,,,,,,,,,,,,,,,,,
1737283273.687406,1737283273.688076,33.000000,0.000000,4330.256348,4352.563965,4270.384766,4322.307617,4354.358887,4359.871582,4366.282227,4553.077148,4551.922852,4555.769043,4497.563965,5638.589844,4305.128418,4266.538574,0.000000,2.000000,35.000000,,,,0.000000,0.000000,0.000000,0.000000,0.000000,0.000000,0.000000,0.000000,0.000000,0.000000,0.000000,0.000000,0.000000,0.000000,0.000000,0.000000,,,,,,,,,,,,,,,,,,,,,,,,,,,,,,,,,,,,,,,,,,,,,,,,,,,,,,,,,,,,,,,,,,,,,,,,,,,,,,,,,,,,,,,,,,,,,,,,,,,,,,,,,,,,,,,,,,,,,,,,,,,,,,,,,
1737283273.695214,1737283273.695784,34.000000,0.000000,4330.512695,4348.974121,4263.717773,4319.487305,4352.820313,4359.871582,4366.922852,4553.205078,4550.897461,4558.205078,4494.230957,5631.666504,4302.179688,4261.794922,0.000000,2.000000,35.000000,,,,0.000000,0.000000,0.000000,0.000000,0.000000,0.000000,0.000000,0.000000,0.000000,0.000000,0.000000,0.000000,0.000000,0.000000,0.000000,0.000000,,,,,,,,,,,,,,,,,,,,,,,,,,,,,,,,,,,,,,,,,,,,,,,,,,,,,,,,,,,,,,,,,,,,,,,,,,,,,,,,,,,,,,,,,,,,,,,,,,,,,,,,,,,,,,,,,,,,,,,,,,,,,,,,,
1737283273.703022,1737283273.703592,35.000000,0.000000,4335.128418,4352.051270,4269.102539,4323.077148,4352.307617,4359.358887,4363.461426,4553.717773,4550.384766,4560.000000,4496.666504,5638.717773,4306.922852,4266.794922,0.000000,2.000000,35.000000,,,,0.000000,0.000000,0.000000,0.000000,0.000000,0.000000,0.000000,0.000000,0.000000,0.000000,0.000000,0.000000,0.000000,0.000000,0.000000,0.000000,,,,,,,,,,,,,,,,,,,,,,,,,,,,,,,,,,,,,,,,,,,,,,,,,,,,,,,,,,,,,,,,,,,,,,,,,,,,,,,,,,,,,,,,,,,,,,,,,,,,,,,,,,,,,,,,,,,,,,,,,,,,,,,,,
1737283273.710830,1737283273.711300,36.000000,0.000000,4327.563965,4350.000000,4265.384766,4320.000000,4353.333496,4361.282227,4367.436035,4557.051270,4551.666504,4560.000000,4494.615234,5636.794922,4303.333496,4258.333496,0.000000,2.000000,35.000000,,,,0.000000,0.000000,0.000000,0.000000,0.000000,0.000000,0.000000,0.000000,0.000000,0.000000,0.000000,0.000000,0.000000,0.000000,0.000000,0.000000,,,,,,,,,,,,,,,,,9.000000,0.000000,0.658763,-0.750427,0.022217,0.048950,-0.102063,-0.990355,-0.110365,15.170068,-30.553881,16.567722,,,,,,,,,,,,,,,,,,,,,,,,,,,,,,,,,,,,,,,,,,,,,,,,,,,,,,,,,,,,,,,,,,,,,,,,,,,,,,,,,,,,,,,,,,,,,,,,,,,,,
1737283273.718638,1737283273.719108,37.000000,0.000000,4331.538574,4352.307617,4269.230957,4320.512695,4355.512695,4361.666504,4360.128418,4554.230957,4550.641113,4560.128418,4496.922852,5639.871582,4307.436035,4267.948730,0.000000,2.000000,35.000000,,,,0.000000,0.000000,0.000000,0.000000,0.000000,0.000000,0.000000,0.000000,0.000000,0.000000,0.000000,0.000000,0.000000,0.000000,0.000000,0.000000,,,,,,,,,,,,,,,,,,,,,,,,,,,,,,,,,,,,,,,,,,,,,,,,,,,,,,,,,,,,,,,,,,,,,,,,,,,,,,,,,,,,,,,,,,,,,,,,,,,,,,,,,,,,,,,,,,,,,,,,,,,,,,,,,
1737283273.726447,1737283273.726816,38.000000,0.000000,4334.615234,4353.333496,4269.102539,4321.282227,4352.948730,4362.692383,4361.153809,4551.794922,4551.538574,4558.974121,4496.538574,5637.563965,4305.897461,4266.282227,0.000000,2.000000,35.000000,,,,0.000000,0.000000,0.000000,0.000000,0.000000,0.000000,0.000000,0.000000,0.000000,0.000000,0.000000,0.000000,0.000000,0.000000,0.000000,0.000000,,,,,,,,,,,,,,,,,,,,,,,,,,,,,,,,,,,,,,,,,,,,,,,,,,,,,,,,,,,,,,,,,,,,,,,,,,,,,,,,,,,,,,,,,,,,,,,,,,,,,,,,,,,,,,,,,,,,,,,,,,,,,,,,,
1737283273.734254,1737283273.734624,39.000000,0.000000,4330.769043,4352.692383,4265.128418,4320.256348,4350.897461,4359.102539,4365.769043,4553.461426,4553.846191,4558.461426,4496.666504,5634.102539,4301.922852,4259.102539,0.000000,2.000000,35.000000,,,,0.000000,0.000000,0.000000,0.000000,0.000000,0.000000,0.000000,0.000000,0.000000,0.000000,0.000000,0.000000,0.000000,0.000000,0.000000,0.000000,,,,,,,,,,,,,,,,,,,,,,,,,,,,,,,,,,,,,,,,,,,,,,,,,,,,,,,,,,,,,,,,,,,,,,,,,,,,,,,,,,,,,,,,,,,,,,,,,,,,,,,,,,,,,,,,,,,,,,,,,,,,,,,,,
1737283273.742063,1737283273.742333,40.000000,0.000000,4334.871582,4355.641113,4270.897461,4321.410156,4352.563965,4353.717773,4358.205078,4554.230957,4551.538574,4559.358887,4502.051270,5642.436035,4308.589844,4270.512695,0.000000,2.000000,35.000000,,,,0.000000,0.000000,0.000000,0.000000,0.000000,0.000000,0.000000,0.000000,0.000000,0.000000,0.000000,0.000000,0.000000,0.000000,0.000000,0.000000,,,,,,,,,,,,,,,,,10.000000,0.000000,0.658830,-0.750366,0.022156,0.049011,-0.103040,-0.981077,-0.131364,15.136395,-30.548492,16.677618,,,,,,,,,,,,,,,,,,,,,,,,,,,,,,,,,,,,,,,,,,,,,,,,,,,,,,,,,,,,,,,,,,,,,,,,,,,,,,,,,,,,,,,,,,,,,,,,,,,,,
1737283273.749871,1737283273.750140,41.000000,0.000000,4333.333496,4349.230957,4266.025879,4317.948730,4352.948730,4357.820313,4363.077148,4557.307617,4548.461426,4555.897461,4495.256348,5633.205078,4300.384766,4258.846191,0.000000,2.000000,35.000000,,,,0.000000,0.000000,0.000000,0.000000,0.000000,0.000000,0.000000,0.000000,0.000000,0.000000,0.000000,0.000000,0.000000,0.000000,0.000000,0.000000,,,,,,,,,,,,,,,,,,,,,,,,,,,,,,,,,,,,,,,,,,,,,,,,,,,,,,,,,,,,,,,,,,,,,,,,,,,,,,,,,,,,,,,,,,,,,,,,,,,,,,,,,,,,,,,,,,,,,,,,,,,,,,,,,
1737283273.757679,1737283273.757849,42.000000,0.000000,4333.846191,4348.205078,4268.846191,4321.410156,4353.461426,4361.282227,4364.102539,4554.487305,4548.077148,4553.717773,4494.358887,5633.846191,4299.487305,4259.615234,0.000000,2.000000,35.000000,,,,0.000000,0.000000,0.000000,0.000000,0.000000,0.000000,0.000000,0.000000,0.000000,0.000000,0.000000,0.000000,0.000000,0.000000,0.000000,0.000000,,,,,,,,,,,,,,,,,,,,,,,,,,,,,,,,,,,,,,,,,,,,,,,,,,,,,,,,,,,,,,,,,,,,,,,,,,,,,,,,,,,,,,,,,,,,,,,,,,,,,,,,,,,,,,,,,,,,,,,,,,,,,,,,,
1737283273.765487,1737283273.765657,43.000000,0.000000,4333.974121,4350.512695,4270.512695,4321.922852,4353.077148,4359.743652,4361.538574,4550.641113,4550.512695,4558.205078,4497.563965,5638.333496,4305.384766,4265.256348,0.000000,2.000000,35.000000,,,,0.000000,0.000000,0.000000,0.000000,0.000000,0.000000,0.000000,0.000000,0.000000,0.000000,0.000000,0.000000,0.000000,0.000000,0.000000,0.000000,,,,,,,,,,,,,,,,,,,,,,,,,,,,,,,,,,,,,,,,,,,,,,,,,,,,,,,,,,,,,,,,,,,,,,,,,,,,,,,,,,,,,,,,,,,,,,,,,,,,,,,,,,,,,,,,,,,,,,,,,,,,,,,,,
1737283273.773295,1737283273.773365,44.000000,0.000000,4334.102539,4351.025879,4265.256348,4318.205078,4352.307617,4359.743652,4365.256348,4552.307617,4552.051270,4561.922852,4496.025879,5632.307617,4300.641113,4257.820313,0.000000,2.000000,35.000000,,,,0.000000,0.000000,0.000000,0.000000,0.000000,0.000000,0.000000,0.000000,0.000000,0.000000,0.000000,0.000000,0.000000,0.000000,0.000000,0.000000,1.000000,0.000000,0.000000,0.000000,0.000000,0.000000,0.000000,0.000000,0.000000,0.000000,0.000000,0.000000,0.000000,0.000000,0.000000,0.000000,11.000000,0.000000,0.658895,-0.750305,0.022156,0.049072,-0.097180,-0.988890,-0.118178,15.156089,-30.493645,16.693190,,,,,,,,,,,,,,,,,,,,,,,,,,,,,,,,0.041275,0.038923,0.105486,0.052636,0.028340,0.013036,0.019710,0.015444,0.018739,0.032068,0.014759,0.023465,0.016457,0.013645,0.029728,0.032848,0.038393,0.020038,0.027963,0.020282,0.027038,0.010997,0.019293,0.017693,0.019330,0.014198,0.008921,0.015701,0.022419,0.019284,0.046163,0.040695,0.010877,0.021441,0.017942,0.052229,0.046320,0.010414,0.021757,0.015313,0.014284,0.008780,0.008219,0.010160,0.016042,0.021042,0.028901,0.028521,0.045094,0.023512,0.021502,0.030732,0.013402,0.018055,0.028155,0.043186,0.023662,0.026827,0.018509,0.019507,0.033922,0.036042,0.038829,0.030065,0.024776,0.049133,0.070364,0.026444,0.031154,0.035204
1737283273.781103,1737283273.781273,45.000000,0.000000,4339.102539,4354.743652,4273.205078,4323.461426,4353.974121,4360.000000,4362.307617,4552.436035,4550.512695,4558.077148,4500.384766,5639.743652,4303.717773,4265.384766,0.000000,2.000000,35.000000,,,,0.000000,0.000000,0.000000,0.000000,0.000000,0.000000,0.000000,0.000000,0.000000,0.000000,0.000000,0.000000,0.000000,0.000000,0.000000,0.000000,,,,,,,,,,,,,,,,,,,,,,,,,,,,,,,,,,,,,,,,,,,,,,,,,,,,,,,,,,,,,,,,,,,,,,,,,,,,,,,,,,,,,,,,,,,,,,,,,,,,,,,,,,,,,,,,,,,,,,,,,,,,,,,,,
1737283273.788911,1737283273.789081,46.000000,0.000000,4331.666504,4348.846191,4268.974121,4320.769043,4353.846191,4361.794922,4364.615234,4554.487305,4551.282227,4554.743652,4496.410156,5635.384766,4303.974121,4257.179688,0.000000,2.000000,35.000000,,,,0.000000,0.000000,0.000000,0.000000,0.000000,0.000000,0.000000,0.000000,0.000000,0.000000,0.000000,0.000000,0.000000,0.000000,0.000000,0.000000,,,,,,,,,,,,,,,,,,,,,,,,,,,,,,,,,,,,,,,,,,,,,,,,,,,,,,,,,,,,,,,,,,,,,,,,,,,,,,,,,,,,,,,,,,,,,,,,,,,,,,,,,,,,,,,,,,,,,,,,,,,,,,,,,
1737283273.796719,1737283273.796989,47.000000,0.000000,4331.922852,4349.230957,4267.563965,4320.897461,4351.794922,4362.692383,4362.820313,4553.846191,4552.436035,4560.512695,4495.128418,5636.153809,4308.717773,4259.615234,0.000000,2.000000,35.000000,,,,0.000000,0.000000,0.000000,0.000000,0.000000,0.000000,0.000000,0.000000,0.000000,0.000000,0.000000,0.000000,0.000000,0.000000,0.000000,0.000000,,,,,,,,,,,,,,,,,,,,,,,,,,,,,,,,,,,,,,,,,,,,,,,,,,,,,,,,,,,,,,,,,,,,,,,,,,,,,,,,,,,,,,,,,,,,,,,,,,,,,,,,,,,,,,,,,,,,,,,,,,,,,,,,,
1737283273.804527,1737283273.804797,48.000000,0.000000,4337.563965,4353.717773,4272.820313,4325.384766,4353.846191,4361.794922,4364.102539,4552.436035,4552.307617,4563.717773,4494.871582,5641.282227,4310.128418,4267.563965,0.000000,2.000000,35.000000,,,,0.000000,0.000000,0.000000,0.000000,0.000000,0.000000,0.000000,0.000000,0.000000,0.000000,0.000000,0.000000,0.000000,0.000000,0.000000,0.000000,,,,,,,,,,,,,,,,,12.000000,0.000000,0.658893,-0.750305,0.022217,0.049072,-0.096203,-0.976193,-0.132829,15.173813,-30.544279,16.657204,,,,,,,,,,,,,,,,,,,,,,,,,,,,,,,,,,,,,,,,,,,,,,,,,,,,,,,,,,,,,,,,,,,,,,,,,,,,,,,,,,,,,,,,,,,,,,,,,,,,,
1737283273.812335,1737283273.812705,49.000000,0.000000,4331.025879,4352.179688,4268.461426,4319.743652,4357.436035,4361.410156,4370.897461,4554.102539,4551.410156,4559.230957,4488.974121,5633.205078,4301.794922,4257.051270,0.000000,2.000000,35.000000,,,,0.000000,0.000000,0.000000,0.000000,0.000000,0.000000,0.000000,0.000000,0.000000,0.000000,0.000000,0.000000,0.000000,0.000000,0.000000,0.000000,,,,,,,,,,,,,,,,,,,,,,,,,,,,,,,,,,,,,,,,,,,,,,,,,,,,,,,,,,,,,,,,,,,,,,,,,,,,,,,,,,,,,,,,,,,,,,,,,,,,,,,,,,,,,,,,,,,,,,,,,,,,,,,,,
1737283273.820144,1737283273.820514,50.000000,0.000000,4332.563965,4354.358887,4271.025879,4319.102539,4356.410156,4358.461426,4359.358887,4553.205078,4549.743652,4558.461426,4495.769043,5640.384766,4307.820313,4264.871582,0.000000,2.000000,35.000000,,,,0.000000,0.000000,0.000000,0.000000,0.000000,0.000000,0.000000,0.000000,0.000000,0.000000,0.000000,0.000000,0.000000,0.000000,0.000000,0.000000,,,,,,,,,,,,,,,,,,,,,,,,,,,,,,,,,,,,,,,,,,,,,,,,,,,,,,,,,,,,,,,,,,,,,,,,,,,,,,,,,,,,,,,,,,,,,,,,,,,,,,,,,,,,,,,,,,,,,,,,,,,,,,,,,
1737283273.827952,1737283273.828421,51.000000,0.000000,4333.589844,4350.641113,4267.948730,4320.128418,4353.589844,4358.205078,4360.384766,4553.461426,4550.128418,4559.615234,4495.256348,5638.333496,4305.384766,4260.000000,0.000000,2.000000,35.000000,,,,0.000000,0.000000,0.000000,0.000000,0.000000,0.000000,0.000000,0.000000,0.000000,0.000000,0.000000,0.000000,0.000000,0.000000,0.000000,0.000000,,,,,,,,,,,,,,,,,,,,,,,,,,,,,,,,,,,,,,,,,,,,,,,,,,,,,,,,,,,,,,,,,,,,,,,,,,,,,,,,,,,,,,,,,,,,,,,,,,,,,,,,,,,,,,,,,,,,,,,,,,,,,,,,,
1737283273.835760,1737283273.836229,52.000000,0.000000,4333.974121,4348.333496,4269.871582,4322.563965,4355.000000,4359.615234,4368.461426,4551.922852,4551.794922,4558.205078,4492.563965,5635.769043,4302.179688,4258.333496,0.000000,2.000000,35.000000,,,,0.000000,0.000000,0.000000,0.000000,0.000000,0.000000,0.000000,0.000000,0.000000,0.000000,0.000000,0.000000,0.000000,0.000000,0.000000,0.000000,,,,,,,,,,,,,,,,,13.000000,0.000000,0.658900,-0.750305,0.022156,0.049011,-0.104505,-0.982053,-0.126480,15.189765,-30.539852,16.708149,,,,,,,,,,,,,,,,,,,,,,,,,,,,,,,,,,,,,,,,,,,,,,,,,,,,,,,,,,,,,,,,,,,,,,,,,,,,,,,,,,,,,,,,,,,,,,,,,,,,,
1737283273.843568,1737283273.844137,53.000000,0.000000,4334.358887,4349.615234,4272.820313,4323.333496,4355.384766,4359.230957,4366.153809,4550.256348,4551.410156,4560.000000,4497.307617,5641.153809,4304.487305,4265.897461,0.000000,2.000000,35.000000,,,,0.000000,0.000000,0.000000,0.000000,0.000000,0.000000,0.000000,0.000000,0.000000,0.000000,0.000000,0.000000,0.000000,0.000000,0.000000,0.000000,,,,,,,,,,,,,,,,,,,,,,,,,,,,,,,,,,,,,,,,,,,,,,,,,,,,,,,,,,,,,,,,,,,,,,,,,,,,,,,,,,,,,,,,,,,,,,,,,,,,,,,,,,,,,,,,,,,,,,,,,,,,,,,,,
1737283273.851376,1737283273.851945,54.000000,0.000000,4328.846191,4347.820313,4264.871582,4319.358887,4352.436035,4360.128418,4366.794922,4554.102539,4549.871582,4560.512695,4494.102539,5632.820313,4299.871582,4254.230957,0.000000,2.000000,35.000000,,,,0.000000,0.000000,0.000000,0.000000,0.000000,0.000000,0.000000,0.000000,0.000000,0.000000,0.000000,0.000000,0.000000,0.000000,0.000000,0.000000,,,,,,,,,,,,,,,,,,,,,,,,,,,,,,,,,,,,,,,,,,,,,,,,,,,,,,,,,,,,,,,,,,,,,,,,,,,,,,,,,,,,,,,,,,,,,,,,,,,,,,,,,,,,,,,,,,,,,,,,,,,,,,,,,
1737283273.859184,1737283273.859653,55.000000,0.000000,4334.230957,4352.692383,4272.051270,4323.589844,4352.436035,4359.230957,4360.128418,4552.820313,4549.358887,4558.974121,4494.871582,5636.153809,4305.641113,4264.615234,0.000000,2.000000,35.000000,,,,0.000000,0.000000,0.000000,0.000000,0.000000,0.000000,0.000000,0.000000,0.000000,0.000000,0.000000,0.000000,0.000000,0.000000,0.000000,0.000000,,,,,,,,,,,,,,,,,,,,,,,,,,,,,,,,,,,,,,,,,,,,,,,,,,,,,,,,,,,,,,,,,,,,,,,,,,,,,,,,,,,,,,,,,,,,,,,,,,,,,,,,,,,,,,,,,,,,,,,,,,,,,,,,,
1737283273.866992,1737283273.867461,56.000000,0.000000,4332.051270,4351.282227,4271.410156,4322.051270,4353.205078,4359.358887,4364.230957,4552.179688,4552.179688,4560.512695,4495.000000,5637.179688,4304.358887,4264.615234,0.000000,2.000000,35.000000,,,,0.000000,0.000000,0.000000,0.000000,0.000000,0.000000,0.000000,0.000000,0.000000,0.000000,0.000000,0.000000,0.000000,0.000000,0.000000,0.000000,,,,,,,,,,,,,,,,,14.000000,0.000000,0.658907,-0.750305,0.022095,0.048950,-0.089855,-0.996704,-0.127945,15.354122,-30.685865,16.704000,,,,,,,,,,,,,,,,,,,,,,,,,,,,,,,,,,,,,,,,,,,,,,,,,,,,,,,,,,,,,,,,,,,,,,,,,,,,,,,,,,,,,,,,,,,,,,,,,,,,,
1737283273.874800,1737283273.875169,57.000000,0.000000,4330.128418,4350.897461,4266.410156,4318.205078,4353.461426,4359.871582,4369.230957,4556.153809,4552.820313,4560.897461,4494.358887,5636.410156,4300.128418,4256.410156,0.000000,2.000000,35.000000,,,,0.000000,0.000000,0.000000,0.000000,0.000000,0.000000,0.000000,0.000000,0.000000,0.000000,0.000000,0.000000,0.000000,0.000000,0.000000,0.000000,,,,,,,,,,,,,,,,,,,,,,,,,,,,,,,,,,,,,,,,,,,,,,,,,,,,,,,,,,,,,,,,,,,,,,,,,,,,,,,,,,,,,,,,,,,,,,,,,,,,,,,,,,,,,,,,,,,,,,,,,,,,,,,,,
1737283273.882608,1737283273.882977,58.000000,0.000000,4338.589844,4356.153809,4271.153809,4322.436035,4353.589844,4359.358887,4362.179688,4556.538574,4550.384766,4557.948730,4496.025879,5641.282227,4303.717773,4267.692383,0.000000,2.000000,35.000000,,,,0.000000,0.000000,0.000000,0.000000,0.000000,0.000000,0.000000,0.000000,0.000000,0.000000,0.000000,0.000000,0.000000,0.000000,0.000000,0.000000,,,,,,,,,,,,,,,,,,,,,,,,,,,,,,,,,,,,,,,,,,,,,,,,,,,,,,,,,,,,,,,,,,,,,,,,,,,,,,,,,,,,,,,,,,,,,,,,,,,,,,,,,,,,,,,,,,,,,,,,,,,,,,,,,
1737283273.890416,1737283273.890685,59.000000,0.000000,4332.948730,4350.256348,4263.589844,4319.102539,4352.179688,4360.384766,4365.128418,4555.512695,4551.922852,4557.179688,4492.307617,5631.794922,4299.358887,4260.512695,0.000000,2.000000,35.000000,,,,0.000000,0.000000,0.000000,0.000000,0.000000,0.000000,0.000000,0.000000,0.000000,0.000000,0.000000,0.000000,0.000000,0.000000,0.000000,0.000000,,,,,,,,,,,,,,,,,,,,,,,,,,,,,,,,,,,,,,,,,,,,,,,,,,,,,,,,,,,,,,,,,,,,,,,,,,,,,,,,,,,,,,,,,,,,,,,,,,,,,,,,,,,,,,,,,,,,,,,,,,,,,,,,,
1737283273.898224,1737283273.898493,60.000000,0.000000,4331.025879,4350.256348,4268.333496,4320.256348,4352.820313,4357.948730,4361.538574,4553.077148,4554.358887,4559.102539,4497.051270,5639.743652,4306.794922,4263.205078,0.000000,2.000000,35.000000,,,,0.000000,0.000000,0.000000,0.000000,0.000000,0.000000,0.000000,0.000000,0.000000,0.000000,0.000000,0.000000,0.000000,0.000000,0.000000,0.000000,,,,,,,,,,,,,,,,,15.000000,0.000000,0.658907,-0.750305,0.022095,0.048950,-0.101087,-0.987914,-0.135270,15.468710,-30.717279,16.550268,,,,,,,,,,,,,,,,,,,,,,,,,,,,,,,,0.033367,0.036668,0.087354,0.050901,0.027505,0.011062,0.020743,0.013882,0.019559,0.027977,0.020690,0.024273,0.016245,0.011020,0.027168,0.031495,0.035038,0.023081,0.031577,0.022040,0.023809,0.011555,0.018287,0.015070,0.018984,0.017533,0.007123,0.019979,0.022787,0.020077,0.047623,0.041257,0.013322,0.020716,0.015708,0.054457,0.050108,0.010488,0.020242,0.017662,0.016274,0.008031,0.011087,0.009806,0.015291,0.026998,0.028577,0.024899,0.044033,0.025038,0.022140,0.031233,0.014318,0.018598,0.029454,0.043351,0.029599,0.023417,0.015578,0.020618,0.042456,0.028569,0.045331,0.029026,0.024574,0.040414,0.064667,0.023906,0.028636,0.035886
1737283273.906032,1737283273.906201,61.000000,0.000000,4331.410156,4351.282227,4272.692383,4323.205078,4353.589844,4357.563965,4359.615234,4553.589844,4553.205078,4558.974121,4498.205078,5643.717773,4306.794922,4264.358887,0.000000,2.000000,35.000000,,,,0.000000,0.000000,0.000000,0.000000,0.000000,0.000000,0.000000,0.000000,0.000000,0.000000,0.000000,0.000000,0.000000,0.000000,0.000000,0.000000,,,,,,,,,,,,,,,,,,,,,,,,,,,,,,,,,,,,,,,,,,,,,,,,,,,,,,,,,,,,,,,,,,,,,,,,,,,,,,,,,,,,,,,,,,,,,,,,,,,,,,,,,,,,,,,,,,,,,,,,,,,,,,,,,
1737283273.913841,1737283273.914009,62.000000,0.000000,4328.846191,4347.436035,4264.358887,4320.512695,4351.666504,4360.897461,4362.692383,4555.512695,4551.410156,4558.333496,4494.358887,5633.846191,4298.205078,4258.974121,0.000000,2.000000,35.000000,,,,0.000000,0.000000,0.000000,0.000000,0.000000,0.000000,0.000000,0.000000,0.000000,0.000000,0.000000,0.000000,0.000000,0.000000,0.000000,0.000000,,,,,,,,,,,,,,,,,,,,,,,,,,,,,,,,,,,,,,,,,,,,,,,,,,,,,,,,,,,,,,,,,,,,,,,,,,,,,,,,,,,,,,,,,,,,,,,,,,,,,,,,,,,,,,,,,,,,,,,,,,,,,,,,,
1737283273.921649,1737283273.921717,63.000000,0.000000,4332.179688,4352.436035,4269.358887,4320.512695,4351.538574,4360.384766,4361.410156,4553.205078,4550.769043,4558.717773,4498.974121,5640.256348,4307.051270,4270.256348,0.000000,2.000000,35.000000,,,,0.000000,0.000000,0.000000,0.000000,0.000000,0.000000,0.000000,0.000000,0.000000,0.000000,0.000000,0.000000,0.000000,0.000000,0.000000,0.000000,,,,,,,,,,,,,,,,,,,,,,,,,,,,,,,,,,,,,,,,,,,,,,,,,,,,,,,,,,,,,,,,,,,,,,,,,,,,,,,,,,,,,,,,,,,,,,,,,,,,,,,,,,,,,,,,,,,,,,,,,,,,,,,,,
1737283273.929457,1737283273.929525,64.000000,0.000000,4329.230957,4349.743652,4268.461426,4319.743652,4353.077148,4361.282227,4367.179688,4554.871582,4551.538574,4558.461426,4494.871582,5636.282227,4305.769043,4260.384766,0.000000,2.000000,35.000000,,,,0.000000,0.000000,0.000000,0.000000,0.000000,0.000000,0.000000,0.000000,0.000000,0.000000,0.000000,0.000000,0.000000,0.000000,0.000000,0.000000,,,,,,,,,,,,,,,,,16.000000,0.000000,0.658981,-0.750244,0.022095,0.048889,-0.100110,-0.989379,-0.117690,15.305172,-30.762218,16.478575,,,,,,,,,,,,,,,,,,,,,,,,,,,,,,,,,,,,,,,,,,,,,,,,,,,,,,,,,,,,,,,,,,,,,,,,,,,,,,,,,,,,,,,,,,,,,,,,,,,,,
1737283273.937265,1737283273.937233,65.000000,0.000000,4332.692383,4348.461426,4269.102539,4322.948730,4354.358887,4362.436035,4361.922852,4554.871582,4551.794922,4558.974121,4494.743652,5636.153809,4303.461426,4262.307617,0.000000,2.000000,35.000000,,,,0.000000,0.000000,0.000000,0.000000,0.000000,0.000000,0.000000,0.000000,0.000000,0.000000,0.000000,0.000000,0.000000,0.000000,0.000000,0.000000,,,,,,,,,,,,,,,,,,,,,,,,,,,,,,,,,,,,,,,,,,,,,,,,,,,,,,,,,,,,,,,,,,,,,,,,,,,,,,,,,,,,,,,,,,,,,,,,,,,,,,,,,,,,,,,,,,,,,,,,,,,,,,,,,
1737283273.945073,1737283273.945041,66.000000,0.000000,4333.717773,4350.897461,4268.846191,4322.692383,4353.717773,4361.282227,4360.641113,4553.461426,4551.794922,4557.436035,4496.282227,5639.358887,4304.102539,4266.666504,0.000000,2.000000,35.000000,,,,0.000000,0.000000,0.000000,0.000000,0.000000,0.000000,0.000000,0.000000,0.000000,0.000000,0.000000,0.000000,0.000000,0.000000,0.000000,0.000000,,,,,,,,,,,,,,,,,,,,,,,,,,,,,,,,,,,,,,,,,,,,,,,,,,,,,,,,,,,,,,,,,,,,,,,,,,,,,,,,,,,,,,,,,,,,,,,,,,,,,,,,,,,,,,,,,,,,,,,,,,,,,,,,,
1737283273.952881,1737283273.952750,67.000000,0.000000,4327.179688,4350.128418,4262.307617,4318.974121,4353.077148,4360.512695,4370.512695,4555.000000,4552.820313,4559.230957,4490.897461,5633.461426,4300.384766,4254.871582,0.000000,2.000000,35.000000,,,,0.000000,0.000000,0.000000,0.000000,0.000000,0.000000,0.000000,0.000000,0.000000,0.000000,0.000000,0.000000,0.000000,0.000000,0.000000,0.000000,,,,,,,,,,,,,,,,,,,,,,,,,,,,,,,,,,,,,,,,,,,,,,,,,,,,,,,,,,,,,,,,,,,,,,,,,,,,,,,,,,,,,,,,,,,,,,,,,,,,,,,,,,,,,,,,,,,,,,,,,,,,,,,,,
1737283273.960689,1737283273.960558,68.000000,0.000000,4331.666504,4354.615234,4269.871582,4323.077148,4354.871582,4359.743652,4364.230957,4554.871582,4552.948730,4560.897461,4495.384766,5641.025879,4306.153809,4263.717773,0.000000,2.000000,35.000000,,,,0.000000,0.000000,0.000000,0.000000,0.000000,0.000000,0.000000,0.000000,0.000000,0.000000,0.000000,0.000000,0.000000,0.000000,0.000000,0.000000,,,,,,,,,,,,,,,,,17.000000,0.000000,0.658907,-0.750305,0.022095,0.048950,-0.101087,-0.983030,-0.127457,15.391321,-30.785997,16.430717,,,,,,,,,,,,,,,,,,,,,,,,,,,,,,,,,,,,,,,,,,,,,,,,,,,,,,,,,,,,,,,,,,,,,,,,,,,,,,,,,,,,,,,,,,,,,,,,,,,,,
1737283273.968497,1737283273.968266,69.000000,0.000000,4330.384766,4351.922852,4265.897461,4319.102539,4353.205078,4361.153809,4365.384766,4555.641113,4553.077148,4557.307617,4496.153809,5638.717773,4303.461426,4257.692383,0.000000,2.000000,35.000000,,,,0.000000,0.000000,0.000000,0.000000,0.000000,0.000000,0.000000,0.000000,0.000000,0.000000,0.000000,0.000000,0.000000,0.000000,0.000000,0.000000,,,,,,,,,,,,,,,,,,,,,,,,,,,,,,,,,,,,,,,,,,,,,,,,,,,,,,,,,,,,,,,,,,,,,,,,,,,,,,,,,,,,,,,,,,,,,,,,,,,,,,,,,,,,,,,,,,,,,,,,,,,,,,,,,
1737283273.976305,1737283273.976174,70.000000,0.000000,4331.282227,4350.897461,4264.615234,4318.717773,4351.410156,4361.410156,4366.666504,4553.974121,4552.563965,4557.820313,4496.538574,5637.820313,4303.589844,4258.333496,0.000000,2.000000,35.000000,,,,0.000000,0.000000,0.000000,0.000000,0.000000,0.000000,0.000000,0.000000,0.000000,0.000000,0.000000,0.000000,0.000000,0.000000,0.000000,0.000000,,,,,,,,,,,,,,,,,,,,,,,,,,,,,,,,,,,,,,,,,,,,,,,,,,,,,,,,,,,,,,,,,,,,,,,,,,,,,,,,,,,,,,,,,,,,,,,,,,,,,,,,,,,,,,,,,,,,,,,,,,,,,,,,,
1737283273.984113,1737283273.983982,71.000000,0.000000,4332.820313,4354.487305,4269.230957,4324.358887,4352.436035,4359.871582,4359.743652,4553.589844,4552.051270,4559.230957,4497.307617,5641.538574,4305.897461,4266.538574,0.000000,2.000000,35.000000,,,,0.000000,0.000000,0.000000,0.000000,0.000000,0.000000,0.000000,0.000000,0.000000,0.000000,0.000000,0.000000,0.000000,0.000000,0.000000,0.000000,,,,,,,,,,,,,,,,,,,,,,,,,,,,,,,,,,,,,,,,,,,,,,,,,,,,,,,,,,,,,,,,,,,,,,,,,,,,,,,,,,,,,,,,,,,,,,,,,,,,,,,,,,,,,,,,,,,,,,,,,,,,,,,,,
1737283273.991922,1737283273.991890,72.000000,0.000000,4327.948730,4350.512695,4263.717773,4321.025879,4353.461426,4360.128418,4362.820313,4559.615234,4552.307617,4558.846191,4493.974121,5634.358887,4300.384766,4255.512695,0.000000,2.000000,35.000000,,,,0.000000,0.000000,0.000000,0.000000,0.000000,0.000000,0.000000,0.000000,0.000000,0.000000,0.000000,0.000000,0.000000,0.000000,0.000000,0.000000,,,,,,,,,,,,,,,,,18.000000,0.000000,0.658907,-0.750305,0.022217,0.048889,-0.112318,-0.991820,-0.122085,15.218856,-30.807396,16.504313,,,,,,,,,,,,,,,,,,,,,,,,,,,,,,,,,,,,,,,,,,,,,,,,,,,,,,,,,,,,,,,,,,,,,,,,,,,,,,,,,,,,,,,,,,,,,,,,,,,,,
1737283273.999730,1737283273.999698,73.000000,0.000000,4334.487305,4351.025879,4272.307617,4322.820313,4353.974121,4359.230957,4361.794922,4558.205078,4548.461426,4561.538574,4500.256348,5641.282227,4305.897461,4264.487305,0.000000,2.000000,35.000000,,,,0.000000,0.000000,0.000000,0.000000,0.000000,0.000000,0.000000,0.000000,0.000000,0.000000,0.000000,0.000000,0.000000,0.000000,0.000000,0.000000,,,,,,,,,,,,,,,,,,,,,,,,,,,,,,,,,,,,,,,,,,,,,,,,,,,,,,,,,,,,,,,,,,,,,,,,,,,,,,,,,,,,,,,,,,,,,,,,,,,,,,,,,,,,,,,,,,,,,,,,,,,,,,,,,
1737283274.007538,1737283274.007606,74.000000,0.000000,4333.846191,4348.205078,4270.512695,4322.436035,4353.461426,4358.974121,4365.769043,4552.436035,4548.461426,4561.153809,4495.769043,5637.563965,4303.461426,4262.051270,0.000000,2.000000,35.000000,,,,0.000000,0.000000,0.000000,0.000000,0.000000,0.000000,0.000000,0.000000,0.000000,0.000000,0.000000,0.000000,0.000000,0.000000,0.000000,0.000000,,,,,,,,,,,,,,,,,,,,,,,,,,,,,,,,,,,,,,,,,,,,,,,,,,,,,,,,,,,,,,,,,,,,,,,,,,,,,,,,,,,,,,,,,,,,,,,,,,,,,,,,,,,,,,,,,,,,,,,,,,,,,,,,,
1737283274.015346,1737283274.015414,75.000000,0.000000,4333.846191,4348.461426,4263.974121,4320.256348,4353.846191,4358.846191,4365.769043,4550.897461,4553.461426,4559.230957,4489.871582,5633.077148,4300.512695,4257.436035,0.000000,2.000000,35.000000,,,,0.000000,0.000000,0.000000,0.000000,0.000000,0.000000,0.000000,0.000000,0.000000,0.000000,0.000000,0.000000,0.000000,0.000000,0.000000,0.000000,,,,,,,,,,,,,,,,,,,,,,,,,,,,,,,,,,,,,,,,,,,,,,,,,,,,,,,,,,,,,,,,,,,,,,,,,,,,,,,,,,,,,,,,,,,,,,,,,,,,,,,,,,,,,,,,,,,,,,,,,,,,,,,,,
1737283274.023154,1737283274.023322,76.000000,0.000000,4336.410156,4351.410156,4271.153809,4320.641113,4354.358887,4358.589844,4359.230957,4552.307617,4552.820313,4561.922852,4496.538574,5643.077148,4308.077148,4267.692383,0.000000,2.000000,35.000000,,,,0.000000,0.000000,0.000000,0.000000,0.000000,0.000000,0.000000,0.000000,0.000000,0.000000,0.000000,0.000000,0.000000,0.000000,0.000000,0.000000,,,,,,,,,,,,,,,,,19.000000,0.000000,0.658914,-0.750305,0.022156,0.048828,-0.101575,-0.984984,-0.124527,15.163637,-30.843325,16.553881,,,,,,,,,,,,,,,,,,,,,,,,,,,,,,,,0.027051,0.032653,0.063931,0.046289,0.027178,0.011475,0.021184,0.013427,0.019997,0.023452,0.035131,0.026684,0.016394,0.010346,0.024740,0.028298,0.031324,0.027588,0.036609,0.024672,0.019044,0.014005,0.017474,0.012656,0.018445,0.023013,0.007069,0.026968,0.023639,0.020617,0.049514,0.042537,0.015385,0.021221,0.014869,0.056516,0.049540,0.011752,0.019391,0.021373,0.019396,0.007813,0.015273,0.010137,0.014168,0.036781,0.029578,0.023007,0.045056,0.026078,0.024474,0.029638,0.015457,0.019350,0.029174,0.043678,0.034403,0.020955,0.013357,0.021792,0.064376,0.029850,0.053899,0.026942,0.024296,0.035827,0.059524,0.023150,0.025888,0.035273
1737283274.030962,1737283274.031130,77.000000,0.000000,4327.179688,4346.794922,4267.307617,4316.153809,4351.922852,4359.615234,4365.769043,4554.358887,4549.743652,4561.282227,4495.256348,5637.179688,4303.589844,4259.615234,0.000000,2.000000,35.000000,,,,0.000000,0.000000,0.000000,0.000000,0.000000,0.000000,0.000000,0.000000,0.000000,0.000000,0.000000,0.000000,0.000000,0.000000,0.000000,0.000000,,,,,,,,,,,,,,,,,,,,,,,,,,,,,,,,,,,,,,,,,,,,,,,,,,,,,,,,,,,,,,,,,,,,,,,,,,,,,,,,,,,,,,,,,,,,,,,,,,,,,,,,,,,,,,,,,,,,,,,,,,,,,,,,,
1737283274.038770,1737283274.039038,78.000000,0.000000,4332.692383,4351.410156,4268.333496,4320.128418,4352.051270,4359.487305,4362.179688,4553.077148,4549.615234,4557.948730,4496.922852,5638.974121,4302.948730,4266.153809,0.000000,2.000000,35.000000,,,,0.000000,0.000000,0.000000,0.000000,0.000000,0.000000,0.000000,0.000000,0.000000,0.000000,0.000000,0.000000,0.000000,0.000000,0.000000,0.000000,,,,,,,,,,,,,,,,,,,,,,,,,,,,,,,,,,,,,,,,,,,,,,,,,,,,,,,,,,,,,,,,,,,,,,,,,,,,,,,,,,,,,,,,,,,,,,,,,,,,,,,,,,,,,,,,,,,,,,,,,,,,,,,,,
1737283274.046578,1737283274.046846,79.000000,0.000000,4335.897461,4350.769043,4268.333496,4322.051270,4352.948730,4361.025879,4361.922852,4554.743652,4552.692383,4558.846191,4494.871582,5637.692383,4304.487305,4265.128418,0.000000,2.000000,35.000000,,,,0.000000,0.000000,0.000000,0.000000,0.000000,0.000000,0.000000,0.000000,0.000000,0.000000,0.000000,0.000000,0.000000,0.000000,0.000000,0.000000,,,,,,,,,,,,,,,,,,,,,,,,,,,,,,,,,,,,,,,,,,,,,,,,,,,,,,,,,,,,,,,,,,,,,,,,,,,,,,,,,,,,,,,,,,,,,,,,,,,,,,,,,,,,,,,,,,,,,,,,,,,,,,,,,
1737283274.054386,1737283274.054754,80.000000,0.000000,4331.538574,4346.666504,4266.922852,4319.102539,4352.563965,4362.051270,4366.282227,4555.512695,4554.230957,4559.487305,4490.000000,5634.743652,4303.717773,4256.025879,0.000000,2.000000,35.000000,,,,0.000000,0.000000,0.000000,0.000000,0.000000,0.000000,0.000000,0.000000,0.000000,0.000000,0.000000,0.000000,0.000000,0.000000,0.000000,0.000000,,,,,,,,,,,,,,,,,20.000000,0.000000,0.658835,-0.750366,0.022278,0.048889,-0.109388,-0.982053,-0.123062,15.197273,-30.825659,16.598494,,,,,,,,,,,,,,,,,,,,,,,,,,,,,,,,,,,,,,,,,,,,,,,,,,,,,,,,,,,,,,,,,,,,,,,,,,,,,,,,,,,,,,,,,,,,,,,,,,,,,
1737283274.062194,1737283274.062562,81.000000,0.000000,4336.153809,4351.794922,4269.743652,4319.487305,4353.717773,4360.128418,4360.128418,4551.538574,4551.794922,4559.871582,4494.230957,5643.205078,4306.794922,4264.871582,0.000000,2.000000,35.000000,,,,0.000000,0.000000,0.000000,0.000000,0.000000,0.000000,0.000000,0.000000,0.000000,0.000000,0.000000,0.000000,0.000000,0.000000,0.000000,0.000000,,,,,,,,,,,,,,,,,,,,,,,,,,,,,,,,,,,,,,,,,,,,,,,,,,,,,,,,,,,,,,,,,,,,,,,,,,,,,,,,,,,,,,,,,,,,,,,,,,,,,,,,,,,,,,,,,,,,,,,,,,,,,,,,,
1737283274.070002,1737283274.070270,82.000000,0.000000,4332.692383,4348.717773,4263.461426,4316.153809,4353.974121,4360.897461,4363.333496,4553.461426,4551.153809,4563.461426,4490.641113,5634.358887,4302.948730,4256.794922,0.000000,2.000000,35.000000,,,,0.000000,0.000000,0.000000,0.000000,0.000000,0.000000,0.000000,0.000000,0.000000,0.000000,0.000000,0.000000,0.000000,0.000000,0.000000,0.000000,,,,,,,,,,,,,,,,,,,,,,,,,,,,,,,,,,,,,,,,,,,,,,,,,,,,,,,,,,,,,,,,,,,,,,,,,,,,,,,,,,,,,,,,,,,,,,,,,,,,,,,,,,,,,,,,,,,,,,,,,,,,,,,,,
1737283274.077811,1737283274.078078,83.000000,0.000000,4332.820313,4347.820313,4272.307617,4320.641113,4352.692383,4361.025879,4361.282227,4553.333496,4552.563965,4564.743652,4492.948730,5636.410156,4307.692383,4265.384766,0.000000,2.000000,35.000000,,,,0.000000,0.000000,0.000000,0.000000,0.000000,0.000000,0.000000,0.000000,0.000000,0.000000,0.000000,0.000000,0.000000,0.000000,0.000000,0.000000,,,,,,,,,,,,,,,,,,,,,,,,,,,,,,,,,,,,,,,,,,,,,,,,,,,,,,,,,,,,,,,,,,,,,,,,,,,,,,,,,,,,,,,,,,,,,,,,,,,,,,,,,,,,,,,,,,,,,,,,,,,,,,,,,
1737283274.085619,1737283274.085786,84.000000,0.000000,4334.743652,4347.563965,4273.461426,4322.436035,4353.205078,4360.897461,4361.025879,4553.846191,4552.692383,4559.230957,4494.230957,5640.000000,4305.641113,4268.974121,0.000000,2.000000,35.000000,,,,0.000000,0.000000,0.000000,0.000000,0.000000,0.000000,0.000000,0.000000,0.000000,0.000000,0.000000,0.000000,0.000000,0.000000,0.000000,0.000000,,,,,,,,,,,,,,,,,21.000000,0.000000,0.658822,-0.750366,0.022400,0.049011,-0.095226,-0.979612,-0.125504,15.127546,-30.876425,16.571978,,,,,,,,,,,,,,,,,,,,,,,,,,,,,,,,,,,,,,,,,,,,,,,,,,,,,,,,,,,,,,,,,,,,,,,,,,,,,,,,,,,,,,,,,,,,,,,,,,,,,
1737283274.093427,1737283274.093594,85.000000,0.000000,4330.897461,4347.179688,4261.282227,4316.153809,4353.974121,4361.538574,4369.615234,4558.589844,4550.897461,4557.307617,4489.871582,5632.820313,4297.179688,4257.307617,0.000000,2.000000,35.000000,,,,0.000000,0.000000,0.000000,0.000000,0.000000,0.000000,0.000000,0.000000,0.000000,0.000000,0.000000,0.000000,0.000000,0.000000,0.000000,0.000000,,,,,,,,,,,,,,,,,,,,,,,,,,,,,,,,,,,,,,,,,,,,,,,,,,,,,,,,,,,,,,,,,,,,,,,,,,,,,,,,,,,,,,,,,,,,,,,,,,,,,,,,,,,,,,,,,,,,,,,,,,,,,,,,,
1737283274.101235,1737283274.101302,86.000000,0.000000,4333.205078,4352.692383,4270.000000,4318.974121,4353.205078,4360.384766,4363.846191,4556.538574,4549.871582,4561.666504,4496.153809,5640.256348,4305.384766,4270.000000,0.000000,2.000000,35.000000,,,,0.000000,0.000000,0.000000,0.000000,0.000000,0.000000,0.000000,0.000000,0.000000,0.000000,0.000000,0.000000,0.000000,0.000000,0.000000,0.000000,,,,,,,,,,,,,,,,,,,,,,,,,,,,,,,,,,,,,,,,,,,,,,,,,,,,,,,,,,,,,,,,,,,,,,,,,,,,,,,,,,,,,,,,,,,,,,,,,,,,,,,,,,,,,,,,,,,,,,,,,,,,,,,,,
1737283274.109043,1737283274.109210,87.000000,0.000000,4331.153809,4349.102539,4269.358887,4319.102539,4352.179688,4359.743652,4361.282227,4556.666504,4552.307617,4561.153809,4495.256348,5634.615234,4304.102539,4262.307617,0.000000,2.000000,35.000000,,,,0.000000,0.000000,0.000000,0.000000,0.000000,0.000000,0.000000,0.000000,0.000000,0.000000,0.000000,0.000000,0.000000,0.000000,0.000000,0.000000,,,,,,,,,,,,,,,,,,,,,,,,,,,,,,,,,,,,,,,,,,,,,,,,,,,,,,,,,,,,,,,,,,,,,,,,,,,,,,,,,,,,,,,,,,,,,,,,,,,,,,,,,,,,,,,,,,,,,,,,,,,,,,,,,
1737283274.116851,1737283274.117018,88.000000,0.000000,4332.820313,4349.102539,4266.282227,4321.666504,4352.948730,4358.974121,4361.282227,4557.563965,4554.358887,4560.512695,4495.897461,5634.358887,4304.102539,4259.230957,0.000000,2.000000,35.000000,,,,0.000000,0.000000,0.000000,0.000000,0.000000,0.000000,0.000000,0.000000,0.000000,0.000000,0.000000,0.000000,0.000000,0.000000,0.000000,0.000000,,,,,,,,,,,,,,,,,22.000000,0.000000,0.658822,-0.750366,0.022400,0.049011,-0.100110,-0.982542,-0.117202,15.214791,-30.855450,16.448112,,,,,,,,,,,,,,,,,,,,,,,,,,,,,,,,,,,,,,,,,,,,,,,,,,,,,,,,,,,,,,,,,,,,,,,,,,,,,,,,,,,,,,,,,,,,,,,,,,,,,
1737283274.124659,1737283274.124926,89.000000,0.000000,4334.487305,4350.769043,4268.589844,4322.179688,4352.563965,4359.358887,4364.102539,4555.256348,4554.102539,4562.820313,4495.128418,5641.794922,4306.794922,4266.025879,0.000000,2.000000,35.000000,,,,0.000000,0.000000,0.000000,0.000000,0.000000,0.000000,0.000000,0.000000,0.000000,0.000000,0.000000,0.000000,0.000000,0.000000,0.000000,0.000000,,,,,,,,,,,,,,,,,,,,,,,,,,,,,,,,,,,,,,,,,,,,,,,,,,,,,,,,,,,,,,,,,,,,,,,,,,,,,,,,,,,,,,,,,,,,,,,,,,,,,,,,,,,,,,,,,,,,,,,,,,,,,,,,,
1737283274.132467,1737283274.132734,90.000000,0.000000,4330.384766,4347.692383,4267.436035,4317.051270,4352.820313,4361.794922,4367.307617,4556.153809,4550.641113,4561.410156,4488.205078,5634.871582,4300.512695,4257.563965,0.000000,2.000000,35.000000,,,,0.000000,0.000000,0.000000,0.000000,0.000000,0.000000,0.000000,0.000000,0.000000,0.000000,0.000000,0.000000,0.000000,0.000000,0.000000,0.000000,,,,,,,,,,,,,,,,,,,,,,,,,,,,,,,,,,,,,,,,,,,,,,,,,,,,,,,,,,,,,,,,,,,,,,,,,,,,,,,,,,,,,,,,,,,,,,,,,,,,,,,,,,,,,,,,,,,,,,,,,,,,,,,,,
1737283274.140275,1737283274.140642,91.000000,0.000000,4334.871582,4352.179688,4275.641113,4320.897461,4353.717773,4361.410156,4360.769043,4554.743652,4546.922852,4560.000000,4496.410156,5639.743652,4305.641113,4266.666504,0.000000,2.000000,35.000000,,,,0.000000,0.000000,0.000000,0.000000,0.000000,0.000000,0.000000,0.000000,0.000000,0.000000,0.000000,0.000000,0.000000,0.000000,0.000000,0.000000,,,,,,,,,,,,,,,,,,,,,,,,,,,,,,,,,,,,,,,,,,,,,,,,,,,,,,,,,,,,,,,,,,,,,,,,,,,,,,,,,,,,,,,,,,,,,,,,,,,,,,,,,,,,,,,,,,,,,,,,,,,,,,,,,
1737283274.148083,1737283274.148451,92.000000,0.000000,4330.769043,4350.384766,4267.436035,4317.820313,4352.436035,4361.282227,4366.538574,4554.230957,4548.846191,4560.000000,4498.717773,5638.205078,4302.563965,4261.410156,0.000000,2.000000,35.000000,,,,0.000000,0.000000,0.000000,0.000000,0.000000,0.000000,0.000000,0.000000,0.000000,0.000000,0.000000,0.000000,0.000000,0.000000,0.000000,0.000000,,,,,,,,,,,,,,,,,23.000000,0.000000,0.658753,-0.750427,0.022400,0.049011,-0.091808,-0.975217,-0.134294,15.209979,-30.886572,16.419968,,,,,,,,,,,,,,,,,,,,,,,,,,,,,,,,0.024346,0.026830,0.041284,0.039576,0.026947,0.014410,0.020955,0.014669,0.020721,0.019464,0.057914,0.030660,0.016794,0.011036,0.023025,0.024821,0.028572,0.032496,0.041635,0.026742,0.014639,0.017454,0.017124,0.010844,0.017493,0.030287,0.008886,0.035796,0.025151,0.020607,0.052306,0.046325,0.016250,0.022237,0.015918,0.058357,0.045552,0.014281,0.018969,0.025563,0.023556,0.008725,0.020037,0.011182,0.013145,0.049288,0.032090,0.023169,0.047639,0.026502,0.027751,0.026506,0.016611,0.020206,0.027516,0.043568,0.037532,0.020479,0.011886,0.022948,0.097625,0.037928,0.062670,0.024543,0.024203,0.034198,0.056478,0.024001,0.023569,0.033849
1737283274.155892,1737283274.156359,93.000000,0.000000,4329.615234,4348.974121,4262.563965,4317.820313,4354.487305,4361.153809,4367.820313,4554.230957,4551.410156,4561.025879,4494.743652,5637.179688,4302.179688,4260.641113,0.000000,2.000000,35.000000,,,,0.000000,0.000000,0.000000,0.000000,0.000000,0.000000,0.000000,0.000000,0.000000,0.000000,0.000000,0.000000,0.000000,0.000000,0.000000,0.000000,,,,,,,,,,,,,,,,,,,,,,,,,,,,,,,,,,,,,,,,,,,,,,,,,,,,,,,,,,,,,,,,,,,,,,,,,,,,,,,,,,,,,,,,,,,,,,,,,,,,,,,,,,,,,,,,,,,,,,,,,,,,,,,,,
1737283274.163700,1737283274.164167,94.000000,0.000000,4333.589844,4350.897461,4273.974121,4322.307617,4355.897461,4359.487305,4360.641113,4552.692383,4552.051270,4563.205078,4496.666504,5642.692383,4308.846191,4270.128418,0.000000,2.000000,35.000000,,,,0.000000,0.000000,0.000000,0.000000,0.000000,0.000000,0.000000,0.000000,0.000000,0.000000,0.000000,0.000000,0.000000,0.000000,0.000000,0.000000,,,,,,,,,,,,,,,,,,,,,,,,,,,,,,,,,,,,,,,,,,,,,,,,,,,,,,,,,,,,,,,,,,,,,,,,,,,,,,,,,,,,,,,,,,,,,,,,,,,,,,,,,,,,,,,,,,,,,,,,,,,,,,,,,
1737283274.171508,1737283274.172075,95.000000,0.000000,4328.846191,4344.615234,4269.743652,4315.897461,4352.692383,4360.512695,4365.384766,4552.692383,4552.307617,4562.307617,4496.025879,5635.000000,4302.563965,4258.846191,0.000000,2.000000,35.000000,,,,0.000000,0.000000,0.000000,0.000000,0.000000,0.000000,0.000000,0.000000,0.000000,0.000000,0.000000,0.000000,0.000000,0.000000,0.000000,0.000000,,,,,,,,,,,,,,,,,,,,,,,,,,,,,,,,,,,,,,,,,,,,,,,,,,,,,,,,,,,,,,,,,,,,,,,,,,,,,,,,,,,,,,,,,,,,,,,,,,,,,,,,,,,,,,,,,,,,,,,,,,,,,,,,,
1737283274.179316,1737283274.179883,96.000000,0.000000,4334.615234,4347.948730,4267.820313,4320.000000,4354.358887,4360.512695,4362.436035,4552.692383,4551.025879,4559.487305,4498.461426,5640.641113,4304.615234,4266.666504,0.000000,2.000000,35.000000,,,,0.000000,0.000000,0.000000,0.000000,0.000000,0.000000,0.000000,0.000000,0.000000,0.000000,0.000000,0.000000,0.000000,0.000000,0.000000,0.000000,,,,,,,,,,,,,,,,,24.000000,0.000000,0.658816,-0.750366,0.022461,0.049072,-0.093761,-0.982542,-0.121597,15.088981,-30.847914,16.411304,,,,,,,,,,,,,,,,,,,,,,,,,,,,,,,,,,,,,,,,,,,,,,,,,,,,,,,,,,,,,,,,,,,,,,,,,,,,,,,,,,,,,,,,,,,,,,,,,,,,,
1737283274.187124,1737283274.187791,97.000000,0.000000,4333.589844,4351.794922,4264.487305,4321.538574,4357.692383,4359.871582,4363.717773,4554.615234,4550.769043,4558.205078,4493.974121,5638.846191,4303.461426,4262.820313,0.000000,2.000000,35.000000,,,,0.000000,0.000000,0.000000,0.000000,0.000000,0.000000,0.000000,0.000000,0.000000,0.000000,0.000000,0.000000,0.000000,0.000000,0.000000,0.000000,,,,,,,,,,,,,,,,,,,,,,,,,,,,,,,,,,,,,,,,,,,,,,,,,,,,,,,,,,,,,,,,,,,,,,,,,,,,,,,,,,,,,,,,,,,,,,,,,,,,,,,,,,,,,,,,,,,,,,,,,,,,,,,,,
1737283274.194932,1737283274.195599,98.000000,0.000000,4330.000000,4350.128418,4265.384766,4317.179688,4354.487305,4359.487305,4366.025879,4554.230957,4551.666504,4561.025879,4492.051270,5634.102539,4299.871582,4253.974121,0.000000,2.000000,35.000000,,,,0.000000,0.000000,0.000000,0.000000,0.000000,0.000000,0.000000,0.000000,0.000000,0.000000,0.000000,0.000000,0.000000,0.000000,0.000000,0.000000,,,,,,,,,,,,,,,,,,,,,,,,,,,,,,,,,,,,,,,,,,,,,,,,,,,,,,,,,,,,,,,,,,,,,,,,,,,,,,,,,,,,,,,,,,,,,,,,,,,,,,,,,,,,,,,,,,,,,,,,,,,,,,,,,
1737283274.202740,1737283274.203507,99.000000,0.000000,4335.512695,4350.897461,4273.205078,4321.153809,4351.410156,4359.358887,4360.256348,4552.307617,4551.025879,4562.948730,4497.436035,5641.025879,4305.000000,4266.025879,0.000000,2.000000,35.000000,,,,0.000000,0.000000,0.000000,0.000000,0.000000,0.000000,0.000000,0.000000,0.000000,0.000000,0.000000,0.000000,0.000000,0.000000,0.000000,0.000000,,,,,,,,,,,,,,,,,,,,,,,,,,,,,,,,,,,,,,,,,,,,,,,,,,,,,,,,,,,,,,,,,,,,,,,,,,,,,,,,,,,,,,,,,,,,,,,,,,,,,,,,,,,,,,,,,,,,,,,,,,,,,,,,,
1737283274.210548,1737283274.211315,100.000000,0.000000,4330.897461,4346.666504,4265.897461,4320.769043,4351.794922,4360.000000,4365.641113,4554.102539,4551.538574,4560.769043,4492.563965,5632.948730,4300.769043,4259.102539,0.000000,2.000000,35.000000,,,,0.000000,0.000000,0.000000,0.000000,0.000000,0.000000,0.000000,0.000000,0.000000,0.000000,0.000000,0.000000,0.000000,0.000000,0.000000,0.000000,,,,,,,,,,,,,,,,,25.000000,0.000000,0.658746,-0.750427,0.022461,0.049072,-0.103528,-0.985960,-0.127945,15.063416,-30.863123,16.570173,,,,,,,,,,,,,,,,,,,,,,,,,,,,,,,,,,,,,,,,,,,,,,,,,,,,,,,,,,,,,,,,,,,,,,,,,,,,,,,,,,,,,,,,,,,,,,,,,,,,,
1737283274.218356,1737283274.219223,101.000000,0.000000,4331.666504,4349.102539,4269.230957,4321.153809,4352.563965,4358.077148,4362.820313,4552.436035,4553.077148,4561.153809,4495.256348,5637.307617,4303.461426,4263.717773,0.000000,2.000000,35.000000,,,,0.000000,0.000000,0.000000,0.000000,0.000000,0.000000,0.000000,0.000000,0.000000,0.000000,0.000000,0.000000,0.000000,0.000000,0.000000,0.000000,,,,,,,,,,,,,,,,,,,,,,,,,,,,,,,,,,,,,,,,,,,,,,,,,,,,,,,,,,,,,,,,,,,,,,,,,,,,,,,,,,,,,,,,,,,,,,,,,,,,,,,,,,,,,,,,,,,,,,,,,,,,,,,,,
1737283274.226164,1737283274.227031,102.000000,0.000000,4332.436035,4350.128418,4271.666504,4320.384766,4353.589844,4359.743652,4361.794922,4553.846191,4552.692383,4562.948730,4498.077148,5638.974121,4304.230957,4265.128418,0.000000,2.000000,35.000000,,,,0.000000,0.000000,0.000000,0.000000,0.000000,0.000000,0.000000,0.000000,0.000000,0.000000,0.000000,0.000000,0.000000,0.000000,0.000000,0.000000,,,,,,,,,,,,,,,,,,,,,,,,,,,,,,,,,,,,,,,,,,,,,,,,,,,,,,,,,,,,,,,,,,,,,,,,,,,,,,,,,,,,,,,,,,,,,,,,,,,,,,,,,,,,,,,,,,,,,,,,,,,,,,,,,
1737283274.233972,1737283274.234739,103.000000,0.000000,4329.871582,4346.922852,4266.282227,4318.333496,4353.461426,4362.307617,4366.922852,4556.666504,4551.153809,4561.410156,4492.948730,5632.692383,4300.641113,4257.563965,0.000000,2.000000,35.000000,,,,0.000000,0.000000,0.000000,0.000000,0.000000,0.000000,0.000000,0.000000,0.000000,0.000000,0.000000,0.000000,0.000000,0.000000,0.000000,0.000000,,,,,,,,,,,,,,,,,,,,,,,,,,,,,,,,,,,,,,,,,,,,,,,,,,,,,,,,,,,,,,,,,,,,,,,,,,,,,,,,,,,,,,,,,,,,,,,,,,,,,,,,,,,,,,,,,,,,,,,,,,,,,,,,,
1737283274.241780,1737283274.242547,104.000000,0.000000,4334.358887,4350.512695,4271.666504,4322.051270,4351.410156,4361.025879,4361.922852,4552.051270,4549.358887,4558.205078,4497.307617,5642.692383,4307.436035,4268.589844,0.000000,2.000000,35.000000,,,,0.000000,0.000000,0.000000,0.000000,0.000000,0.000000,0.000000,0.000000,0.000000,0.000000,0.000000,0.000000,0.000000,0.000000,0.000000,0.000000,,,,,,,,,,,,,,,,,26.000000,0.000000,0.658612,-0.750549,0.022461,0.049011,-0.103528,-0.990355,-0.131364,15.107075,-30.676811,16.746490,,,,,,,,,,,,,,,,,,,,,,,,,,,,,,,,,,,,,,,,,,,,,,,,,,,,,,,,,,,,,,,,,,,,,,,,,,,,,,,,,,,,,,,,,,,,,,,,,,,,,
1737283274.249589,1737283274.250255,105.000000,0.000000,4327.948730,4348.205078,4267.179688,4318.717773,4350.897461,4361.282227,4365.000000,4552.948730,4549.487305,4558.205078,4496.666504,5636.922852,4303.077148,4260.256348,0.000000,2.000000,35.000000,,,,0.000000,0.000000,0.000000,0.000000,0.000000,0.000000,0.000000,0.000000,0.000000,0.000000,0.000000,0.000000,0.000000,0.000000,0.000000,0.000000,,,,,,,,,,,,,,,,,,,,,,,,,,,,,,,,,,,,,,,,,,,,,,,,,,,,,,,,,,,,,,,,,,,,,,,,,,,,,,,,,,,,,,,,,,,,,,,,,,,,,,,,,,,,,,,,,,,,,,,,,,,,,,,,,
1737283274.257397,1737283274.258063,106.000000,0.000000,4329.102539,4350.128418,4266.922852,4319.358887,4353.974121,4358.717773,4362.436035,4555.128418,4550.000000,4561.282227,4496.410156,5635.769043,4301.666504,4261.153809,0.000000,2.000000,35.000000,,,,0.000000,0.000000,0.000000,0.000000,0.000000,0.000000,0.000000,0.000000,0.000000,0.000000,0.000000,0.000000,0.000000,0.000000,0.000000,0.000000,,,,,,,,,,,,,,,,,,,,,,,,,,,,,,,,,,,,,,,,,,,,,,,,,,,,,,,,,,,,,,,,,,,,,,,,,,,,,,,,,,,,,,,,,,,,,,,,,,,,,,,,,,,,,,,,,,,,,,,,,,,,,,,,,
1737283274.265205,1737283274.265771,107.000000,0.000000,4336.538574,4352.051270,4268.461426,4321.410156,4353.974121,4359.743652,4360.000000,4553.077148,4551.666504,4561.410156,4495.256348,5640.769043,4304.871582,4266.025879,0.000000,2.000000,35.000000,,,,0.000000,0.000000,0.000000,0.000000,0.000000,0.000000,0.000000,0.000000,0.000000,0.000000,0.000000,0.000000,0.000000,0.000000,0.000000,0.000000,,,,,,,,,,,,,,,,,,,,,,,,,,,,,,,,,,,,,,,,,,,,,,,,,,,,,,,,,,,,,,,,,,,,,,,,,,,,,,,,,,,,,,,,,,,,,,,,,,,,,,,,,,,,,,,,,,,,,,,,,,,,,,,,,
1737283274.273013,1737283274.273579,108.000000,0.000000,4332.307617,4346.282227,4264.871582,4319.230957,4352.307617,4364.615234,4366.410156,4554.743652,4553.589844,4558.205078,4491.153809,5636.410156,4301.153809,4255.128418,0.000000,2.000000,35.000000,,,,0.000000,0.000000,0.000000,0.000000,0.000000,0.000000,0.000000,0.000000,0.000000,0.000000,0.000000,0.000000,0.000000,0.000000,0.000000,0.000000,1.000000,0.000000,0.000000,0.000000,0.000000,0.000000,0.000000,0.000000,0.000000,0.000000,0.000000,0.000000,0.000000,0.000000,0.000000,0.000000,27.000000,0.000000,0.658677,-0.750488,0.022461,0.049072,-0.097668,-0.969845,-0.127457,15.029700,-30.859129,16.655174,,,,,,,,,,,,,,,,,,,,,,,,,,,,,,,,0.025824,0.020398,0.024088,0.032133,0.026535,0.018924,0.020239,0.018231,0.022129,0.016490,0.084225,0.035010,0.017218,0.012453,0.022416,0.022240,0.027244,0.036359,0.044931,0.027316,0.012151,0.020394,0.017091,0.009897,0.016197,0.038305,0.012293,0.044661,0.027151,0.019906,0.056390,0.052656,0.015801,0.023304,0.019090,0.059029,0.040510,0.017720,0.018905,0.029140,0.028031,0.010921,0.024593,0.012705,0.012653,0.061966,0.035655,0.025587,0.050089,0.026683,0.031870,0.022887,0.018216,0.021132,0.025119,0.042084,0.039052,0.021970,0.010844,0.024221,0.134282,0.049475,0.068904,0.022471,0.024560,0.034250,0.055458,0.025332,0.021848,0.032169
1737283274.280821,1737283274.281287,109.000000,0.000000,4333.333496,4348.461426,4272.563965,4322.692383,4354.102539,4361.922852,4361.538574,4556.794922,4552.051270,4559.102539,4496.666504,5643.974121,4305.256348,4265.256348,0.000000,2.000000,35.000000,,,,0.000000,0.000000,0.000000,0.000000,0.000000,0.000000,0.000000,0.000000,0.000000,0.000000,0.000000,0.000000,0.000000,0.000000,0.000000,0.000000,,,,,,,,,,,,,,,,,,,,,,,,,,,,,,,,,,,,,,,,,,,,,,,,,,,,,,,,,,,,,,,,,,,,,,,,,,,,,,,,,,,,,,,,,,,,,,,,,,,,,,,,,,,,,,,,,,,,,,,,,,,,,,,,,
1737283274.288629,1737283274.289095,110.000000,0.000000,4331.538574,4348.205078,4268.333496,4320.000000,4353.589844,4361.025879,4363.077148,4557.436035,4551.025879,4561.282227,4493.077148,5637.179688,4301.794922,4261.025879,0.000000,2.000000,35.000000,,,,0.000000,0.000000,0.000000,0.000000,0.000000,0.000000,0.000000,0.000000,0.000000,0.000000,0.000000,0.000000,0.000000,0.000000,0.000000,0.000000,,,,,,,,,,,,,,,,,,,,,,,,,,,,,,,,,,,,,,,,,,,,,,,,,,,,,,,,,,,,,,,,,,,,,,,,,,,,,,,,,,,,,,,,,,,,,,,,,,,,,,,,,,,,,,,,,,,,,,,,,,,,,,,,,
1737283274.296437,1737283274.296803,111.000000,0.000000,4331.666504,4349.102539,4265.769043,4319.230957,4353.205078,4362.307617,4363.461426,4553.589844,4550.128418,4560.641113,4490.897461,5634.102539,4302.179688,4258.461426,0.000000,2.000000,35.000000,,,,0.000000,0.000000,0.000000,0.000000,0.000000,0.000000,0.000000,0.000000,0.000000,0.000000,0.000000,0.000000,0.000000,0.000000,0.000000,0.000000,,,,,,,,,,,,,,,,,,,,,,,,,,,,,,,,,,,,,,,,,,,,,,,,,,,,,,,,,,,,,,,,,,,,,,,,,,,,,,,,,,,,,,,,,,,,,,,,,,,,,,,,,,,,,,,,,,,,,,,,,,,,,,,,,
1737283274.304245,1737283274.304611,112.000000,0.000000,4331.538574,4350.384766,4269.230957,4322.307617,4352.436035,4359.871582,4360.000000,4550.769043,4550.000000,4559.871582,4494.358887,5641.410156,4305.128418,4265.769043,0.000000,2.000000,35.000000,,,,0.000000,0.000000,0.000000,0.000000,0.000000,0.000000,0.000000,0.000000,0.000000,0.000000,0.000000,0.000000,0.000000,0.000000,0.000000,0.000000,,,,,,,,,,,,,,,,,28.000000,0.000000,0.658683,-0.750488,0.022400,0.049011,-0.117690,-0.986937,-0.121109,15.160064,-30.939884,16.606323,,,,,,,,,,,,,,,,,,,,,,,,,,,,,,,,,,,,,,,,,,,,,,,,,,,,,,,,,,,,,,,,,,,,,,,,,,,,,,,,,,,,,,,,,,,,,,,,,,,,,
1737283274.312053,1737283274.312319,113.000000,0.000000,4326.410156,4345.897461,4263.717773,4319.102539,4351.794922,4361.794922,4364.102539,4553.589844,4553.461426,4560.512695,4493.077148,5635.512695,4298.077148,4255.641113,0.000000,2.000000,35.000000,,,,0.000000,0.000000,0.000000,0.000000,0.000000,0.000000,0.000000,0.000000,0.000000,0.000000,0.000000,0.000000,0.000000,0.000000,0.000000,0.000000,,,,,,,,,,,,,,,,,,,,,,,,,,,,,,,,,,,,,,,,,,,,,,,,,,,,,,,,,,,,,,,,,,,,,,,,,,,,,,,,,,,,,,,,,,,,,,,,,,,,,,,,,,,,,,,,,,,,,,,,,,,,,,,,,
1737283274.319861,1737283274.320127,114.000000,0.000000,4334.102539,4348.461426,4269.743652,4321.025879,4354.615234,4363.846191,4360.384766,4553.333496,4553.461426,4561.538574,4499.743652,5641.282227,4303.077148,4263.461426,0.000000,2.000000,35.000000,,,,0.000000,0.000000,0.000000,0.000000,0.000000,0.000000,0.000000,0.000000,0.000000,0.000000,0.000000,0.000000,0.000000,0.000000,0.000000,0.000000,,,,,,,,,,,,,,,,,,,,,,,,,,,,,,,,,,,,,,,,,,,,,,,,,,,,,,,,,,,,,,,,,,,,,,,,,,,,,,,,,,,,,,,,,,,,,,,,,,,,,,,,,,,,,,,,,,,,,,,,,,,,,,,,,
1737283274.327670,1737283274.327835,115.000000,0.000000,4333.589844,4348.077148,4267.692383,4320.000000,4353.589844,4360.000000,4364.102539,4555.897461,4550.641113,4558.717773,4496.410156,5637.692383,4301.153809,4261.538574,0.000000,2.000000,35.000000,,,,0.000000,0.000000,0.000000,0.000000,0.000000,0.000000,0.000000,0.000000,0.000000,0.000000,0.000000,0.000000,0.000000,0.000000,0.000000,0.000000,,,,,,,,,,,,,,,,,,,,,,,,,,,,,,,,,,,,,,,,,,,,,,,,,,,,,,,,,,,,,,,,,,,,,,,,,,,,,,,,,,,,,,,,,,,,,,,,,,,,,,,,,,,,,,,,,,,,,,,,,,,,,,,,,
1737283274.335477,1737283274.335643,116.000000,0.000000,4330.128418,4348.333496,4265.641113,4320.128418,4350.769043,4357.563965,4364.102539,4558.717773,4549.230957,4557.948730,4492.051270,5633.974121,4299.487305,4257.051270,0.000000,2.000000,35.000000,,,,0.000000,0.000000,0.000000,0.000000,0.000000,0.000000,0.000000,0.000000,0.000000,0.000000,0.000000,0.000000,0.000000,0.000000,0.000000,0.000000,,,,,,,,,,,,,,,,,29.000000,0.000000,0.658683,-0.750488,0.022400,0.049011,-0.096691,-0.988890,-0.131364,15.194057,-30.912561,16.645691,,,,,,,,,,,,,,,,,,,,,,,,,,,,,,,,,,,,,,,,,,,,,,,,,,,,,,,,,,,,,,,,,,,,,,,,,,,,,,,,,,,,,,,,,,,,,,,,,,,,,
1737283274.343286,1737283274.343351,117.000000,0.000000,4333.077148,4350.384766,4272.820313,4324.358887,4352.820313,4359.358887,4357.436035,4554.487305,4548.846191,4560.512695,4498.974121,5643.077148,4307.820313,4265.256348,0.000000,2.000000,35.000000,,,,0.000000,0.000000,0.000000,0.000000,0.000000,0.000000,0.000000,0.000000,0.000000,0.000000,0.000000,0.000000,0.000000,0.000000,0.000000,0.000000,,,,,,,,,,,,,,,,,,,,,,,,,,,,,,,,,,,,,,,,,,,,,,,,,,,,,,,,,,,,,,,,,,,,,,,,,,,,,,,,,,,,,,,,,,,,,,,,,,,,,,,,,,,,,,,,,,,,,,,,,,,,,,,,,
1737283274.351094,1737283274.351259,118.000000,0.000000,4329.615234,4346.153809,4264.487305,4320.256348,4352.820313,4360.512695,4366.922852,4554.487305,4550.897461,4560.512695,4494.358887,5635.769043,4301.025879,4257.436035,0.000000,2.000000,35.000000,,,,0.000000,0.000000,0.000000,0.000000,0.000000,0.000000,0.000000,0.000000,0.000000,0.000000,0.000000,0.000000,0.000000,0.000000,0.000000,0.000000,,,,,,,,,,,,,,,,,,,,,,,,,,,,,,,,,,,,,,,,,,,,,,,,,,,,,,,,,,,,,,,,,,,,,,,,,,,,,,,,,,,,,,,,,,,,,,,,,,,,,,,,,,,,,,,,,,,,,,,,,,,,,,,,,
1737283274.358902,1737283274.359067,119.000000,0.000000,4334.871582,4350.000000,4269.102539,4320.256348,4350.256348,4358.846191,4364.871582,4555.769043,4551.922852,4562.179688,4493.333496,5638.205078,4302.692383,4266.922852,0.000000,2.000000,35.000000,,,,0.000000,0.000000,0.000000,0.000000,0.000000,0.000000,0.000000,0.000000,0.000000,0.000000,0.000000,0.000000,0.000000,0.000000,0.000000,0.000000,,,,,,,,,,,,,,,,,,,,,,,,,,,,,,,,,,,,,,,,,,,,,,,,,,,,,,,,,,,,,,,,,,,,,,,,,,,,,,,,,,,,,,,,,,,,,,,,,,,,,,,,,,,,,,,,,,,,,,,,,,,,,,,,,
1737283274.366710,1737283274.366976,120.000000,0.000000,4335.000000,4351.153809,4272.563965,4320.384766,4351.666504,4361.025879,4362.436035,4554.743652,4552.307617,4562.820313,4495.641113,5638.974121,4305.897461,4264.102539,0.000000,2.000000,35.000000,,,,0.000000,0.000000,0.000000,0.000000,0.000000,0.000000,0.000000,0.000000,0.000000,0.000000,0.000000,0.000000,0.000000,0.000000,0.000000,0.000000,,,,,,,,,,,,,,,,,30.000000,0.000000,0.658679,-0.750488,0.022400,0.049072,-0.100110,-0.990355,-0.121109,15.207985,-30.871305,16.581121,,,,,,,,,,,,,,,,,,,,,,,,,,,,,,,,,,,,,,,,,,,,,,,,,,,,,,,,,,,,,,,,,,,,,,,,,,,,,,,,,,,,,,,,,,,,,,,,,,,,,
1737283274.374518,1737283274.374784,121.000000,0.000000,4329.487305,4350.641113,4267.692383,4319.102539,4353.589844,4361.794922,4367.307617,4555.384766,4552.436035,4558.077148,4494.615234,5635.128418,4302.692383,4255.769043,0.000000,2.000000,35.000000,,,,0.000000,0.000000,0.000000,0.000000,0.000000,0.000000,0.000000,0.000000,0.000000,0.000000,0.000000,0.000000,0.000000,0.000000,0.000000,0.000000,,,,,,,,,,,,,,,,,,,,,,,,,,,,,,,,,,,,,,,,,,,,,,,,,,,,,,,,,,,,,,,,,,,,,,,,,,,,,,,,,,,,,,,,,,,,,,,,,,,,,,,,,,,,,,,,,,,,,,,,,,,,,,,,,
1737283274.382326,1737283274.382692,122.000000,0.000000,4333.205078,4354.615234,4272.948730,4323.205078,4352.820313,4358.846191,4361.538574,4555.000000,4551.025879,4557.820313,4497.436035,5643.717773,4304.358887,4269.743652,0.000000,2.000000,35.000000,,,,0.000000,0.000000,0.000000,0.000000,0.000000,0.000000,0.000000,0.000000,0.000000,0.000000,0.000000,0.000000,0.000000,0.000000,0.000000,0.000000,,,,,,,,,,,,,,,,,,,,,,,,,,,,,,,,,,,,,,,,,,,,,,,,,,,,,,,,,,,,,,,,,,,,,,,,,,,,,,,,,,,,,,,,,,,,,,,,,,,,,,,,,,,,,,,,,,,,,,,,,,,,,,,,,
1737283274.390134,1737283274.390500,123.000000,0.000000,4331.794922,4349.743652,4265.641113,4318.846191,4352.692383,4360.256348,4365.256348,4555.641113,4549.871582,4562.692383,4492.563965,5635.512695,4297.051270,4257.692383,0.000000,2.000000,35.000000,,,,0.000000,0.000000,0.000000,0.000000,0.000000,0.000000,0.000000,0.000000,0.000000,0.000000,0.000000,0.000000,0.000000,0.000000,0.000000,0.000000,,,,,,,,,,,,,,,,,,,,,,,,,,,,,,,,,,,,,,,,,,,,,,,,,,,,,,,,,,,,,,,,,,,,,,,,,,,,,,,,,,,,,,,,,,,,,,,,,,,,,,,,,,,,,,,,,,,,,,,,,,,,,,,,,
1737283274.397942,1737283274.398408,124.000000,0.000000,4334.102539,4349.230957,4267.179688,4318.589844,4354.102539,4360.897461,4365.256348,4554.615234,4549.615234,4563.077148,4495.128418,5635.256348,4301.410156,4258.461426,0.000000,2.000000,35.000000,,,,0.000000,0.000000,0.000000,0.000000,0.000000,0.000000,0.000000,0.000000,0.000000,0.000000,0.000000,0.000000,0.000000,0.000000,0.000000,0.000000,,,,,,,,,,,,,,,,,31.000000,0.000000,0.658748,-0.750427,0.022400,0.049072,-0.104505,-0.988890,-0.112807,15.120520,-30.950842,16.589676,,,,,,,,,,,,,,,,,,,,,,,,,,,,,,,,0.030247,0.015083,0.013976,0.025605,0.025948,0.023688,0.019477,0.024113,0.024013,0.014532,0.106032,0.037863,0.017729,0.014083,0.023403,0.020590,0.026656,0.037852,0.045129,0.026326,0.011999,0.021678,0.017042,0.009815,0.014867,0.045377,0.016702,0.051023,0.028941,0.018499,0.061360,0.059590,0.014652,0.024497,0.024108,0.057678,0.036788,0.021104,0.019409,0.031178,0.031705,0.013810,0.028257,0.014447,0.012958,0.071396,0.038851,0.029721,0.050668,0.027051,0.037071,0.019668,0.020838,0.022202,0.022835,0.038750,0.039316,0.024263,0.009846,0.025557,0.163259,0.060635,0.070105,0.021188,0.025408,0.035523,0.055042,0.026079,0.020793,0.030544
1737283274.405750,1737283274.406215,125.000000,0.000000,4333.461426,4348.589844,4270.897461,4318.333496,4354.102539,4361.153809,4363.974121,4555.897461,4551.922852,4559.358887,4497.692383,5639.871582,4307.692383,4265.256348,0.000000,2.000000,35.000000,,,,0.000000,0.000000,0.000000,0.000000,0.000000,0.000000,0.000000,0.000000,0.000000,0.000000,0.000000,0.000000,0.000000,0.000000,0.000000,0.000000,,,,,,,,,,,,,,,,,,,,,,,,,,,,,,,,,,,,,,,,,,,,,,,,,,,,,,,,,,,,,,,,,,,,,,,,,,,,,,,,,,,,,,,,,,,,,,,,,,,,,,,,,,,,,,,,,,,,,,,,,,,,,,,,,
1737283274.413558,1737283274.414123,126.000000,0.000000,4328.461426,4344.487305,4265.256348,4314.871582,4353.205078,4359.615234,4364.358887,4556.794922,4554.358887,4559.487305,4495.256348,5634.102539,4301.794922,4258.333496,0.000000,2.000000,35.000000,,,,0.000000,0.000000,0.000000,0.000000,0.000000,0.000000,0.000000,0.000000,0.000000,0.000000,0.000000,0.000000,0.000000,0.000000,0.000000,0.000000,,,,,,,,,,,,,,,,,,,,,,,,,,,,,,,,,,,,,,,,,,,,,,,,,,,,,,,,,,,,,,,,,,,,,,,,,,,,,,,,,,,,,,,,,,,,,,,,,,,,,,,,,,,,,,,,,,,,,,,,,,,,,,,,,
1737283274.421367,1737283274.421931,127.000000,0.000000,4333.846191,4349.743652,4271.922852,4320.000000,4353.846191,4356.282227,4356.282227,4552.563965,4551.538574,4561.282227,4499.230957,5638.333496,4303.077148,4267.563965,35.000000,2.000000,35.000000,,,,0.000000,0.000000,0.000000,0.000000,0.000000,0.000000,0.000000,0.000000,0.000000,0.000000,0.000000,0.000000,0.000000,0.000000,0.000000,0.000000,,,,,,,,,,,,,,,,,,,,,,,,,,,,,,,,,,,,,,,,,,,,,,,,,,,,,,,,,,,,,,,,,,,,,,,,,,,,,,,,,,,,,,,,,,,,,,,,,,,,,,,,,,,,,,,,,,,,,,,,,,,,,,,,,
1737283274.429175,1737283274.429639,0.000000,0.000000,4331.538574,4348.974121,4267.692383,4317.692383,4353.205078,4361.153809,4363.974121,4553.589844,4548.846191,4559.743652,4492.820313,5634.871582,4299.487305,4256.922852,0.000000,2.000000,35.000000,,,,0.000000,0.000000,0.000000,0.000000,0.000000,0.000000,0.000000,0.000000,0.000000,0.000000,0.000000,0.000000,0.000000,0.000000,0.000000,0.000000,,,,,,,,,,,,,,,,,0.000000,0.000000,0.658811,-0.750366,0.022461,0.049133,-0.100598,-0.978147,-0.123550,15.158468,-31.055758,16.597376,,,,,,,,,,,,,,,,,,,,,,,,,,,,,,,,,,,,,,,,,,,,,,,,,,,,,,,,,,,,,,,,,,,,,,,,,,,,,,,,,,,,,,,,,,,,,,,,,,,,,
1737283274.436983,1737283274.437447,1.000000,0.000000,4332.692383,4348.461426,4265.000000,4317.179688,4355.384766,4362.563965,4367.436035,4554.871582,4550.897461,4560.769043,4492.563965,5637.948730,4303.461426,4256.922852,0.000000,2.000000,35.000000,,,,0.000000,0.000000,0.000000,0.000000,0.000000,0.000000,0.000000,0.000000,0.000000,0.000000,0.000000,0.000000,0.000000,0.000000,0.000000,0.000000,,,,,,,,,,,,,,,,,,,,,,,,,,,,,,,,,,,,,,,,,,,,,,,,,,,,,,,,,,,,,,,,,,,,,,,,,,,,,,,,,,,,,,,,,,,,,,,,,,,,,,,,,,,,,,,,,,,,,,,,,,,,,,,,,
1737283274.444791,1737283274.445155,2.000000,0.000000,4337.436035,4348.717773,4268.717773,4320.769043,4354.358887,4357.563965,4361.410156,4554.230957,4553.461426,4563.333496,4494.871582,5639.358887,4306.153809,4265.384766,0.000000,2.000000,35.000000,,,,0.000000,0.000000,0.000000,0.000000,0.000000,0.000000,0.000000,0.000000,0.000000,0.000000,0.000000,0.000000,0.000000,0.000000,0.000000,0.000000,,,,,,,,,,,,,,,,,,,,,,,,,,,,,,,,,,,,,,,,,,,,,,,,,,,,,,,,,,,,,,,,,,,,,,,,,,,,,,,,,,,,,,,,,,,,,,,,,,,,,,,,,,,,,,,,,,,,,,,,,,,,,,,,,
1737283274.452599,1737283274.452963,3.000000,0.000000,4332.307617,4344.487305,4265.641113,4318.589844,4349.358887,4359.230957,4363.205078,4556.153809,4552.436035,4562.948730,4491.282227,5631.025879,4297.948730,4255.128418,0.000000,2.000000,35.000000,,,,0.000000,0.000000,0.000000,0.000000,0.000000,0.000000,0.000000,0.000000,0.000000,0.000000,0.000000,0.000000,0.000000,0.000000,0.000000,0.000000,,,,,,,,,,,,,,,,,,,,,,,,,,,,,,,,,,,,,,,,,,,,,,,,,,,,,,,,,,,,,,,,,,,,,,,,,,,,,,,,,,,,,,,,,,,,,,,,,,,,,,,,,,,,,,,,,,,,,,,,,,,,,,,,,
1737283274.460407,1737283274.460671,4.000000,0.000000,4333.974121,4348.846191,4270.897461,4320.512695,4350.384766,4362.563965,4361.153809,4555.512695,4549.615234,4562.436035,4499.615234,5643.205078,4302.948730,4263.205078,0.000000,2.000000,35.000000,,,,0.000000,0.000000,0.000000,0.000000,0.000000,0.000000,0.000000,0.000000,0.000000,0.000000,0.000000,0.000000,0.000000,0.000000,0.000000,0.000000,,,,,,,,,,,,,,,,,1.000000,0.000000,0.658824,-0.750366,0.022339,0.049011,-0.096691,-0.982542,-0.132829,15.092621,-31.133514,16.537638,,,,,,,,,,,,,,,,,,,,,,,,,,,,,,,,,,,,,,,,,,,,,,,,,,,,,,,,,,,,,,,,,,,,,,,,,,,,,,,,,,,,,,,,,,,,,,,,,,,,,
1737283274.468215,1737283274.468479,5.000000,0.000000,4330.384766,4348.589844,4267.692383,4317.436035,4353.205078,4363.589844,4366.794922,4556.666504,4550.256348,4561.025879,4496.794922,5638.333496,4303.205078,4260.897461,0.000000,2.000000,35.000000,,,,0.000000,0.000000,0.000000,0.000000,0.000000,0.000000,0.000000,0.000000,0.000000,0.000000,0.000000,0.000000,0.000000,0.000000,0.000000,0.000000,,,,,,,,,,,,,,,,,,,,,,,,,,,,,,,,,,,,,,,,,,,,,,,,,,,,,,,,,,,,,,,,,,,,,,,,,,,,,,,,,,,,,,,,,,,,,,,,,,,,,,,,,,,,,,,,,,,,,,,,,,,,,,,,,
1737283274.476023,1737283274.476188,6.000000,0.000000,4328.461426,4349.615234,4268.589844,4317.179688,4354.102539,4361.025879,4366.282227,4556.282227,4552.436035,4560.384766,4491.153809,5631.153809,4303.077148,4260.384766,0.000000,2.000000,35.000000,,,,0.000000,0.000000,0.000000,0.000000,0.000000,0.000000,0.000000,0.000000,0.000000,0.000000,0.000000,0.000000,0.000000,0.000000,0.000000,0.000000,,,,,,,,,,,,,,,,,,,,,,,,,,,,,,,,,,,,,,,,,,,,,,,,,,,,,,,,,,,,,,,,,,,,,,,,,,,,,,,,,,,,,,,,,,,,,,,,,,,,,,,,,,,,,,,,,,,,,,,,,,,,,,,,,
1737283274.483831,1737283274.483995,7.000000,0.000000,4332.436035,4353.205078,4273.717773,4321.282227,4352.692383,4358.333496,4359.487305,4553.461426,4552.051270,4561.025879,4496.282227,5642.820313,4304.871582,4265.000000,0.000000,2.000000,35.000000,,,,0.000000,0.000000,0.000000,0.000000,0.000000,0.000000,0.000000,0.000000,0.000000,0.000000,0.000000,0.000000,0.000000,0.000000,0.000000,0.000000,,,,,,,,,,,,,,,,,,,,,,,,,,,,,,,,,,,,,,,,,,,,,,,,,,,,,,,,,,,,,,,,,,,,,,,,,,,,,,,,,,,,,,,,,,,,,,,,,,,,,,,,,,,,,,,,,,,,,,,,,,,,,,,,,
1737283274.491639,1737283274.491704,8.000000,0.000000,4329.358887,4349.102539,4263.589844,4316.666504,4351.538574,4360.769043,4365.897461,4556.410156,4550.641113,4560.128418,4494.743652,5638.077148,4298.077148,4251.153809,0.000000,2.000000,35.000000,,,,0.000000,0.000000,0.000000,0.000000,0.000000,0.000000,0.000000,0.000000,0.000000,0.000000,0.000000,0.000000,0.000000,0.000000,0.000000,0.000000,,,,,,,,,,,,,,,,,2.000000,0.000000,0.658750,-0.750427,0.022339,0.049072,-0.106458,-0.985960,-0.122085,15.133359,-31.053497,16.500542,,,,,,,,,,,,,,,,,,,,,,,,,,,,,,,,,,,,,,,,,,,,,,,,,,,,,,,,,,,,,,,,,,,,,,,,,,,,,,,,,,,,,,,,,,,,,,,,,,,,,
1737283274.499447,1737283274.499512,9.000000,0.000000,4335.000000,4351.794922,4269.871582,4317.692383,4353.846191,4360.769043,4363.846191,4555.897461,4550.128418,4559.871582,4495.000000,5638.077148,4304.230957,4263.205078,0.000000,2.000000,35.000000,,,,0.000000,0.000000,0.000000,0.000000,0.000000,0.000000,0.000000,0.000000,0.000000,0.000000,0.000000,0.000000,0.000000,0.000000,0.000000,0.000000,,,,,,,,,,,,,,,,,,,,,,,,,,,,,,,,,,,,,,,,,,,,,,,,,,,,,,,,,,,,,,,,,,,,,,,,,,,,,,,,,,,,,,,,,,,,,,,,,,,,,,,,,,,,,,,,,,,,,,,,,,,,,,,,,
1737283274.507255,1737283274.507220,10.000000,0.000000,4334.487305,4351.410156,4273.077148,4319.102539,4356.410156,4360.897461,4362.051270,4555.897461,4552.051270,4560.512695,4495.384766,5636.922852,4304.743652,4264.487305,0.000000,2.000000,35.000000,,,,0.000000,0.000000,0.000000,0.000000,0.000000,0.000000,0.000000,0.000000,0.000000,0.000000,0.000000,0.000000,0.000000,0.000000,0.000000,0.000000,,,,,,,,,,,,,,,,,,,,,,,,,,,,,,,,,,,,,,,,,,,,,,,,,,,,,,,,,,,,,,,,,,,,,,,,,,,,,,,,,,,,,,,,,,,,,,,,,,,,,,,,,,,,,,,,,,,,,,,,,,,,,,,,,
1737283274.515064,1737283274.515128,11.000000,0.000000,4331.025879,4350.641113,4265.512695,4320.000000,4356.794922,4362.051270,4363.589844,4556.153809,4551.538574,4561.282227,4496.410156,5635.769043,4302.948730,4256.666504,0.000000,2.000000,35.000000,,,,0.000000,0.000000,0.000000,0.000000,0.000000,0.000000,0.000000,0.000000,0.000000,0.000000,0.000000,0.000000,0.000000,0.000000,0.000000,0.000000,,,,,,,,,,,,,,,,,,,,,,,,,,,,,,,,,,,,,,,,,,,,,,,,,,,,,,,,,,,,,,,,,,,,,,,,,,,,,,,,,,,,,,,,,,,,,,,,,,,,,,,,,,,,,,,,,,,,,,,,,,,,,,,,,
1737283274.522872,1737283274.522936,12.000000,0.000000,4333.717773,4354.743652,4269.358887,4321.410156,4353.717773,4359.743652,4362.948730,4551.282227,4548.974121,4564.358887,4497.307617,5642.179688,4310.128418,4267.307617,0.000000,2.000000,35.000000,,,,0.000000,0.000000,0.000000,0.000000,0.000000,0.000000,0.000000,0.000000,0.000000,0.000000,0.000000,0.000000,0.000000,0.000000,0.000000,0.000000,,,,,,,,,,,,,,,,,3.000000,0.000000,0.658820,-0.750366,0.022339,0.049072,-0.096691,-0.986937,-0.126480,14.986690,-30.998148,16.450487,,,,,,,,,,,,,,,,,,,,,,,,,,,,,,,,0.035405,0.012028,0.010075,0.021316,0.025402,0.027469,0.019012,0.031413,0.025683,0.013409,0.115621,0.037753,0.018508,0.015520,0.026452,0.019347,0.025776,0.036287,0.041829,0.024370,0.013538,0.021242,0.016660,0.010268,0.013835,0.049496,0.021256,0.052746,0.029648,0.016542,0.065245,0.063735,0.013685,0.026051,0.030063,0.054458,0.035183,0.023214,0.020800,0.031202,0.033468,0.016520,0.030439,0.016314,0.014005,0.074446,0.039819,0.034268,0.048673,0.027800,0.043529,0.017475,0.024739,0.023399,0.021438,0.033714,0.038782,0.025977,0.008779,0.026651,0.174183,0.068600,0.065603,0.020846,0.026491,0.037718,0.053134,0.026283,0.020374,0.028903
1737283274.530680,1737283274.530744,13.000000,0.000000,4327.563965,4350.512695,4265.769043,4316.538574,4351.794922,4359.743652,4367.948730,4553.333496,4551.666504,4563.333496,4490.641113,5632.563965,4303.717773,4256.538574,0.000000,2.000000,35.000000,,,,0.000000,0.000000,0.000000,0.000000,0.000000,0.000000,0.000000,0.000000,0.000000,0.000000,0.000000,0.000000,0.000000,0.000000,0.000000,0.000000,,,,,,,,,,,,,,,,,,,,,,,,,,,,,,,,,,,,,,,,,,,,,,,,,,,,,,,,,,,,,,,,,,,,,,,,,,,,,,,,,,,,,,,,,,,,,,,,,,,,,,,,,,,,,,,,,,,,,,,,,,,,,,,,,
1737283274.538488,1737283274.538452,14.000000,0.000000,4333.205078,4352.436035,4266.410156,4320.769043,4355.000000,4361.410156,4361.410156,4554.871582,4552.179688,4559.230957,4495.769043,5637.948730,4306.282227,4261.410156,0.000000,2.000000,35.000000,,,,0.000000,0.000000,0.000000,0.000000,0.000000,0.000000,0.000000,0.000000,0.000000,0.000000,0.000000,0.000000,0.000000,0.000000,0.000000,0.000000,,,,,,,,,,,,,,,,,,,,,,,,,,,,,,,,,,,,,,,,,,,,,,,,,,,,,,,,,,,,,,,,,,,,,,,,,,,,,,,,,,,,,,,,,,,,,,,,,,,,,,,,,,,,,,,,,,,,,,,,,,,,,,,,,
1737283274.546296,1737283274.546360,15.000000,0.000000,4339.230957,4354.102539,4265.641113,4322.563965,4355.128418,4362.307617,4361.794922,4553.077148,4548.205078,4558.974121,4498.717773,5642.051270,4308.846191,4266.410156,0.000000,2.000000,35.000000,,,,0.000000,0.000000,0.000000,0.000000,0.000000,0.000000,0.000000,0.000000,0.000000,0.000000,0.000000,0.000000,0.000000,0.000000,0.000000,0.000000,,,,,,,,,,,,,,,,,,,,,,,,,,,,,,,,,,,,,,,,,,,,,,,,,,,,,,,,,,,,,,,,,,,,,,,,,,,,,,,,,,,,,,,,,,,,,,,,,,,,,,,,,,,,,,,,,,,,,,,,,,,,,,,,,
1737283274.554104,1737283274.554169,16.000000,0.000000,4333.205078,4350.897461,4263.461426,4318.333496,4352.563965,4361.538574,4368.974121,4555.384766,4547.436035,4559.102539,4494.358887,5635.256348,4301.153809,4257.563965,0.000000,2.000000,35.000000,,,,0.000000,0.000000,0.000000,0.000000,0.000000,0.000000,0.000000,0.000000,0.000000,0.000000,0.000000,0.000000,0.000000,0.000000,0.000000,0.000000,,,,,,,,,,,,,,,,,4.000000,0.000000,0.658674,-0.750488,0.022400,0.049133,-0.098157,-0.992797,-0.131852,15.121354,-30.931665,16.588772,,,,,,,,,,,,,,,,,,,,,,,,,,,,,,,,,,,,,,,,,,,,,,,,,,,,,,,,,,,,,,,,,,,,,,,,,,,,,,,,,,,,,,,,,,,,,,,,,,,,,
1737283274.561912,1737283274.562077,17.000000,0.000000,4333.589844,4353.846191,4271.794922,4323.333496,4354.615234,4360.641113,4362.820313,4555.769043,4550.641113,4557.820313,4497.948730,5640.897461,4306.794922,4266.282227,0.000000,2.000000,35.000000,,,,0.000000,0.000000,0.000000,0.000000,0.000000,0.000000,0.000000,0.000000,0.000000,0.000000,0.000000,0.000000,0.000000,0.000000,0.000000,0.000000,,,,,,,,,,,,,,,,,,,,,,,,,,,,,,,,,,,,,,,,,,,,,,,,,,,,,,,,,,,,,,,,,,,,,,,,,,,,,,,,,,,,,,,,,,,,,,,,,,,,,,,,,,,,,,,,,,,,,,,,,,,,,,,,,
1737283274.569720,1737283274.569885,18.000000,0.000000,4331.410156,4350.000000,4267.563965,4323.846191,4354.615234,4361.282227,4364.743652,4556.282227,4551.922852,4558.077148,4494.615234,5632.948730,4305.512695,4257.436035,0.000000,2.000000,35.000000,,,,0.000000,0.000000,0.000000,0.000000,0.000000,0.000000,0.000000,0.000000,0.000000,0.000000,0.000000,0.000000,0.000000,0.000000,0.000000,0.000000,,,,,,,,,,,,,,,,,,,,,,,,,,,,,,,,,,,,,,,,,,,,,,,,,,,,,,,,,,,,,,,,,,,,,,,,,,,,,,,,,,,,,,,,,,,,,,,,,,,,,,,,,,,,,,,,,,,,,,,,,,,,,,,,,
1737283274.577528,1737283274.577793,19.000000,0.000000,4334.615234,4349.487305,4270.000000,4322.820313,4352.436035,4360.384766,4363.333496,4556.025879,4549.358887,4561.282227,4496.922852,5635.769043,4304.230957,4260.769043,0.000000,2.000000,35.000000,,,,0.000000,0.000000,0.000000,0.000000,0.000000,0.000000,0.000000,0.000000,0.000000,0.000000,0.000000,0.000000,0.000000,0.000000,0.000000,0.000000,,,,,,,,,,,,,,,,,,,,,,,,,,,,,,,,,,,,,,,,,,,,,,,,,,,,,,,,,,,,,,,,,,,,,,,,,,,,,,,,,,,,,,,,,,,,,,,,,,,,,,,,,,,,,,,,,,,,,,,,,,,,,,,,,
1737283274.585336,1737283274.585601,20.000000,0.000000,4335.256348,4351.794922,4270.512695,4320.384766,4353.846191,4359.743652,4362.307617,4555.897461,4548.589844,4562.179688,4500.128418,5642.692383,4304.615234,4268.461426,0.000000,2.000000,35.000000,,,,0.000000,0.000000,0.000000,0.000000,0.000000,0.000000,0.000000,0.000000,0.000000,0.000000,0.000000,0.000000,0.000000,0.000000,0.000000,0.000000,,,,,,,,,,,,,,,,,5.000000,0.000000,0.658683,-0.750488,0.022400,0.049011,-0.105970,-0.979612,-0.130387,15.242552,-31.005165,16.763227,,,,,,,,,,,,,,,,,,,,,,,,,,,,,,,,,,,,,,,,,,,,,,,,,,,,,,,,,,,,,,,,,,,,,,,,,,,,,,,,,,,,,,,,,,,,,,,,,,,,,
1737283274.593145,1737283274.593509,21.000000,0.000000,4329.487305,4348.717773,4261.282227,4317.436035,4355.641113,4359.615234,4367.948730,4555.512695,4550.000000,4559.743652,4494.871582,5636.025879,4301.282227,4256.410156,0.000000,2.000000,35.000000,,,,0.000000,0.000000,0.000000,0.000000,0.000000,0.000000,0.000000,0.000000,0.000000,0.000000,0.000000,0.000000,0.000000,0.000000,0.000000,0.000000,,,,,,,,,,,,,,,,,,,,,,,,,,,,,,,,,,,,,,,,,,,,,,,,,,,,,,,,,,,,,,,,,,,,,,,,,,,,,,,,,,,,,,,,,,,,,,,,,,,,,,,,,,,,,,,,,,,,,,,,,,,,,,,,,
1737283274.600953,1737283274.601317,22.000000,0.000000,4336.282227,4352.307617,4271.282227,4323.077148,4355.384766,4360.512695,4362.563965,4551.794922,4550.897461,4560.256348,4498.589844,5643.461426,4307.436035,4265.641113,0.000000,2.000000,35.000000,,,,0.000000,0.000000,0.000000,0.000000,0.000000,0.000000,0.000000,0.000000,0.000000,0.000000,0.000000,0.000000,0.000000,0.000000,0.000000,0.000000,,,,,,,,,,,,,,,,,,,,,,,,,,,,,,,,,,,,,,,,,,,,,,,,,,,,,,,,,,,,,,,,,,,,,,,,,,,,,,,,,,,,,,,,,,,,,,,,,,,,,,,,,,,,,,,,,,,,,,,,,,,,,,,,,
1737283274.608761,1737283274.609125,23.000000,0.000000,4334.487305,4352.948730,4269.615234,4320.384766,4353.589844,4363.461426,4367.179688,4554.871582,4552.436035,4560.641113,4496.410156,5636.666504,4302.563965,4260.128418,0.000000,2.000000,35.000000,,,,0.000000,0.000000,0.000000,0.000000,0.000000,0.000000,0.000000,0.000000,0.000000,0.000000,0.000000,0.000000,0.000000,0.000000,0.000000,0.000000,,,,,,,,,,,,,,,,,,,,,,,,,,,,,,,,,,,,,,,,,,,,,,,,,,,,,,,,,,,,,,,,,,,,,,,,,,,,,,,,,,,,,,,,,,,,,,,,,,,,,,,,,,,,,,,,,,,,,,,,,,,,,,,,,
1737283274.616569,1737283274.616933,24.000000,0.000000,4331.666504,4355.512695,4266.282227,4318.717773,4353.333496,4362.436035,4367.436035,4556.282227,4551.410156,4560.128418,4494.615234,5635.512695,4300.897461,4259.102539,0.000000,2.000000,35.000000,,,,0.000000,0.000000,0.000000,0.000000,0.000000,0.000000,0.000000,0.000000,0.000000,0.000000,0.000000,0.000000,0.000000,0.000000,0.000000,0.000000,,,,,,,,,,,,,,,,,6.000000,0.000000,0.658744,-0.750427,0.022400,0.049133,-0.108412,-0.974240,-0.119155,15.184963,-31.071316,16.786905,,,,,,,,,,,,,,,,,,,,,,,,,,,,,,,,,,,,,,,,,,,,,,,,,,,,,,,,,,,,,,,,,,,,,,,,,,,,,,,,,,,,,,,,,,,,,,,,,,,,,
1737283274.624377,1737283274.624641,25.000000,0.000000,4332.563965,4355.512695,4273.077148,4323.333496,4354.230957,4362.179688,4362.948730,4553.205078,4550.000000,4558.589844,4497.051270,5643.717773,4304.102539,4268.717773,0.000000,2.000000,35.000000,,,,0.000000,0.000000,0.000000,0.000000,0.000000,0.000000,0.000000,0.000000,0.000000,0.000000,0.000000,0.000000,0.000000,0.000000,0.000000,0.000000,,,,,,,,,,,,,,,,,,,,,,,,,,,,,,,,,,,,,,,,,,,,,,,,,,,,,,,,,,,,,,,,,,,,,,,,,,,,,,,,,,,,,,,,,,,,,,,,,,,,,,,,,,,,,,,,,,,,,,,,,,,,,,,,,
1737283274.632185,1737283274.632449,26.000000,0.000000,4328.333496,4348.461426,4267.948730,4318.333496,4353.846191,4365.641113,4372.563965,4554.615234,4551.922852,4559.487305,4492.692383,5632.563965,4299.743652,4258.974121,0.000000,2.000000,35.000000,,,,0.000000,0.000000,0.000000,0.000000,0.000000,0.000000,0.000000,0.000000,0.000000,0.000000,0.000000,0.000000,0.000000,0.000000,0.000000,0.000000,,,,,,,,,,,,,,,,,,,,,,,,,,,,,,,,,,,,,,,,,,,,,,,,,,,,,,,,,,,,,,,,,,,,,,,,,,,,,,,,,,,,,,,,,,,,,,,,,,,,,,,,,,,,,,,,,,,,,,,,,,,,,,,,,
1737283274.639993,1737283274.640157,27.000000,0.000000,4333.717773,4354.743652,4270.769043,4320.128418,4354.615234,4362.436035,4368.589844,4555.384766,4551.410156,4562.692383,4498.974121,5637.436035,4306.538574,4268.717773,0.000000,2.000000,35.000000,,,,0.000000,0.000000,0.000000,0.000000,0.000000,0.000000,0.000000,0.000000,0.000000,0.000000,0.000000,0.000000,0.000000,0.000000,0.000000,0.000000,,,,,,,,,,,,,,,,,,,,,,,,,,,,,,,,,,,,,,,,,,,,,,,,,,,,,,,,,,,,,,,,,,,,,,,,,,,,,,,,,,,,,,,,,,,,,,,,,,,,,,,,,,,,,,,,,,,,,,,,,,,,,,,,,
1737283274.647801,1737283274.647965,28.000000,0.000000,4330.384766,4353.461426,4268.974121,4323.461426,4355.000000,4360.641113,4367.563965,4555.769043,4548.717773,4561.538574,4497.563965,5639.230957,4301.538574,4265.512695,0.000000,2.000000,35.000000,,,,0.000000,0.000000,0.000000,0.000000,0.000000,0.000000,0.000000,0.000000,0.000000,0.000000,0.000000,0.000000,0.000000,0.000000,0.000000,0.000000,,,,,,,,,,,,,,,,,7.000000,0.000000,0.658822,-0.750366,0.022400,0.049011,-0.095226,-0.987914,-0.125504,15.133134,-30.897518,16.774881,,,,,,,,,,,,,,,,,,,,,,,,,,,,,,,,0.039182,0.011126,0.010435,0.019633,0.025023,0.029306,0.019176,0.038466,0.026575,0.012945,0.109401,0.034508,0.019687,0.016521,0.031399,0.017872,0.023876,0.031908,0.035774,0.022284,0.015604,0.019792,0.015805,0.010746,0.013301,0.049426,0.024956,0.049194,0.028678,0.014497,0.065922,0.062644,0.013519,0.027887,0.035633,0.050343,0.034841,0.023273,0.023224,0.029355,0.032480,0.018095,0.030777,0.018521,0.015442,0.069740,0.037176,0.037694,0.044634,0.028779,0.050116,0.016618,0.029819,0.024492,0.021351,0.027916,0.037696,0.025994,0.007752,0.027186,0.163129,0.071161,0.055976,0.021145,0.027461,0.039900,0.048443,0.026756,0.020610,0.027043
1737283274.655609,1737283274.655673,29.000000,0.000000,4327.307617,4350.256348,4266.282227,4320.641113,4353.846191,4363.717773,4369.358887,4556.025879,4547.820313,4561.922852,4491.025879,5636.153809,4298.333496,4260.897461,0.000000,2.000000,35.000000,,,,0.000000,0.000000,0.000000,0.000000,0.000000,0.000000,0.000000,0.000000,0.000000,0.000000,0.000000,0.000000,0.000000,0.000000,0.000000,0.000000,,,,,,,,,,,,,,,,,,,,,,,,,,,,,,,,,,,,,,,,,,,,,,,,,,,,,,,,,,,,,,,,,,,,,,,,,,,,,,,,,,,,,,,,,,,,,,,,,,,,,,,,,,,,,,,,,,,,,,,,,,,,,,,,,
1737283274.663417,1737283274.663481,30.000000,0.000000,4333.717773,4356.153809,4270.256348,4320.256348,4352.948730,4362.948730,4363.205078,4555.256348,4547.692383,4563.846191,4496.282227,5641.025879,4306.153809,4268.589844,0.000000,2.000000,35.000000,,,,0.000000,0.000000,0.000000,0.000000,0.000000,0.000000,0.000000,0.000000,0.000000,0.000000,0.000000,0.000000,0.000000,0.000000,0.000000,0.000000,,,,,,,,,,,,,,,,,,,,,,,,,,,,,,,,,,,,,,,,,,,,,,,,,,,,,,,,,,,,,,,,,,,,,,,,,,,,,,,,,,,,,,,,,,,,,,,,,,,,,,,,,,,,,,,,,,,,,,,,,,,,,,,,,
1737283274.671225,1737283274.671189,31.000000,0.000000,4330.256348,4352.692383,4263.205078,4321.025879,4353.589844,4363.589844,4367.948730,4557.051270,4548.846191,4558.589844,4496.410156,5633.589844,4298.461426,4256.282227,0.000000,2.000000,35.000000,,,,0.000000,0.000000,0.000000,0.000000,0.000000,0.000000,0.000000,0.000000,0.000000,0.000000,0.000000,0.000000,0.000000,0.000000,0.000000,0.000000,,,,,,,,,,,,,,,,,,,,,,,,,,,,,,,,,,,,,,,,,,,,,,,,,,,,,,,,,,,,,,,,,,,,,,,,,,,,,,,,,,,,,,,,,,,,,,,,,,,,,,,,,,,,,,,,,,,,,,,,,,,,,,,,,
1737283274.679034,1737283274.679097,32.000000,0.000000,4334.358887,4352.948730,4269.615234,4326.153809,4354.230957,4360.384766,4366.025879,4554.487305,4549.102539,4555.128418,4497.563965,5639.743652,4302.179688,4265.512695,0.000000,2.000000,35.000000,,,,0.000000,0.000000,0.000000,0.000000,0.000000,0.000000,0.000000,0.000000,0.000000,0.000000,0.000000,0.000000,0.000000,0.000000,0.000000,0.000000,,,,,,,,,,,,,,,,,8.000000,0.000000,0.658892,-0.750305,0.022400,0.049011,-0.110365,-0.988402,-0.125015,15.053154,-30.974432,16.847393,,,,,,,,,,,,,,,,,,,,,,,,,,,,,,,,,,,,,,,,,,,,,,,,,,,,,,,,,,,,,,,,,,,,,,,,,,,,,,,,,,,,,,,,,,,,,,,,,,,,,
1737283274.686842,1737283274.686905,33.000000,0.000000,4335.000000,4352.948730,4270.769043,4321.538574,4352.436035,4357.948730,4367.179688,4553.333496,4549.615234,4559.230957,4495.641113,5639.743652,4307.179688,4262.179688,0.000000,2.000000,35.000000,,,,0.000000,0.000000,0.000000,0.000000,0.000000,0.000000,0.000000,0.000000,0.000000,0.000000,0.000000,0.000000,0.000000,0.000000,0.000000,0.000000,,,,,,,,,,,,,,,,,,,,,,,,,,,,,,,,,,,,,,,,,,,,,,,,,,,,,,,,,,,,,,,,,,,,,,,,,,,,,,,,,,,,,,,,,,,,,,,,,,,,,,,,,,,,,,,,,,,,,,,,,,,,,,,,,
1737283274.694650,1737283274.694814,34.000000,0.000000,4330.384766,4350.769043,4264.487305,4316.153809,4352.820313,4361.410156,4367.692383,4556.025879,4550.128418,4560.128418,4494.615234,5633.974121,4303.333496,4251.538574,0.000000,2.000000,35.000000,,,,0.000000,0.000000,0.000000,0.000000,0.000000,0.000000,0.000000,0.000000,0.000000,0.000000,0.000000,0.000000,0.000000,0.000000,0.000000,0.000000,,,,,,,,,,,,,,,,,,,,,,,,,,,,,,,,,,,,,,,,,,,,,,,,,,,,,,,,,,,,,,,,,,,,,,,,,,,,,,,,,,,,,,,,,,,,,,,,,,,,,,,,,,,,,,,,,,,,,,,,,,,,,,,,,
1737283274.702458,1737283274.702622,35.000000,0.000000,4335.256348,4354.615234,4270.769043,4323.461426,4355.384766,4361.666504,4357.948730,4555.384766,4549.230957,4557.692383,4499.102539,5643.077148,4306.282227,4265.512695,0.000000,2.000000,35.000000,,,,0.000000,0.000000,0.000000,0.000000,0.000000,0.000000,0.000000,0.000000,0.000000,0.000000,0.000000,0.000000,0.000000,0.000000,0.000000,0.000000,,,,,,,,,,,,,,,,,,,,,,,,,,,,,,,,,,,,,,,,,,,,,,,,,,,,,,,,,,,,,,,,,,,,,,,,,,,,,,,,,,,,,,,,,,,,,,,,,,,,,,,,,,,,,,,,,,,,,,,,,,,,,,,,,
1737283274.710266,1737283274.710530,36.000000,0.000000,4331.153809,4351.794922,4265.000000,4321.794922,4354.358887,4361.153809,4362.692383,4555.256348,4550.128418,4558.333496,4494.487305,5635.769043,4302.692383,4256.153809,0.000000,2.000000,35.000000,,,,0.000000,0.000000,0.000000,0.000000,0.000000,0.000000,0.000000,0.000000,0.000000,0.000000,0.000000,0.000000,0.000000,0.000000,0.000000,0.000000,,,,,,,,,,,,,,,,,9.000000,0.000000,0.658827,-0.750366,0.022400,0.048950,-0.096691,-0.990355,-0.125992,14.981172,-31.076990,16.862654,,,,,,,,,,,,,,,,,,,,,,,,,,,,,,,,,,,,,,,,,,,,,,,,,,,,,,,,,,,,,,,,,,,,,,,,,,,,,,,,,,,,,,,,,,,,,,,,,,,,,
1737283274.718074,1737283274.718338,37.000000,0.000000,4332.948730,4353.717773,4266.025879,4319.743652,4353.846191,4359.102539,4362.307617,4552.692383,4550.769043,4560.128418,4497.820313,5637.692383,4304.615234,4258.846191,0.000000,2.000000,35.000000,,,,0.000000,0.000000,0.000000,0.000000,0.000000,0.000000,0.000000,0.000000,0.000000,0.000000,0.000000,0.000000,0.000000,0.000000,0.000000,0.000000,,,,,,,,,,,,,,,,,,,,,,,,,,,,,,,,,,,,,,,,,,,,,,,,,,,,,,,,,,,,,,,,,,,,,,,,,,,,,,,,,,,,,,,,,,,,,,,,,,,,,,,,,,,,,,,,,,,,,,,,,,,,,,,,,
1737283274.725882,1737283274.726246,38.000000,0.000000,4334.102539,4353.846191,4269.102539,4318.974121,4354.487305,4359.102539,4362.948730,4552.179688,4550.000000,4561.666504,4498.846191,5641.666504,4306.153809,4263.974121,0.000000,2.000000,35.000000,,,,0.000000,0.000000,0.000000,0.000000,0.000000,0.000000,0.000000,0.000000,0.000000,0.000000,0.000000,0.000000,0.000000,0.000000,0.000000,0.000000,,,,,,,,,,,,,,,,,,,,,,,,,,,,,,,,,,,,,,,,,,,,,,,,,,,,,,,,,,,,,,,,,,,,,,,,,,,,,,,,,,,,,,,,,,,,,,,,,,,,,,,,,,,,,,,,,,,,,,,,,,,,,,,,,
1737283274.733690,1737283274.734054,39.000000,0.000000,4326.794922,4348.461426,4265.000000,4317.948730,4353.974121,4360.769043,4366.794922,4555.769043,4550.512695,4563.205078,4492.948730,5633.333496,4303.461426,4254.743652,0.000000,2.000000,35.000000,,,,0.000000,0.000000,0.000000,0.000000,0.000000,0.000000,0.000000,0.000000,0.000000,0.000000,0.000000,0.000000,0.000000,0.000000,0.000000,0.000000,,,,,,,,,,,,,,,,,,,,,,,,,,,,,,,,,,,,,,,,,,,,,,,,,,,,,,,,,,,,,,,,,,,,,,,,,,,,,,,,,,,,,,,,,,,,,,,,,,,,,,,,,,,,,,,,,,,,,,,,,,,,,,,,,
1737283274.741498,1737283274.741962,40.000000,0.000000,4330.769043,4354.102539,4270.769043,4322.692383,4355.000000,4357.563965,4356.794922,4554.743652,4550.512695,4562.051270,4498.846191,5641.666504,4307.692383,4265.128418,0.000000,2.000000,35.000000,,,,0.000000,0.000000,0.000000,0.000000,0.000000,0.000000,0.000000,0.000000,0.000000,0.000000,0.000000,0.000000,0.000000,0.000000,0.000000,0.000000,,,,,,,,,,,,,,,,,10.000000,0.000000,0.658894,-0.750305,0.022339,0.049011,-0.105482,-0.984984,-0.137224,14.949721,-31.169291,16.876389,,,,,,,,,,,,,,,,,,,,,,,,,,,,,,,,,,,,,,,,,,,,,,,,,,,,,,,,,,,,,,,,,,,,,,,,,,,,,,,,,,,,,,,,,,,,,,,,,,,,,
1737283274.749306,1737283274.749771,41.000000,0.000000,4331.794922,4354.487305,4263.461426,4318.717773,4354.358887,4357.051270,4361.794922,4556.153809,4552.051270,4557.820313,4496.666504,5639.102539,4301.410156,4259.487305,0.000000,2.000000,35.000000,,,,0.000000,0.000000,0.000000,0.000000,0.000000,0.000000,0.000000,0.000000,0.000000,0.000000,0.000000,0.000000,0.000000,0.000000,0.000000,0.000000,,,,,,,,,,,,,,,,,,,,,,,,,,,,,,,,,,,,,,,,,,,,,,,,,,,,,,,,,,,,,,,,,,,,,,,,,,,,,,,,,,,,,,,,,,,,,,,,,,,,,,,,,,,,,,,,,,,,,,,,,,,,,,,,,
1737283274.757115,1737283274.757679,42.000000,0.000000,4334.615234,4352.563965,4262.179688,4319.615234,4353.077148,4358.589844,4365.897461,4556.922852,4552.307617,4557.179688,4495.128418,5636.794922,4302.307617,4260.384766,0.000000,2.000000,35.000000,,,,0.000000,0.000000,0.000000,0.000000,0.000000,0.000000,0.000000,0.000000,0.000000,0.000000,0.000000,0.000000,0.000000,0.000000,0.000000,0.000000,,,,,,,,,,,,,,,,,,,,,,,,,,,,,,,,,,,,,,,,,,,,,,,,,,,,,,,,,,,,,,,,,,,,,,,,,,,,,,,,,,,,,,,,,,,,,,,,,,,,,,,,,,,,,,,,,,,,,,,,,,,,,,,,,
1737283274.764923,1737283274.765487,43.000000,0.000000,4334.230957,4351.666504,4267.820313,4321.794922,4352.692383,4360.128418,4360.000000,4555.000000,4549.487305,4557.692383,4500.384766,5640.256348,4306.794922,4266.794922,0.000000,2.000000,35.000000,,,,0.000000,0.000000,0.000000,0.000000,0.000000,0.000000,0.000000,0.000000,0.000000,0.000000,0.000000,0.000000,0.000000,0.000000,0.000000,0.000000,,,,,,,,,,,,,,,,,,,,,,,,,,,,,,,,,,,,,,,,,,,,,,,,,,,,,,,,,,,,,,,,,,,,,,,,,,,,,,,,,,,,,,,,,,,,,,,,,,,,,,,,,,,,,,,,,,,,,,,,,,,,,,,,,
1737283274.772731,1737283274.773395,44.000000,0.000000,4326.794922,4348.077148,4263.461426,4315.512695,4353.333496,4360.128418,4362.436035,4556.538574,4549.230957,4557.948730,4496.153809,5634.743652,4299.615234,4255.641113,0.000000,2.000000,35.000000,,,,0.000000,0.000000,0.000000,0.000000,0.000000,0.000000,0.000000,0.000000,0.000000,0.000000,0.000000,0.000000,0.000000,0.000000,0.000000,0.000000,1.000000,0.000000,0.000000,0.000000,0.000000,0.000000,0.000000,0.000000,0.000000,0.000000,0.000000,0.000000,0.000000,0.000000,0.000000,0.000000,11.000000,0.000000,0.658828,-0.750366,0.022217,0.049011,-0.100598,-0.971310,-0.120620,14.888083,-31.169027,16.888750,,,,,,,,,,,,,,,,,,,,,,,,,,,,,,,,0.040152,0.011303,0.012999,0.020145,0.024718,0.029947,0.020101,0.043282,0.026699,0.012858,0.089894,0.029323,0.021156,0.017186,0.037246,0.015796,0.021276,0.025915,0.028550,0.020705,0.016862,0.018639,0.014660,0.010941,0.013356,0.045304,0.026956,0.041778,0.026086,0.013039,0.062263,0.055819,0.014100,0.029596,0.039745,0.046436,0.034269,0.021347,0.026423,0.026260,0.028760,0.017993,0.029276,0.021406,0.016844,0.058487,0.030982,0.039131,0.039973,0.029559,0.055006,0.017151,0.035220,0.025252,0.022592,0.022335,0.036069,0.023995,0.006975,0.027191,0.133679,0.067723,0.043372,0.021672,0.028122,0.041453,0.041454,0.028097,0.021489,0.024954
1737283274.780539,1737283274.781203,45.000000,0.000000,4332.179688,4353.846191,4269.871582,4319.230957,4354.615234,4356.794922,4360.384766,4556.282227,4551.025879,4561.282227,4496.153809,5642.948730,4303.974121,4264.358887,0.000000,2.000000,35.000000,,,,0.000000,0.000000,0.000000,0.000000,0.000000,0.000000,0.000000,0.000000,0.000000,0.000000,0.000000,0.000000,0.000000,0.000000,0.000000,0.000000,,,,,,,,,,,,,,,,,,,,,,,,,,,,,,,,,,,,,,,,,,,,,,,,,,,,,,,,,,,,,,,,,,,,,,,,,,,,,,,,,,,,,,,,,,,,,,,,,,,,,,,,,,,,,,,,,,,,,,,,,,,,,,,,,
1737283274.788347,1737283274.789111,46.000000,0.000000,4331.025879,4353.717773,4267.948730,4319.743652,4354.358887,4358.077148,4364.487305,4556.282227,4550.512695,4560.769043,4493.974121,5638.461426,4303.974121,4261.153809,0.000000,2.000000,35.000000,,,,0.000000,0.000000,0.000000,0.000000,0.000000,0.000000,0.000000,0.000000,0.000000,0.000000,0.000000,0.000000,0.000000,0.000000,0.000000,0.000000,,,,,,,,,,,,,,,,,,,,,,,,,,,,,,,,,,,,,,,,,,,,,,,,,,,,,,,,,,,,,,,,,,,,,,,,,,,,,,,,,,,,,,,,,,,,,,,,,,,,,,,,,,,,,,,,,,,,,,,,,,,,,,,,,
1737283274.796155,1737283274.796919,47.000000,0.000000,4330.641113,4351.282227,4264.615234,4316.538574,4353.846191,4361.538574,4363.846191,4555.897461,4549.743652,4558.717773,4496.025879,5635.256348,4303.333496,4259.102539,0.000000,2.000000,35.000000,,,,0.000000,0.000000,0.000000,0.000000,0.000000,0.000000,0.000000,0.000000,0.000000,0.000000,0.000000,0.000000,0.000000,0.000000,0.000000,0.000000,,,,,,,,,,,,,,,,,,,,,,,,,,,,,,,,,,,,,,,,,,,,,,,,,,,,,,,,,,,,,,,,,,,,,,,,,,,,,,,,,,,,,,,,,,,,,,,,,,,,,,,,,,,,,,,,,,,,,,,,,,,,,,,,,
1737283274.803963,1737283274.804627,48.000000,0.000000,4334.487305,4352.563965,4267.563965,4319.487305,4352.692383,4359.615234,4356.794922,4554.743652,4549.871582,4559.102539,4501.025879,5643.461426,4305.769043,4266.538574,0.000000,2.000000,35.000000,,,,0.000000,0.000000,0.000000,0.000000,0.000000,0.000000,0.000000,0.000000,0.000000,0.000000,0.000000,0.000000,0.000000,0.000000,0.000000,0.000000,,,,,,,,,,,,,,,,,12.000000,0.000000,0.658900,-0.750305,0.022156,0.049011,-0.116225,-0.987914,-0.123062,14.915941,-31.218792,16.816542,,,,,,,,,,,,,,,,,,,,,,,,,,,,,,,,,,,,,,,,,,,,,,,,,,,,,,,,,,,,,,,,,,,,,,,,,,,,,,,,,,,,,,,,,,,,,,,,,,,,,
