title:bread1, start timestamp:1738755584.350454, stop timestamp:1738755585.388931, headset type:EPOCX, headset serial:E50208A5, headset firmware:720, channels:168, sampling rate:eeg_128;mot_32;pm_0.1;pow_8, samples:134       , version:2.2, 
Timestamp,OriginalTimestamp,EEG.Counter,EEG.Interpolated,EEG.AF3,EEG.F7,EEG.F3,EEG.FC5,EEG.T7,EEG.P7,EEG.O1,EEG.O2,EEG.P8,EEG.T8,EEG.FC6,EEG.F4,EEG.F8,EEG.AF4,EEG.RawCq,EEG.Battery,EEG.BatteryPercent,MarkerIndex,MarkerType,MarkerValueInt,EEG.MarkerHardware,CQ.AF3,CQ.F7,CQ.F3,CQ.FC5,CQ.T7,CQ.P7,CQ.O1,CQ.O2,CQ.P8,CQ.T8,CQ.FC6,CQ.F4,CQ.F8,CQ.AF4,CQ.Overall,EQ.SampleRateQuality,EQ.OVERALL,EQ.AF3,EQ.F7,EQ.F3,EQ.FC5,EQ.T7,EQ.P7,EQ.O1,EQ.O2,EQ.P8,EQ.T8,EQ.FC6,EQ.F4,EQ.F8,EQ.AF4,MOT.CounterMems,MOT.InterpolatedMems,MOT.Q0,MOT.Q1,MOT.Q2,MOT.Q3,MOT.AccX,MOT.AccY,MOT.AccZ,MOT.MagX,MOT.MagY,MOT.MagZ,PM.Attention.IsActive,PM.Attention.Scaled,PM.Attention.Raw,PM.Attention.Min,PM.Attention.Max,PM.Engagement.IsActive,PM.Engagement.Scaled,PM.Engagement.Raw,PM.Engagement.Min,PM.Engagement.Max,PM.Excitement.IsActive,PM.Excitement.Scaled,PM.Excitement.Raw,PM.Excitement.Min,PM.Excitement.Max,PM.LongTermExcitement,PM.Stress.IsActive,PM.Stress.Scaled,PM.Stress.Raw,PM.Stress.Min,PM.Stress.Max,PM.Relaxation.IsActive,PM.Relaxation.Scaled,PM.Relaxation.Raw,PM.Relaxation.Min,PM.Relaxation.Max,PM.Interest.IsActive,PM.Interest.Scaled,PM.Interest.Raw,PM.Interest.Min,PM.Interest.Max,POW.AF3.Theta,POW.AF3.Alpha,POW.AF3.BetaL,POW.AF3.BetaH,POW.AF3.Gamma,POW.F7.Theta,POW.F7.Alpha,POW.F7.BetaL,POW.F7.BetaH,POW.F7.Gamma,POW.F3.Theta,POW.F3.Alpha,POW.F3.BetaL,POW.F3.BetaH,POW.F3.Gamma,POW.FC5.Theta,POW.FC5.Alpha,POW.FC5.BetaL,POW.FC5.BetaH,POW.FC5.Gamma,POW.T7.Theta,POW.T7.Alpha,POW.T7.BetaL,POW.T7.BetaH,POW.T7.Gamma,POW.P7.Theta,POW.P7.Alpha,POW.P7.BetaL,POW.P7.BetaH,POW.P7.Gamma,POW.O1.Theta,POW.O1.Alpha,POW.O1.BetaL,POW.O1.BetaH,POW.O1.Gamma,POW.O2.Theta,POW.O2.Alpha,POW.O2.BetaL,POW.O2.BetaH,POW.O2.Gamma,POW.P8.Theta,POW.P8.Alpha,POW.P8.BetaL,POW.P8.BetaH,POW.P8.Gamma,POW.T8.Theta,POW.T8.Alpha,POW.T8.BetaL,POW.T8.BetaH,POW.T8.Gamma,POW.FC6.Theta,POW.FC6.Alpha,POW.FC6.BetaL,POW.FC6.BetaH,POW.FC6.Gamma,POW.F4.Theta,POW.F4.Alpha,POW.F4.BetaL,POW.F4.BetaH,POW.F4.Gamma,POW.F8.Theta,POW.F8.Alpha,POW.F8.BetaL,POW.F8.BetaH,POW.F8.Gamma,POW.AF4.Theta,POW.AF4.Alpha,POW.AF4.BetaL,POW.AF4.BetaH,POW.AF4.Gamma
1738755584.350454,1738755584.351322,50.000000,0.000000,4320.128418,4349.871582,4254.102539,4300.897461,4351.410156,4359.102539,4361.025879,4550.000000,4538.974121,4557.948730,4499.102539,5665.512695,4307.692383,4256.666504,0.000000,3.000000,74.000000,,,,0.000000,0.000000,0.000000,0.000000,0.000000,0.000000,0.000000,0.000000,0.000000,0.000000,0.000000,0.000000,0.000000,0.000000,0.000000,0.000000,,,,,,,,,,,,,,,,,,,,,,,,,,,,,,,,,,,,,,,,,,,,,,,,,,,,,,,,,,,,,,,,,,,,,,,,,,,,,,,,,,,,,,,,,,,,,,,,,,,,,,,,,,,,,,,,,,,,,,,,,,,,,,,,,
1738755584.358262,1738755584.359030,51.000000,0.000000,4320.897461,4351.025879,4251.666504,4303.333496,4352.563965,4360.769043,4358.717773,4550.769043,4542.179688,4559.102539,4495.641113,5663.846191,4305.384766,4255.897461,0.000000,3.000000,74.000000,,,,0.000000,0.000000,0.000000,0.000000,0.000000,0.000000,0.000000,0.000000,0.000000,0.000000,0.000000,0.000000,0.000000,0.000000,0.000000,0.000000,,,,,,,,,,,,,,,,,,,,,,,,,,,,,,,,,,,,,,,,,,,,,,,,,,,,,,,,,,,,,,,,,,,,,,,,,,,,,,,,,,,,,,,,,,,,,,,,,,,,,,,,,,,,,,,,,,,,,,,,,,,,,,,,,
1738755584.366070,1738755584.366838,52.000000,0.000000,4320.897461,4351.410156,4252.820313,4304.871582,4354.487305,4360.897461,4361.666504,4549.871582,4540.384766,4561.538574,4494.615234,5662.307617,4307.563965,4253.717773,0.000000,3.000000,74.000000,,,,0.000000,0.000000,0.000000,0.000000,0.000000,0.000000,0.000000,0.000000,0.000000,0.000000,0.000000,0.000000,0.000000,0.000000,0.000000,0.000000,,,,,,,,,,,,,,,,,13.000000,0.000000,0.784805,-0.616272,-0.060425,0.025269,0.067879,-0.973752,0.226590,4.155778,-15.044040,22.313389,,,,,,,,,,,,,,,,,,,,,,,,,,,,,,,,,,,,,,,,,,,,,,,,,,,,,,,,,,,,,,,,,,,,,,,,,,,,,,,,,,,,,,,,,,,,,,,,,,,,,
1738755584.373878,1738755584.374546,53.000000,0.000000,4318.717773,4351.794922,4256.410156,4303.846191,4353.717773,4357.692383,4363.974121,4546.666504,4539.871582,4560.000000,4501.410156,5661.538574,4312.692383,4256.025879,0.000000,3.000000,74.000000,,,,0.000000,0.000000,0.000000,0.000000,0.000000,0.000000,0.000000,0.000000,0.000000,0.000000,0.000000,0.000000,0.000000,0.000000,0.000000,0.000000,,,,,,,,,,,,,,,,,,,,,,,,,,,,,,,,,,,,,,,,,,,,,,,,,,,,,,,,,,,,,,,,,,,,,,,,,,,,,,,,,,,,,,,,,,,,,,,,,,,,,,,,,,,,,,,,,,,,,,,,,,,,,,,,,
1738755584.381687,1738755584.382354,54.000000,0.000000,4320.384766,4349.102539,4256.666504,4303.461426,4352.307617,4359.230957,4365.000000,4550.641113,4542.563965,4558.333496,4497.307617,5663.846191,4307.051270,4255.641113,0.000000,3.000000,74.000000,,,,0.000000,0.000000,0.000000,0.000000,0.000000,0.000000,0.000000,0.000000,0.000000,0.000000,0.000000,0.000000,0.000000,0.000000,0.000000,0.000000,,,,,,,,,,,,,,,,,,,,,,,,,,,,,,,,,,,,,,,,,,,,,,,,,,,,,,,,,,,,,,,,,,,,,,,,,,,,,,,,,,,,,,,,,,,,,,,,,,,,,,,,,,,,,,,,,,,,,,,,,,,,,,,,,
1738755584.389495,1738755584.390062,55.000000,0.000000,4321.794922,4347.820313,4255.897461,4301.922852,4351.794922,4361.282227,4366.153809,4551.282227,4542.307617,4561.794922,4492.948730,5660.641113,4307.307617,4255.769043,0.000000,3.000000,74.000000,,,,0.000000,0.000000,0.000000,0.000000,0.000000,0.000000,0.000000,0.000000,0.000000,0.000000,0.000000,0.000000,0.000000,0.000000,0.000000,0.000000,,,,,,,,,,,,,,,,,,,,,,,,,,,,,,,,,,,,,,,,,,,,,,,,,,,,,,,,,,,,,,,,,,,,,,,,,,,,,,,,,,,,,,,,,,,,,,,,,,,,,,,,,,,,,,,,,,,,,,,,,,,,,,,,,
1738755584.397303,1738755584.397870,56.000000,0.000000,4320.384766,4348.461426,4257.179688,4301.025879,4352.820313,4360.256348,4366.538574,4547.948730,4542.051270,4562.436035,4496.794922,5660.897461,4312.692383,4256.666504,0.000000,3.000000,74.000000,,,,0.000000,0.000000,0.000000,0.000000,0.000000,0.000000,0.000000,0.000000,0.000000,0.000000,0.000000,0.000000,0.000000,0.000000,0.000000,0.000000,,,,,,,,,,,,,,,,,14.000000,0.000000,0.784852,-0.616211,-0.060486,0.025146,0.064461,-0.966427,0.230985,4.073534,-15.022969,22.282049,,,,,,,,,,,,,,,,,,,,,,,,,,,,,,,,,,,,,,,,,,,,,,,,,,,,,,,,,,,,,,,,,,,,,,,,,,,,,,,,,,,,,,,,,,,,,,,,,,,,,
1738755584.405111,1738755584.405578,57.000000,0.000000,4319.230957,4349.230957,4255.512695,4302.051270,4353.333496,4359.487305,4364.358887,4548.846191,4542.051270,4558.717773,4495.256348,5665.256348,4307.820313,4256.025879,0.000000,3.000000,74.000000,,,,0.000000,0.000000,0.000000,0.000000,0.000000,0.000000,0.000000,0.000000,0.000000,0.000000,0.000000,0.000000,0.000000,0.000000,0.000000,0.000000,,,,,,,,,,,,,,,,,,,,,,,,,,,,,,,,,,,,,,,,,,,,,,,,,,,,,,,,,,,,,,,,,,,,,,,,,,,,,,,,,,,,,,,,,,,,,,,,,,,,,,,,,,,,,,,,,,,,,,,,,,,,,,,,,
1738755584.412919,1738755584.413386,58.000000,0.000000,4320.897461,4349.871582,4253.589844,4301.922852,4350.769043,4357.179688,4361.922852,4551.410156,4538.461426,4559.102539,4490.512695,5662.563965,4308.333496,4257.436035,0.000000,3.000000,74.000000,,,,0.000000,0.000000,0.000000,0.000000,0.000000,0.000000,0.000000,0.000000,0.000000,0.000000,0.000000,0.000000,0.000000,0.000000,0.000000,0.000000,,,,,,,,,,,,,,,,,,,,,,,,,,,,,,,,,,,,,,,,,,,,,,,,,,,,,,,,,,,,,,,,,,,,,,,,,,,,,,,,,,,,,,,,,,,,,,,,,,,,,,,,,,,,,,,,,,,,,,,,,,,,,,,,,
1738755584.420727,1738755584.421094,59.000000,0.000000,4323.333496,4347.692383,4255.128418,4302.307617,4349.871582,4357.179688,4366.025879,4552.692383,4535.897461,4561.922852,4491.794922,5663.461426,4309.358887,4256.538574,0.000000,3.000000,74.000000,,,,0.000000,0.000000,0.000000,0.000000,0.000000,0.000000,0.000000,0.000000,0.000000,0.000000,0.000000,0.000000,0.000000,0.000000,0.000000,0.000000,,,,,,,,,,,,,,,,,,,,,,,,,,,,,,,,,,,,,,,,,,,,,,,,,,,,,,,,,,,,,,,,,,,,,,,,,,,,,,,,,,,,,,,,,,,,,,,,,,,,,,,,,,,,,,,,,,,,,,,,,,,,,,,,,
1738755584.428535,1738755584.428902,60.000000,0.000000,4320.769043,4348.077148,4255.641113,4302.179688,4351.282227,4360.641113,4365.384766,4551.538574,4542.563965,4561.025879,4497.563965,5666.410156,4309.871582,4256.922852,0.000000,3.000000,74.000000,,,,0.000000,0.000000,0.000000,0.000000,0.000000,0.000000,0.000000,0.000000,0.000000,0.000000,0.000000,0.000000,0.000000,0.000000,0.000000,0.000000,,,,,,,,,,,,,,,,,15.000000,0.000000,0.784905,-0.616150,-0.060425,0.025146,0.062508,-0.975705,0.234892,4.149514,-15.070673,22.403845,,,,,,,,,,,,,,,,,,,,,,,,,,,,,,,,,,,,,,,,,,,,,,,,,,,,,,,,,,,,,,,,,,,,,,,,,,,,,,,,,,,,,,,,,,,,,,,,,,,,,
1738755584.436343,1738755584.436610,61.000000,0.000000,4320.897461,4350.000000,4254.615234,4302.820313,4351.666504,4360.897461,4363.333496,4551.282227,4544.230957,4559.743652,4498.461426,5666.025879,4310.769043,4258.205078,0.000000,3.000000,74.000000,,,,0.000000,0.000000,0.000000,0.000000,0.000000,0.000000,0.000000,0.000000,0.000000,0.000000,0.000000,0.000000,0.000000,0.000000,0.000000,0.000000,,,,,,,,,,,,,,,,,,,,,,,,,,,,,,,,,,,,,,,,,,,,,,,,,,,,,,,,,,,,,,,,,,,,,,,,,,,,,,,,,,,,,,,,,,,,,,,,,,,,,,,,,,,,,,,,,,,,,,,,,,,,,,,,,
1738755584.444151,1738755584.444518,62.000000,0.000000,4326.410156,4349.358887,4253.461426,4304.615234,4352.692383,4360.256348,4368.333496,4552.820313,4537.307617,4559.743652,4496.153809,5668.205078,4309.743652,4256.666504,0.000000,3.000000,74.000000,,,,0.000000,0.000000,0.000000,0.000000,0.000000,0.000000,0.000000,0.000000,0.000000,0.000000,0.000000,0.000000,0.000000,0.000000,0.000000,0.000000,,,,,,,,,,,,,,,,,,,,,,,,,,,,,,,,,,,,,,,,,,,,,,,,,,,,,,,,,,,,0.038062,0.069224,0.009044,0.018199,0.031721,0.028333,0.028103,0.024689,0.023859,0.024308,0.022428,0.021873,0.025125,0.019671,0.028781,0.010412,0.020058,0.019019,0.010936,0.023194,0.018608,0.022130,0.047289,0.019336,0.023704,0.015684,0.024347,0.019421,0.017989,0.026117,0.028747,0.032432,0.021151,0.021673,0.024076,0.007244,0.028905,0.011618,0.029260,0.032708,0.051257,0.033279,0.021964,0.019712,0.032086,0.011069,0.013626,0.009665,0.020264,0.034371,0.036261,0.026585,0.023168,0.022647,0.023284,0.026930,0.032392,0.042318,0.032307,0.036104,0.020513,0.033858,0.059965,0.029595,0.029782,0.020105,0.024502,0.024365,0.029893,0.027274
1738755584.451959,1738755584.452326,63.000000,0.000000,4325.512695,4350.641113,4252.563965,4303.717773,4353.717773,4360.128418,4366.922852,4552.692383,4538.077148,4559.487305,4496.666504,5666.922852,4313.974121,4258.589844,0.000000,3.000000,74.000000,,,,0.000000,0.000000,0.000000,0.000000,0.000000,0.000000,0.000000,0.000000,0.000000,0.000000,0.000000,0.000000,0.000000,0.000000,0.000000,0.000000,,,,,,,,,,,,,,,,,,,,,,,,,,,,,,,,,,,,,,,,,,,,,,,,,,,,,,,,,,,,,,,,,,,,,,,,,,,,,,,,,,,,,,,,,,,,,,,,,,,,,,,,,,,,,,,,,,,,,,,,,,,,,,,,,
1738755584.459767,1738755584.460234,64.000000,0.000000,4320.000000,4350.384766,4251.538574,4304.743652,4352.179688,4358.974121,4363.846191,4551.282227,4542.051270,4561.025879,4496.025879,5665.384766,4313.205078,4257.436035,0.000000,3.000000,74.000000,,,,0.000000,0.000000,0.000000,0.000000,0.000000,0.000000,0.000000,0.000000,0.000000,0.000000,0.000000,0.000000,0.000000,0.000000,0.000000,0.000000,,,,,,,,,,,,,,,,,16.000000,0.000000,0.784902,-0.616150,-0.060486,0.025085,0.061043,-0.978147,0.238799,4.134562,-15.080272,22.430126,,,,,,,,,,,,,,,,,,,,,,,,,,,,,,,,,,,,,,,,,,,,,,,,,,,,,,,,,,,,,,,,,,,,,,,,,,,,,,,,,,,,,,,,,,,,,,,,,,,,,
1738755584.467576,1738755584.468042,65.000000,0.000000,4320.000000,4348.589844,4252.307617,4304.743652,4351.410156,4359.871582,4365.641113,4550.769043,4540.641113,4561.922852,4494.871582,5667.051270,4311.410156,4253.461426,0.000000,3.000000,74.000000,,,,0.000000,0.000000,0.000000,0.000000,0.000000,0.000000,0.000000,0.000000,0.000000,0.000000,0.000000,0.000000,0.000000,0.000000,0.000000,0.000000,,,,,,,,,,,,,,,,,,,,,,,,,,,,,,,,,,,,,,,,,,,,,,,,,,,,,,,,,,,,,,,,,,,,,,,,,,,,,,,,,,,,,,,,,,,,,,,,,,,,,,,,,,,,,,,,,,,,,,,,,,,,,,,,,
1738755584.475384,1738755584.475951,66.000000,0.000000,4321.666504,4348.717773,4256.153809,4302.948730,4352.307617,4359.743652,4365.641113,4551.666504,4540.384766,4560.769043,4495.769043,5664.487305,4311.922852,4253.077148,0.000000,3.000000,74.000000,,,,0.000000,0.000000,0.000000,0.000000,0.000000,0.000000,0.000000,0.000000,0.000000,0.000000,0.000000,0.000000,0.000000,0.000000,0.000000,0.000000,,,,,,,,,,,,,,,,,,,,,,,,,,,,,,,,,,,,,,,,,,,,,,,,,,,,,,,,,,,,,,,,,,,,,,,,,,,,,,,,,,,,,,,,,,,,,,,,,,,,,,,,,,,,,,,,,,,,,,,,,,,,,,,,,
1738755584.483192,1738755584.483759,67.000000,0.000000,4318.461426,4348.077148,4256.153809,4304.871582,4352.692383,4357.436035,4367.307617,4553.077148,4539.487305,4560.641113,4493.846191,5662.563965,4309.871582,4253.717773,0.000000,3.000000,74.000000,,,,0.000000,0.000000,0.000000,0.000000,0.000000,0.000000,0.000000,0.000000,0.000000,0.000000,0.000000,0.000000,0.000000,0.000000,0.000000,0.000000,,,,,,,,,,,,,,,,,,,,,,,,,,,,,,,,,,,,,,,,,,,,,,,,,,,,,,,,,,,,,,,,,,,,,,,,,,,,,,,,,,,,,,,,,,,,,,,,,,,,,,,,,,,,,,,,,,,,,,,,,,,,,,,,,
1738755584.491000,1738755584.491667,68.000000,0.000000,4318.461426,4350.769043,4252.307617,4304.102539,4354.358887,4359.743652,4369.230957,4551.153809,4539.102539,4561.794922,4494.743652,5663.077148,4311.025879,4257.051270,0.000000,3.000000,74.000000,,,,0.000000,0.000000,0.000000,0.000000,0.000000,0.000000,0.000000,0.000000,0.000000,0.000000,0.000000,0.000000,0.000000,0.000000,0.000000,0.000000,,,,,,,,,,,,,,,,,17.000000,0.000000,0.784852,-0.616211,-0.060547,0.025024,0.067391,-0.971798,0.236357,4.137773,-15.155578,22.437115,,,,,,,,,,,,,,,,,,,,,,,,,,,,,,,,,,,,,,,,,,,,,,,,,,,,,,,,,,,,,,,,,,,,,,,,,,,,,,,,,,,,,,,,,,,,,,,,,,,,,
1738755584.498808,1738755584.499475,69.000000,0.000000,4323.333496,4353.077148,4253.205078,4301.666504,4354.615234,4361.922852,4367.948730,4549.230957,4541.025879,4560.512695,4498.974121,5665.256348,4309.358887,4256.922852,0.000000,3.000000,74.000000,,,,0.000000,0.000000,0.000000,0.000000,0.000000,0.000000,0.000000,0.000000,0.000000,0.000000,0.000000,0.000000,0.000000,0.000000,0.000000,0.000000,,,,,,,,,,,,,,,,,,,,,,,,,,,,,,,,,,,,,,,,,,,,,,,,,,,,,,,,,,,,,,,,,,,,,,,,,,,,,,,,,,,,,,,,,,,,,,,,,,,,,,,,,,,,,,,,,,,,,,,,,,,,,,,,,
1738755584.506616,1738755584.507383,70.000000,0.000000,4325.256348,4350.641113,4256.410156,4299.871582,4352.563965,4359.615234,4363.717773,4549.743652,4540.769043,4559.102539,4498.589844,5666.153809,4312.179688,4254.358887,0.000000,3.000000,74.000000,,,,0.000000,0.000000,0.000000,0.000000,0.000000,0.000000,0.000000,0.000000,0.000000,0.000000,0.000000,0.000000,0.000000,0.000000,0.000000,0.000000,,,,,,,,,,,,,,,,,,,,,,,,,,,,,,,,,,,,,,,,,,,,,,,,,,,,,,,,,,,,,,,,,,,,,,,,,,,,,,,,,,,,,,,,,,,,,,,,,,,,,,,,,,,,,,,,,,,,,,,,,,,,,,,,,
1738755584.514424,1738755584.515191,71.000000,0.000000,4325.000000,4350.384766,4254.615234,4300.000000,4354.102539,4358.589844,4362.563965,4550.641113,4539.358887,4559.358887,4495.000000,5664.871582,4314.871582,4258.205078,0.000000,3.000000,74.000000,,,,0.000000,0.000000,0.000000,0.000000,0.000000,0.000000,0.000000,0.000000,0.000000,0.000000,0.000000,0.000000,0.000000,0.000000,0.000000,0.000000,,,,,,,,,,,,,,,,,,,,,,,,,,,,,,,,,,,,,,,,,,,,,,,,,,,,,,,,,,,,,,,,,,,,,,,,,,,,,,,,,,,,,,,,,,,,,,,,,,,,,,,,,,,,,,,,,,,,,,,,,,,,,,,,,
1738755584.522232,1738755584.522900,72.000000,0.000000,4324.743652,4349.487305,4252.051270,4304.230957,4356.922852,4359.615234,4364.871582,4553.589844,4539.615234,4560.000000,4494.230957,5665.897461,4309.230957,4258.461426,0.000000,3.000000,74.000000,,,,0.000000,0.000000,0.000000,0.000000,0.000000,0.000000,0.000000,0.000000,0.000000,0.000000,0.000000,0.000000,0.000000,0.000000,0.000000,0.000000,,,,,,,,,,,,,,,,,18.000000,0.000000,0.784891,-0.616150,-0.060608,0.025146,0.061043,-0.974240,0.233427,4.007329,-15.123354,22.526735,,,,,,,,,,,,,,,,,,,,,,,,,,,,,,,,,,,,,,,,,,,,,,,,,,,,,,,,,,,,,,,,,,,,,,,,,,,,,,,,,,,,,,,,,,,,,,,,,,,,,
1738755584.530040,1738755584.530708,73.000000,0.000000,4323.077148,4348.205078,4253.974121,4303.846191,4353.846191,4358.077148,4367.179688,4551.538574,4541.538574,4562.307617,4496.794922,5663.589844,4314.230957,4254.743652,0.000000,3.000000,74.000000,,,,0.000000,0.000000,0.000000,0.000000,0.000000,0.000000,0.000000,0.000000,0.000000,0.000000,0.000000,0.000000,0.000000,0.000000,0.000000,0.000000,,,,,,,,,,,,,,,,,,,,,,,,,,,,,,,,,,,,,,,,,,,,,,,,,,,,,,,,,,,,,,,,,,,,,,,,,,,,,,,,,,,,,,,,,,,,,,,,,,,,,,,,,,,,,,,,,,,,,,,,,,,,,,,,,
1738755584.537848,1738755584.538416,74.000000,0.000000,4323.333496,4350.512695,4255.384766,4300.897461,4352.051270,4358.461426,4369.358887,4548.205078,4539.487305,4561.794922,4496.794922,5662.692383,4318.589844,4256.153809,0.000000,3.000000,74.000000,,,,0.000000,0.000000,0.000000,0.000000,0.000000,0.000000,0.000000,0.000000,0.000000,0.000000,0.000000,0.000000,0.000000,0.000000,0.000000,0.000000,,,,,,,,,,,,,,,,,,,,,,,,,,,,,,,,,,,,,,,,,,,,,,,,,,,,,,,,,,,,,,,,,,,,,,,,,,,,,,,,,,,,,,,,,,,,,,,,,,,,,,,,,,,,,,,,,,,,,,,,,,,,,,,,,
1738755584.545657,1738755584.546224,75.000000,0.000000,4323.717773,4352.179688,4252.307617,4302.436035,4353.205078,4359.871582,4365.641113,4551.538574,4537.820313,4559.230957,4496.282227,5665.384766,4311.153809,4259.230957,0.000000,3.000000,74.000000,,,,0.000000,0.000000,0.000000,0.000000,0.000000,0.000000,0.000000,0.000000,0.000000,0.000000,0.000000,0.000000,0.000000,0.000000,0.000000,0.000000,,,,,,,,,,,,,,,,,,,,,,,,,,,,,,,,,,,,,,,,,,,,,,,,,,,,,,,,,,,,,,,,,,,,,,,,,,,,,,,,,,,,,,,,,,,,,,,,,,,,,,,,,,,,,,,,,,,,,,,,,,,,,,,,,
1738755584.553465,1738755584.553932,76.000000,0.000000,4320.256348,4350.384766,4251.922852,4303.077148,4352.179688,4356.666504,4363.333496,4550.641113,4540.128418,4561.025879,4497.692383,5666.282227,4309.230957,4257.563965,0.000000,3.000000,74.000000,,,,0.000000,0.000000,0.000000,0.000000,0.000000,0.000000,0.000000,0.000000,0.000000,0.000000,0.000000,0.000000,0.000000,0.000000,0.000000,0.000000,,,,,,,,,,,,,,,,,19.000000,0.000000,0.784838,-0.616211,-0.060669,0.025146,0.070809,-0.973752,0.234892,4.006596,-15.027685,22.540730,,,,,,,,,,,,,,,,,,,,,,,,,,,,,,,,,,,,,,,,,,,,,,,,,,,,,,,,,,,,,,,,,,,,,,,,,,,,,,,,,,,,,,,,,,,,,,,,,,,,,
1738755584.561273,1738755584.561740,77.000000,0.000000,4319.743652,4348.205078,4255.641113,4301.922852,4352.307617,4356.794922,4369.358887,4547.692383,4538.333496,4561.922852,4496.538574,5668.974121,4310.641113,4254.230957,0.000000,3.000000,74.000000,,,,0.000000,0.000000,0.000000,0.000000,0.000000,0.000000,0.000000,0.000000,0.000000,0.000000,0.000000,0.000000,0.000000,0.000000,0.000000,0.000000,,,,,,,,,,,,,,,,,,,,,,,,,,,,,,,,,,,,,,,,,,,,,,,,,,,,,,,,,,,,,,,,,,,,,,,,,,,,,,,,,,,,,,,,,,,,,,,,,,,,,,,,,,,,,,,,,,,,,,,,,,,,,,,,,
1738755584.569081,1738755584.569449,78.000000,0.000000,4321.410156,4350.256348,4254.358887,4302.179688,4353.974121,4362.820313,4368.077148,4548.717773,4538.333496,4558.974121,4495.769043,5664.871582,4316.153809,4259.230957,0.000000,3.000000,74.000000,,,,0.000000,0.000000,0.000000,0.000000,0.000000,0.000000,0.000000,0.000000,0.000000,0.000000,0.000000,0.000000,0.000000,0.000000,0.000000,0.000000,,,,,,,,,,,,,,,,,,,,,,,,,,,,,,,,,,,,,,,,,,,,,,,,,,,,,,,,,,,,0.036662,0.062324,0.009234,0.018368,0.030874,0.025400,0.029624,0.026680,0.024390,0.023553,0.023733,0.018730,0.021148,0.016823,0.026066,0.009274,0.023228,0.022058,0.011606,0.024169,0.020156,0.026136,0.045185,0.018504,0.024705,0.018415,0.023759,0.018488,0.017829,0.025963,0.031533,0.035448,0.018282,0.022428,0.022565,0.009062,0.021210,0.011676,0.028721,0.028863,0.054325,0.029121,0.023457,0.018809,0.029948,0.009224,0.012262,0.008832,0.015717,0.032997,0.037693,0.025382,0.023919,0.021652,0.025185,0.024535,0.032164,0.045341,0.030301,0.034095,0.025489,0.034633,0.061864,0.027598,0.028280,0.022466,0.023267,0.022880,0.030573,0.026494
1738755584.576889,1738755584.577256,79.000000,0.000000,4321.282227,4350.512695,4250.384766,4303.333496,4354.615234,4363.717773,4365.128418,4550.641113,4540.384766,4558.077148,4497.436035,5660.512695,4316.538574,4260.769043,0.000000,3.000000,74.000000,,,,0.000000,0.000000,0.000000,0.000000,0.000000,0.000000,0.000000,0.000000,0.000000,0.000000,0.000000,0.000000,0.000000,0.000000,0.000000,0.000000,,,,,,,,,,,,,,,,,,,,,,,,,,,,,,,,,,,,,,,,,,,,,,,,,,,,,,,,,,,,,,,,,,,,,,,,,,,,,,,,,,,,,,,,,,,,,,,,,,,,,,,,,,,,,,,,,,,,,,,,,,,,,,,,,
1738755584.584697,1738755584.584965,80.000000,0.000000,4322.307617,4349.743652,4253.846191,4303.846191,4353.333496,4360.384766,4368.589844,4551.410156,4538.717773,4561.025879,4498.333496,5664.102539,4309.615234,4258.077148,0.000000,3.000000,74.000000,,,,0.000000,0.000000,0.000000,0.000000,0.000000,0.000000,0.000000,0.000000,0.000000,0.000000,0.000000,0.000000,0.000000,0.000000,0.000000,0.000000,,,,,,,,,,,,,,,,,20.000000,0.000000,0.784838,-0.616211,-0.060669,0.025146,0.060066,-0.964962,0.241729,4.005936,-15.041583,22.803322,,,,,,,,,,,,,,,,,,,,,,,,,,,,,,,,,,,,,,,,,,,,,,,,,,,,,,,,,,,,,,,,,,,,,,,,,,,,,,,,,,,,,,,,,,,,,,,,,,,,,
1738755584.592505,1738755584.592773,81.000000,0.000000,4322.820313,4351.922852,4258.461426,4302.563965,4352.051270,4359.871582,4367.436035,4549.102539,4538.205078,4561.410156,4497.563965,5665.769043,4313.974121,4261.538574,0.000000,3.000000,74.000000,,,,0.000000,0.000000,0.000000,0.000000,0.000000,0.000000,0.000000,0.000000,0.000000,0.000000,0.000000,0.000000,0.000000,0.000000,0.000000,0.000000,,,,,,,,,,,,,,,,,,,,,,,,,,,,,,,,,,,,,,,,,,,,,,,,,,,,,,,,,,,,,,,,,,,,,,,,,,,,,,,,,,,,,,,,,,,,,,,,,,,,,,,,,,,,,,,,,,,,,,,,,,,,,,,,,
1738755584.600313,1738755584.600481,82.000000,0.000000,4322.820313,4350.641113,4257.051270,4303.077148,4351.282227,4360.000000,4364.615234,4549.358887,4540.769043,4558.717773,4496.794922,5665.384766,4314.358887,4260.256348,0.000000,3.000000,74.000000,,,,0.000000,0.000000,0.000000,0.000000,0.000000,0.000000,0.000000,0.000000,0.000000,0.000000,0.000000,0.000000,0.000000,0.000000,0.000000,0.000000,,,,,,,,,,,,,,,,,,,,,,,,,,,,,,,,,,,,,,,,,,,,,,,,,,,,,,,,,,,,,,,,,,,,,,,,,,,,,,,,,,,,,,,,,,,,,,,,,,,,,,,,,,,,,,,,,,,,,,,,,,,,,,,,,
1738755584.608121,1738755584.608389,83.000000,0.000000,4322.692383,4350.000000,4255.000000,4302.820313,4351.538574,4360.897461,4365.897461,4550.384766,4540.769043,4559.230957,4496.410156,5663.717773,4311.538574,4257.307617,0.000000,3.000000,74.000000,,,,0.000000,0.000000,0.000000,0.000000,0.000000,0.000000,0.000000,0.000000,0.000000,0.000000,0.000000,0.000000,0.000000,0.000000,0.000000,0.000000,,,,,,,,,,,,,,,,,,,,,,,,,,,,,,,,,,,,,,,,,,,,,,,,,,,,,,,,,,,,,,,,,,,,,,,,,,,,,,,,,,,,,,,,,,,,,,,,,,,,,,,,,,,,,,,,,,,,,,,,,,,,,,,,,
1738755584.615929,1738755584.616197,84.000000,0.000000,4321.538574,4353.077148,4255.897461,4302.307617,4351.922852,4361.922852,4368.717773,4551.025879,4536.922852,4561.922852,4496.538574,5663.717773,4314.230957,4258.333496,0.000000,3.000000,74.000000,,,,0.000000,0.000000,0.000000,0.000000,0.000000,0.000000,0.000000,0.000000,0.000000,0.000000,0.000000,0.000000,0.000000,0.000000,0.000000,0.000000,,,,,,,,,,,,,,,,,21.000000,0.000000,0.784836,-0.616211,-0.060669,0.025208,0.060554,-0.987425,0.234404,3.955343,-15.137424,22.739656,,,,,,,,,,,,,,,,,,,,,,,,,,,,,,,,,,,,,,,,,,,,,,,,,,,,,,,,,,,,,,,,,,,,,,,,,,,,,,,,,,,,,,,,,,,,,,,,,,,,,
1738755584.623737,1738755584.624005,85.000000,0.000000,4320.769043,4352.436035,4255.641113,4303.846191,4352.179688,4360.128418,4369.871582,4551.025879,4538.077148,4561.538574,4496.666504,5664.487305,4313.205078,4255.897461,0.000000,3.000000,74.000000,,,,0.000000,0.000000,0.000000,0.000000,0.000000,0.000000,0.000000,0.000000,0.000000,0.000000,0.000000,0.000000,0.000000,0.000000,0.000000,0.000000,,,,,,,,,,,,,,,,,,,,,,,,,,,,,,,,,,,,,,,,,,,,,,,,,,,,,,,,,,,,,,,,,,,,,,,,,,,,,,,,,,,,,,,,,,,,,,,,,,,,,,,,,,,,,,,,,,,,,,,,,,,,,,,,,
1738755584.631546,1738755584.631713,86.000000,0.000000,4321.282227,4350.128418,4254.230957,4303.205078,4352.820313,4362.051270,4366.153809,4549.230957,4541.538574,4560.128418,4497.563965,5661.794922,4315.384766,4256.282227,0.000000,3.000000,74.000000,,,,0.000000,0.000000,0.000000,0.000000,0.000000,0.000000,0.000000,0.000000,0.000000,0.000000,0.000000,0.000000,0.000000,0.000000,0.000000,0.000000,,,,,,,,,,,,,,,,,,,,,,,,,,,,,,,,,,,,,,,,,,,,,,,,,,,,,,,,,,,,,,,,,,,,,,,,,,,,,,,,,,,,,,,,,,,,,,,,,,,,,,,,,,,,,,,,,,,,,,,,,,,,,,,,,
1738755584.639354,1738755584.639621,87.000000,0.000000,4323.461426,4351.153809,4253.205078,4303.077148,4352.563965,4364.743652,4366.153809,4549.743652,4538.077148,4558.846191,4498.333496,5662.563965,4313.077148,4256.794922,0.000000,3.000000,74.000000,,,,0.000000,0.000000,0.000000,0.000000,0.000000,0.000000,0.000000,0.000000,0.000000,0.000000,0.000000,0.000000,0.000000,0.000000,0.000000,0.000000,,,,,,,,,,,,,,,,,,,,,,,,,,,,,,,,,,,,,,,,,,,,,,,,,,,,,,,,,,,,,,,,,,,,,,,,,,,,,,,,,,,,,,,,,,,,,,,,,,,,,,,,,,,,,,,,,,,,,,,,,,,,,,,,,
1738755584.647162,1738755584.647430,88.000000,0.000000,4325.256348,4351.538574,4255.384766,4302.820313,4351.922852,4360.256348,4368.717773,4550.256348,4537.563965,4559.487305,4496.282227,5664.230957,4308.717773,4256.153809,0.000000,3.000000,74.000000,,,,0.000000,0.000000,0.000000,0.000000,0.000000,0.000000,0.000000,0.000000,0.000000,0.000000,0.000000,0.000000,0.000000,0.000000,0.000000,0.000000,,,,,,,,,,,,,,,,,22.000000,0.000000,0.784875,-0.616150,-0.060791,0.025208,0.053717,-0.984495,0.228055,3.993142,-15.273683,22.765692,,,,,,,,,,,,,,,,,,,,,,,,,,,,,,,,,,,,,,,,,,,,,,,,,,,,,,,,,,,,,,,,,,,,,,,,,,,,,,,,,,,,,,,,,,,,,,,,,,,,,
1738755584.654970,1738755584.655338,89.000000,0.000000,4323.461426,4349.102539,4257.563965,4301.410156,4352.563965,4357.948730,4367.436035,4549.615234,4542.692383,4561.666504,4496.538574,5664.615234,4311.153809,4256.410156,0.000000,3.000000,74.000000,,,,0.000000,0.000000,0.000000,0.000000,0.000000,0.000000,0.000000,0.000000,0.000000,0.000000,0.000000,0.000000,0.000000,0.000000,0.000000,0.000000,,,,,,,,,,,,,,,,,,,,,,,,,,,,,,,,,,,,,,,,,,,,,,,,,,,,,,,,,,,,,,,,,,,,,,,,,,,,,,,,,,,,,,,,,,,,,,,,,,,,,,,,,,,,,,,,,,,,,,,,,,,,,,,,,
1738755584.662778,1738755584.663146,90.000000,0.000000,4319.743652,4348.974121,4254.487305,4304.743652,4352.948730,4360.512695,4369.102539,4550.256348,4539.743652,4561.282227,4497.820313,5666.922852,4311.025879,4253.974121,0.000000,3.000000,74.000000,,,,0.000000,0.000000,0.000000,0.000000,0.000000,0.000000,0.000000,0.000000,0.000000,0.000000,0.000000,0.000000,0.000000,0.000000,0.000000,0.000000,,,,,,,,,,,,,,,,,,,,,,,,,,,,,,,,,,,,,,,,,,,,,,,,,,,,,,,,,,,,,,,,,,,,,,,,,,,,,,,,,,,,,,,,,,,,,,,,,,,,,,,,,,,,,,,,,,,,,,,,,,,,,,,,,
1738755584.670586,1738755584.671054,91.000000,0.000000,4318.589844,4351.666504,4253.974121,4307.307617,4349.358887,4359.615234,4368.461426,4550.384766,4537.948730,4561.025879,4496.666504,5660.641113,4311.922852,4255.769043,0.000000,3.000000,74.000000,,,,0.000000,0.000000,0.000000,0.000000,0.000000,0.000000,0.000000,0.000000,0.000000,0.000000,0.000000,0.000000,0.000000,0.000000,0.000000,0.000000,,,,,,,,,,,,,,,,,,,,,,,,,,,,,,,,,,,,,,,,,,,,,,,,,,,,,,,,,,,,,,,,,,,,,,,,,,,,,,,,,,,,,,,,,,,,,,,,,,,,,,,,,,,,,,,,,,,,,,,,,,,,,,,,,
1738755584.678394,1738755584.678962,92.000000,0.000000,4321.666504,4352.051270,4256.410156,4305.512695,4349.102539,4358.461426,4364.102539,4551.794922,4544.102539,4561.410156,4495.769043,5660.256348,4311.794922,4257.948730,0.000000,3.000000,74.000000,,,,0.000000,0.000000,0.000000,0.000000,0.000000,0.000000,0.000000,0.000000,0.000000,0.000000,0.000000,0.000000,0.000000,0.000000,0.000000,0.000000,,,,,,,,,,,,,,,,,23.000000,0.000000,0.784822,-0.616211,-0.060852,0.025208,0.067879,-0.969357,0.235380,4.027161,-15.296314,22.705790,,,,,,,,,,,,,,,,,,,,,,,,,,,,,,,,,,,,,,,,,,,,,,,,,,,,,,,,,,,,,,,,,,,,,,,,,,,,,,,,,,,,,,,,,,,,,,,,,,,,,
1738755584.686202,1738755584.686770,93.000000,0.000000,4323.205078,4350.897461,4254.102539,4299.358887,4353.974121,4359.615234,4365.256348,4552.051270,4543.461426,4560.384766,4497.179688,5667.692383,4310.000000,4256.153809,0.000000,3.000000,74.000000,,,,0.000000,0.000000,0.000000,0.000000,0.000000,0.000000,0.000000,0.000000,0.000000,0.000000,0.000000,0.000000,0.000000,0.000000,0.000000,0.000000,,,,,,,,,,,,,,,,,,,,,,,,,,,,,,,,,,,,,,,,,,,,,,,,,,,,,,,,,,,,,,,,,,,,,,,,,,,,,,,,,,,,,,,,,,,,,,,,,,,,,,,,,,,,,,,,,,,,,,,,,,,,,,,,,
1738755584.694010,1738755584.694578,94.000000,0.000000,4323.333496,4352.563965,4252.307617,4297.820313,4353.974121,4359.358887,4367.820313,4548.205078,4538.589844,4559.358887,4496.794922,5660.897461,4311.025879,4256.794922,0.000000,3.000000,74.000000,,,,0.000000,0.000000,0.000000,0.000000,0.000000,0.000000,0.000000,0.000000,0.000000,0.000000,0.000000,0.000000,0.000000,0.000000,0.000000,0.000000,1.000000,0.000000,0.000000,0.000000,0.000000,0.000000,0.000000,0.000000,0.000000,0.000000,0.000000,0.000000,0.000000,0.000000,0.000000,0.000000,,,,,,,,,,,,,,,,,,,,,,,,,,,,,,,,,,,,,,,,,,,,0.032887,0.051636,0.010376,0.018446,0.029958,0.021107,0.029142,0.029574,0.025289,0.023847,0.026294,0.016843,0.017580,0.014846,0.023103,0.009104,0.027177,0.027400,0.013428,0.025664,0.021407,0.029374,0.040771,0.017803,0.024988,0.019934,0.023243,0.017307,0.016333,0.025064,0.035900,0.039013,0.017329,0.024027,0.021426,0.013801,0.015586,0.013042,0.027456,0.024396,0.057775,0.024061,0.023410,0.018040,0.027624,0.007907,0.010892,0.008417,0.011962,0.030252,0.039106,0.024630,0.024492,0.023669,0.026569,0.022820,0.034355,0.046169,0.027599,0.031982,0.029561,0.034440,0.058183,0.025443,0.028163,0.024522,0.022066,0.021676,0.030986,0.026212
1738755584.701819,1738755584.702487,95.000000,0.000000,4325.512695,4352.051270,4253.205078,4304.615234,4351.538574,4358.205078,4367.436035,4548.333496,4538.846191,4561.025879,4493.717773,5657.563965,4307.948730,4257.563965,0.000000,3.000000,74.000000,,,,0.000000,0.000000,0.000000,0.000000,0.000000,0.000000,0.000000,0.000000,0.000000,0.000000,0.000000,0.000000,0.000000,0.000000,0.000000,0.000000,,,,,,,,,,,,,,,,,,,,,,,,,,,,,,,,,,,,,,,,,,,,,,,,,,,,,,,,,,,,,,,,,,,,,,,,,,,,,,,,,,,,,,,,,,,,,,,,,,,,,,,,,,,,,,,,,,,,,,,,,,,,,,,,,
1738755584.709627,1738755584.710295,96.000000,0.000000,4324.358887,4349.358887,4251.922852,4304.615234,4353.589844,4358.333496,4365.512695,4550.000000,4541.410156,4563.717773,4495.256348,5663.333496,4309.487305,4256.538574,0.000000,3.000000,74.000000,,,,0.000000,0.000000,0.000000,0.000000,0.000000,0.000000,0.000000,0.000000,0.000000,0.000000,0.000000,0.000000,0.000000,0.000000,0.000000,0.000000,,,,,,,,,,,,,,,,,24.000000,0.000000,0.784902,-0.616089,-0.061035,0.025269,0.059578,-0.968380,0.228544,4.107778,-15.366683,22.735210,,,,,,,,,,,,,,,,,,,,,,,,,,,,,,,,,,,,,,,,,,,,,,,,,,,,,,,,,,,,,,,,,,,,,,,,,,,,,,,,,,,,,,,,,,,,,,,,,,,,,
1738755584.717435,1738755584.718003,97.000000,0.000000,4322.179688,4350.384766,4251.538574,4300.512695,4356.282227,4359.102539,4364.487305,4550.512695,4539.102539,4563.077148,4497.307617,5663.461426,4311.025879,4255.384766,0.000000,3.000000,74.000000,,,,0.000000,0.000000,0.000000,0.000000,0.000000,0.000000,0.000000,0.000000,0.000000,0.000000,0.000000,0.000000,0.000000,0.000000,0.000000,0.000000,,,,,,,,,,,,,,,,,,,,,,,,,,,,,,,,,,,,,,,,,,,,,,,,,,,,,,,,,,,,,,,,,,,,,,,,,,,,,,,,,,,,,,,,,,,,,,,,,,,,,,,,,,,,,,,,,,,,,,,,,,,,,,,,,
1738755584.725243,1738755584.725811,98.000000,0.000000,4322.820313,4350.897461,4253.589844,4301.538574,4353.077148,4358.846191,4362.179688,4551.410156,4536.282227,4561.153809,4496.922852,5660.897461,4309.743652,4257.820313,0.000000,3.000000,74.000000,,,,0.000000,0.000000,0.000000,0.000000,0.000000,0.000000,0.000000,0.000000,0.000000,0.000000,0.000000,0.000000,0.000000,0.000000,0.000000,0.000000,,,,,,,,,,,,,,,,,,,,,,,,,,,,,,,,,,,,,,,,,,,,,,,,,,,,,,,,,,,,,,,,,,,,,,,,,,,,,,,,,,,,,,,,,,,,,,,,,,,,,,,,,,,,,,,,,,,,,,,,,,,,,,,,,
1738755584.733051,1738755584.733520,99.000000,0.000000,4321.538574,4348.461426,4252.692383,4304.102539,4349.871582,4358.333496,4362.179688,4550.000000,4539.230957,4560.641113,4496.666504,5660.769043,4314.230957,4260.512695,0.000000,3.000000,74.000000,,,,0.000000,0.000000,0.000000,0.000000,0.000000,0.000000,0.000000,0.000000,0.000000,0.000000,0.000000,0.000000,0.000000,0.000000,0.000000,0.000000,,,,,,,,,,,,,,,,,,,,,,,,,,,,,,,,,,,,,,,,,,,,,,,,,,,,,,,,,,,,,,,,,,,,,,,,,,,,,,,,,,,,,,,,,,,,,,,,,,,,,,,,,,,,,,,,,,,,,,,,,,,,,,,,,
1738755584.740859,1738755584.741328,100.000000,0.000000,4320.897461,4348.333496,4251.410156,4305.512695,4352.307617,4358.974121,4367.948730,4550.000000,4540.512695,4560.512695,4495.000000,5663.717773,4311.922852,4255.512695,0.000000,3.000000,74.000000,,,,0.000000,0.000000,0.000000,0.000000,0.000000,0.000000,0.000000,0.000000,0.000000,0.000000,0.000000,0.000000,0.000000,0.000000,0.000000,0.000000,,,,,,,,,,,,,,,,,25.000000,0.000000,0.784906,-0.616089,-0.060974,0.025269,0.063484,-0.965938,0.230497,3.980334,-15.530014,22.661690,,,,,,,,,,,,,,,,,,,,,,,,,,,,,,,,,,,,,,,,,,,,,,,,,,,,,,,,,,,,,,,,,,,,,,,,,,,,,,,,,,,,,,,,,,,,,,,,,,,,,
1738755584.748667,1738755584.749036,101.000000,0.000000,4322.820313,4352.307617,4255.384766,4302.307617,4354.615234,4360.641113,4369.230957,4549.102539,4541.282227,4561.282227,4495.000000,5665.384766,4309.743652,4256.025879,0.000000,3.000000,74.000000,,,,0.000000,0.000000,0.000000,0.000000,0.000000,0.000000,0.000000,0.000000,0.000000,0.000000,0.000000,0.000000,0.000000,0.000000,0.000000,0.000000,,,,,,,,,,,,,,,,,,,,,,,,,,,,,,,,,,,,,,,,,,,,,,,,,,,,,,,,,,,,,,,,,,,,,,,,,,,,,,,,,,,,,,,,,,,,,,,,,,,,,,,,,,,,,,,,,,,,,,,,,,,,,,,,,
1738755584.756475,1738755584.756844,102.000000,0.000000,4323.205078,4351.666504,4258.333496,4300.384766,4353.333496,4361.025879,4365.897461,4548.846191,4541.666504,4560.128418,4496.153809,5663.589844,4311.282227,4259.230957,0.000000,3.000000,74.000000,,,,0.000000,0.000000,0.000000,0.000000,0.000000,0.000000,0.000000,0.000000,0.000000,0.000000,0.000000,0.000000,0.000000,0.000000,0.000000,0.000000,,,,,,,,,,,,,,,,,,,,,,,,,,,,,,,,,,,,,,,,,,,,,,,,,,,,,,,,,,,,,,,,,,,,,,,,,,,,,,,,,,,,,,,,,,,,,,,,,,,,,,,,,,,,,,,,,,,,,,,,,,,,,,,,,
1738755584.764283,1738755584.764552,103.000000,0.000000,4323.205078,4346.922852,4255.128418,4306.153809,4352.692383,4360.128418,4365.384766,4549.743652,4540.384766,4555.384766,4497.436035,5660.897461,4310.000000,4255.256348,0.000000,3.000000,74.000000,,,,0.000000,0.000000,0.000000,0.000000,0.000000,0.000000,0.000000,0.000000,0.000000,0.000000,0.000000,0.000000,0.000000,0.000000,0.000000,0.000000,,,,,,,,,,,,,,,,,,,,,,,,,,,,,,,,,,,,,,,,,,,,,,,,,,,,,,,,,,,,,,,,,,,,,,,,,,,,,,,,,,,,,,,,,,,,,,,,,,,,,,,,,,,,,,,,,,,,,,,,,,,,,,,,,
1738755584.772092,1738755584.772360,104.000000,0.000000,4322.692383,4349.102539,4253.205078,4308.205078,4354.871582,4360.641113,4366.794922,4546.794922,4542.179688,4556.153809,4499.871582,5662.436035,4313.077148,4255.512695,0.000000,3.000000,74.000000,,,,0.000000,0.000000,0.000000,0.000000,0.000000,0.000000,0.000000,0.000000,0.000000,0.000000,0.000000,0.000000,0.000000,0.000000,0.000000,0.000000,,,,,,,,,,,,,,,,,26.000000,0.000000,0.784959,-0.616028,-0.060913,0.025269,0.071786,-0.978635,0.248565,3.832300,-15.427013,22.562187,,,,,,,,,,,,,,,,,,,,,,,,,,,,,,,,,,,,,,,,,,,,,,,,,,,,,,,,,,,,,,,,,,,,,,,,,,,,,,,,,,,,,,,,,,,,,,,,,,,,,
1738755584.779899,1738755584.780068,105.000000,0.000000,4322.436035,4354.487305,4255.000000,4305.256348,4355.000000,4361.025879,4367.563965,4547.563965,4541.922852,4561.282227,4496.794922,5665.769043,4310.128418,4256.922852,0.000000,3.000000,74.000000,,,,0.000000,0.000000,0.000000,0.000000,0.000000,0.000000,0.000000,0.000000,0.000000,0.000000,0.000000,0.000000,0.000000,0.000000,0.000000,0.000000,,,,,,,,,,,,,,,,,,,,,,,,,,,,,,,,,,,,,,,,,,,,,,,,,,,,,,,,,,,,,,,,,,,,,,,,,,,,,,,,,,,,,,,,,,,,,,,,,,,,,,,,,,,,,,,,,,,,,,,,,,,,,,,,,
1738755584.787708,1738755584.787876,106.000000,0.000000,4322.051270,4353.205078,4253.205078,4304.743652,4351.794922,4359.615234,4364.487305,4550.897461,4539.615234,4561.922852,4495.000000,5661.538574,4307.563965,4255.512695,0.000000,3.000000,74.000000,,,,0.000000,0.000000,0.000000,0.000000,0.000000,0.000000,0.000000,0.000000,0.000000,0.000000,0.000000,0.000000,0.000000,0.000000,0.000000,0.000000,,,,,,,,,,,,,,,,,,,,,,,,,,,,,,,,,,,,,,,,,,,,,,,,,,,,,,,,,,,,,,,,,,,,,,,,,,,,,,,,,,,,,,,,,,,,,,,,,,,,,,,,,,,,,,,,,,,,,,,,,,,,,,,,,
1738755584.795516,1738755584.795584,107.000000,0.000000,4321.282227,4348.077148,4250.641113,4305.000000,4352.307617,4359.615234,4365.641113,4550.769043,4540.769043,4561.538574,4499.102539,5659.358887,4309.615234,4255.512695,0.000000,3.000000,74.000000,,,,0.000000,0.000000,0.000000,0.000000,0.000000,0.000000,0.000000,0.000000,0.000000,0.000000,0.000000,0.000000,0.000000,0.000000,0.000000,0.000000,,,,,,,,,,,,,,,,,,,,,,,,,,,,,,,,,,,,,,,,,,,,,,,,,,,,,,,,,,,,,,,,,,,,,,,,,,,,,,,,,,,,,,,,,,,,,,,,,,,,,,,,,,,,,,,,,,,,,,,,,,,,,,,,,
1738755584.803324,1738755584.803392,108.000000,0.000000,4321.538574,4350.512695,4252.692383,4305.512695,4355.384766,4360.256348,4370.128418,4549.487305,4540.769043,4561.538574,4498.846191,5666.025879,4307.436035,4256.153809,0.000000,3.000000,74.000000,,,,0.000000,0.000000,0.000000,0.000000,0.000000,0.000000,0.000000,0.000000,0.000000,0.000000,0.000000,0.000000,0.000000,0.000000,0.000000,0.000000,,,,,,,,,,,,,,,,,27.000000,0.000000,0.785004,-0.615967,-0.060974,0.025208,0.071298,-0.968868,0.233915,3.815737,-15.467645,22.589302,,,,,,,,,,,,,,,,,,,,,,,,,,,,,,,,,,,,,,,,,,,,,,,,,,,,,,,,,,,,,,,,,,,,,,,,,,,,,,,,,,,,,,,,,,,,,,,,,,,,,
1738755584.811132,1738755584.811100,109.000000,0.000000,4324.487305,4354.230957,4254.615234,4303.717773,4354.487305,4360.769043,4367.692383,4548.717773,4539.102539,4560.128418,4496.025879,5664.230957,4310.128418,4258.205078,0.000000,3.000000,74.000000,,,,0.000000,0.000000,0.000000,0.000000,0.000000,0.000000,0.000000,0.000000,0.000000,0.000000,0.000000,0.000000,0.000000,0.000000,0.000000,0.000000,,,,,,,,,,,,,,,,,,,,,,,,,,,,,,,,,,,,,,,,,,,,,,,,,,,,,,,,,,,,,,,,,,,,,,,,,,,,,,,,,,,,,,,,,,,,,,,,,,,,,,,,,,,,,,,,,,,,,,,,,,,,,,,,,
1738755584.818940,1738755584.818908,110.000000,0.000000,4327.820313,4348.974121,4251.538574,4302.179688,4352.436035,4361.410156,4366.666504,4549.615234,4538.333496,4558.717773,4494.230957,5659.871582,4310.000000,4257.051270,0.000000,3.000000,74.000000,,,,0.000000,0.000000,0.000000,0.000000,0.000000,0.000000,0.000000,0.000000,0.000000,0.000000,0.000000,0.000000,0.000000,0.000000,0.000000,0.000000,,,,,,,,,,,,,,,,,,,,,,,,,,,,,,,,,,,,,,,,,,,,,,,,,,,,,,,,,,,,0.028479,0.040734,0.013555,0.018155,0.029353,0.016488,0.027061,0.032264,0.026081,0.024882,0.028689,0.017936,0.015498,0.013864,0.020371,0.010160,0.031075,0.034059,0.016082,0.027586,0.021794,0.030267,0.035099,0.016996,0.024294,0.020592,0.023462,0.016344,0.014279,0.024096,0.041092,0.043098,0.019129,0.026158,0.020817,0.020700,0.013353,0.015410,0.026067,0.020725,0.060039,0.019522,0.022035,0.017657,0.025597,0.007133,0.010038,0.008458,0.009544,0.026741,0.039294,0.024899,0.025521,0.027909,0.027625,0.021894,0.038915,0.044488,0.024775,0.029979,0.030773,0.034090,0.051307,0.023770,0.029818,0.025985,0.020925,0.020599,0.030603,0.026116
1738755584.826748,1738755584.826616,111.000000,0.000000,4323.717773,4347.692383,4250.897461,4303.589844,4353.974121,4360.128418,4366.666504,4549.743652,4541.410156,4560.769043,4494.487305,5661.153809,4308.205078,4255.897461,0.000000,3.000000,74.000000,,,,0.000000,0.000000,0.000000,0.000000,0.000000,0.000000,0.000000,0.000000,0.000000,0.000000,0.000000,0.000000,0.000000,0.000000,0.000000,0.000000,,,,,,,,,,,,,,,,,,,,,,,,,,,,,,,,,,,,,,,,,,,,,,,,,,,,,,,,,,,,,,,,,,,,,,,,,,,,,,,,,,,,,,,,,,,,,,,,,,,,,,,,,,,,,,,,,,,,,,,,,,,,,,,,,
1738755584.834556,1738755584.834424,112.000000,0.000000,4321.025879,4351.282227,4255.641113,4303.077148,4354.230957,4357.563965,4364.102539,4550.897461,4543.333496,4561.794922,4496.153809,5661.410156,4312.051270,4254.230957,0.000000,3.000000,74.000000,,,,0.000000,0.000000,0.000000,0.000000,0.000000,0.000000,0.000000,0.000000,0.000000,0.000000,0.000000,0.000000,0.000000,0.000000,0.000000,0.000000,,,,,,,,,,,,,,,,,28.000000,0.000000,0.785004,-0.615967,-0.060974,0.025208,0.067391,-0.972287,0.234404,3.950830,-15.570881,22.630371,,,,,,,,,,,,,,,,,,,,,,,,,,,,,,,,,,,,,,,,,,,,,,,,,,,,,,,,,,,,,,,,,,,,,,,,,,,,,,,,,,,,,,,,,,,,,,,,,,,,,
1738755584.842364,1738755584.842132,113.000000,0.000000,4325.384766,4351.538574,4255.512695,4303.589844,4352.563965,4357.820313,4368.974121,4552.948730,4539.615234,4559.871582,4496.794922,5663.717773,4308.974121,4252.307617,0.000000,3.000000,74.000000,,,,0.000000,0.000000,0.000000,0.000000,0.000000,0.000000,0.000000,0.000000,0.000000,0.000000,0.000000,0.000000,0.000000,0.000000,0.000000,0.000000,,,,,,,,,,,,,,,,,,,,,,,,,,,,,,,,,,,,,,,,,,,,,,,,,,,,,,,,,,,,,,,,,,,,,,,,,,,,,,,,,,,,,,,,,,,,,,,,,,,,,,,,,,,,,,,,,,,,,,,,,,,,,,,,,
1738755584.850172,1738755584.849940,114.000000,0.000000,4323.846191,4351.410156,4250.897461,4305.769043,4352.563965,4363.461426,4369.487305,4551.666504,4538.974121,4560.128418,4497.436035,5663.846191,4309.487305,4255.000000,0.000000,3.000000,74.000000,,,,0.000000,0.000000,0.000000,0.000000,0.000000,0.000000,0.000000,0.000000,0.000000,0.000000,0.000000,0.000000,0.000000,0.000000,0.000000,0.000000,,,,,,,,,,,,,,,,,,,,,,,,,,,,,,,,,,,,,,,,,,,,,,,,,,,,,,,,,,,,,,,,,,,,,,,,,,,,,,,,,,,,,,,,,,,,,,,,,,,,,,,,,,,,,,,,,,,,,,,,,,,,,,,,,
1738755584.857981,1738755584.857648,115.000000,0.000000,4320.256348,4349.487305,4252.307617,4305.641113,4353.077148,4365.256348,4363.717773,4550.512695,4540.512695,4561.922852,4496.153809,5665.512695,4312.820313,4256.282227,0.000000,3.000000,74.000000,,,,0.000000,0.000000,0.000000,0.000000,0.000000,0.000000,0.000000,0.000000,0.000000,0.000000,0.000000,0.000000,0.000000,0.000000,0.000000,0.000000,,,,,,,,,,,,,,,,,,,,,,,,,,,,,,,,,,,,,,,,,,,,,,,,,,,,,,,,,,,,,,,,,,,,,,,,,,,,,,,,,,,,,,,,,,,,,,,,,,,,,,,,,,,,,,,,,,,,,,,,,,,,,,,,,
1738755584.865789,1738755584.865556,116.000000,0.000000,4322.179688,4348.846191,4254.487305,4301.922852,4352.948730,4360.256348,4365.000000,4550.128418,4539.358887,4561.538574,4496.282227,5666.410156,4309.358887,4254.871582,0.000000,3.000000,74.000000,,,,0.000000,0.000000,0.000000,0.000000,0.000000,0.000000,0.000000,0.000000,0.000000,0.000000,0.000000,0.000000,0.000000,0.000000,0.000000,0.000000,,,,,,,,,,,,,,,,,29.000000,0.000000,0.785004,-0.615967,-0.060974,0.025208,0.070321,-0.973752,0.240264,4.072413,-15.430459,22.584002,,,,,,,,,,,,,,,,,,,,,,,,,,,,,,,,,,,,,,,,,,,,,,,,,,,,,,,,,,,,,,,,,,,,,,,,,,,,,,,,,,,,,,,,,,,,,,,,,,,,,
1738755584.873597,1738755584.873364,117.000000,0.000000,4325.384766,4351.538574,4253.205078,4300.897461,4352.820313,4357.051270,4366.922852,4549.487305,4539.743652,4559.871582,4499.230957,5661.153809,4309.230957,4256.410156,0.000000,3.000000,74.000000,,,,0.000000,0.000000,0.000000,0.000000,0.000000,0.000000,0.000000,0.000000,0.000000,0.000000,0.000000,0.000000,0.000000,0.000000,0.000000,0.000000,,,,,,,,,,,,,,,,,,,,,,,,,,,,,,,,,,,,,,,,,,,,,,,,,,,,,,,,,,,,,,,,,,,,,,,,,,,,,,,,,,,,,,,,,,,,,,,,,,,,,,,,,,,,,,,,,,,,,,,,,,,,,,,,,
1738755584.881405,1738755584.881273,118.000000,0.000000,4324.871582,4349.743652,4253.205078,4303.589844,4353.589844,4359.230957,4365.384766,4551.538574,4539.358887,4561.410156,4498.333496,5663.846191,4312.436035,4256.025879,0.000000,3.000000,74.000000,,,,0.000000,0.000000,0.000000,0.000000,0.000000,0.000000,0.000000,0.000000,0.000000,0.000000,0.000000,0.000000,0.000000,0.000000,0.000000,0.000000,,,,,,,,,,,,,,,,,,,,,,,,,,,,,,,,,,,,,,,,,,,,,,,,,,,,,,,,,,,,,,,,,,,,,,,,,,,,,,,,,,,,,,,,,,,,,,,,,,,,,,,,,,,,,,,,,,,,,,,,,,,,,,,,,
1738755584.889213,1738755584.889081,119.000000,0.000000,4325.000000,4349.358887,4254.102539,4302.179688,4352.179688,4361.666504,4364.487305,4551.666504,4538.974121,4564.102539,4496.153809,5667.948730,4313.974121,4256.922852,0.000000,3.000000,74.000000,,,,0.000000,0.000000,0.000000,0.000000,0.000000,0.000000,0.000000,0.000000,0.000000,0.000000,0.000000,0.000000,0.000000,0.000000,0.000000,0.000000,,,,,,,,,,,,,,,,,,,,,,,,,,,,,,,,,,,,,,,,,,,,,,,,,,,,,,,,,,,,,,,,,,,,,,,,,,,,,,,,,,,,,,,,,,,,,,,,,,,,,,,,,,,,,,,,,,,,,,,,,,,,,,,,,
1738755584.897021,1738755584.896989,120.000000,0.000000,4326.153809,4351.794922,4254.102539,4302.307617,4349.102539,4360.897461,4367.179688,4550.512695,4540.512695,4562.820313,4494.102539,5665.769043,4309.358887,4260.128418,0.000000,3.000000,74.000000,,,,0.000000,0.000000,0.000000,0.000000,0.000000,0.000000,0.000000,0.000000,0.000000,0.000000,0.000000,0.000000,0.000000,0.000000,0.000000,0.000000,,,,,,,,,,,,,,,,,30.000000,0.000000,0.784954,-0.616028,-0.061035,0.025146,0.068856,-0.982542,0.227567,4.248506,-15.554080,22.442268,,,,,,,,,,,,,,,,,,,,,,,,,,,,,,,,,,,,,,,,,,,,,,,,,,,,,,,,,,,,,,,,,,,,,,,,,,,,,,,,,,,,,,,,,,,,,,,,,,,,,
1738755584.904829,1738755584.904797,121.000000,0.000000,4323.333496,4348.589844,4255.512695,4302.692383,4350.384766,4360.128418,4369.102539,4552.436035,4541.922852,4561.666504,4494.230957,5665.128418,4308.077148,4260.256348,0.000000,3.000000,74.000000,,,,0.000000,0.000000,0.000000,0.000000,0.000000,0.000000,0.000000,0.000000,0.000000,0.000000,0.000000,0.000000,0.000000,0.000000,0.000000,0.000000,,,,,,,,,,,,,,,,,,,,,,,,,,,,,,,,,,,,,,,,,,,,,,,,,,,,,,,,,,,,,,,,,,,,,,,,,,,,,,,,,,,,,,,,,,,,,,,,,,,,,,,,,,,,,,,,,,,,,,,,,,,,,,,,,
1738755584.912637,1738755584.912705,122.000000,0.000000,4321.025879,4348.846191,4255.769043,4299.102539,4352.948730,4359.102539,4367.692383,4551.410156,4541.025879,4563.461426,4496.410156,5664.102539,4311.666504,4258.717773,0.000000,3.000000,74.000000,,,,0.000000,0.000000,0.000000,0.000000,0.000000,0.000000,0.000000,0.000000,0.000000,0.000000,0.000000,0.000000,0.000000,0.000000,0.000000,0.000000,,,,,,,,,,,,,,,,,,,,,,,,,,,,,,,,,,,,,,,,,,,,,,,,,,,,,,,,,,,,,,,,,,,,,,,,,,,,,,,,,,,,,,,,,,,,,,,,,,,,,,,,,,,,,,,,,,,,,,,,,,,,,,,,,
1738755584.920445,1738755584.920513,123.000000,0.000000,4322.179688,4352.051270,4254.743652,4301.538574,4352.051270,4359.487305,4367.820313,4549.358887,4538.461426,4562.948730,4495.769043,5665.512695,4308.333496,4255.128418,0.000000,3.000000,74.000000,,,,0.000000,0.000000,0.000000,0.000000,0.000000,0.000000,0.000000,0.000000,0.000000,0.000000,0.000000,0.000000,0.000000,0.000000,0.000000,0.000000,,,,,,,,,,,,,,,,,,,,,,,,,,,,,,,,,,,,,,,,,,,,,,,,,,,,,,,,,,,,,,,,,,,,,,,,,,,,,,,,,,,,,,,,,,,,,,,,,,,,,,,,,,,,,,,,,,,,,,,,,,,,,,,,,
1738755584.928254,1738755584.928422,124.000000,0.000000,4322.948730,4351.282227,4254.871582,4301.538574,4351.282227,4360.000000,4366.538574,4550.384766,4540.128418,4562.051270,4496.410156,5666.794922,4312.307617,4252.051270,0.000000,3.000000,74.000000,,,,0.000000,0.000000,0.000000,0.000000,0.000000,0.000000,0.000000,0.000000,0.000000,0.000000,0.000000,0.000000,0.000000,0.000000,0.000000,0.000000,,,,,,,,,,,,,,,,,31.000000,0.000000,0.784954,-0.616028,-0.061035,0.025146,0.063973,-0.973263,0.237334,4.240322,-15.482005,22.481375,,,,,,,,,,,,,,,,,,,,,,,,,,,,,,,,,,,,,,,,,,,,,,,,,,,,,,,,,,,,,,,,,,,,,,,,,,,,,,,,,,,,,,,,,,,,,,,,,,,,,
1738755584.936062,1738755584.936230,125.000000,0.000000,4323.846191,4350.769043,4254.358887,4298.333496,4352.179688,4359.615234,4366.410156,4551.282227,4541.410156,4561.025879,4498.077148,5666.282227,4315.128418,4252.563965,0.000000,3.000000,74.000000,,,,0.000000,0.000000,0.000000,0.000000,0.000000,0.000000,0.000000,0.000000,0.000000,0.000000,0.000000,0.000000,0.000000,0.000000,0.000000,0.000000,,,,,,,,,,,,,,,,,,,,,,,,,,,,,,,,,,,,,,,,,,,,,,,,,,,,,,,,,,,,,,,,,,,,,,,,,,,,,,,,,,,,,,,,,,,,,,,,,,,,,,,,,,,,,,,,,,,,,,,,,,,,,,,,,
1738755584.943870,1738755584.943938,126.000000,0.000000,4325.641113,4348.461426,4252.948730,4302.307617,4352.179688,4360.897461,4368.589844,4552.307617,4538.589844,4558.589844,4496.794922,5667.436035,4308.974121,4256.153809,0.000000,3.000000,74.000000,,,,0.000000,0.000000,0.000000,0.000000,0.000000,0.000000,0.000000,0.000000,0.000000,0.000000,0.000000,0.000000,0.000000,0.000000,0.000000,0.000000,,,,,,,,,,,,,,,,,,,,,,,,,,,,,,,,,,,,,,,,,,,,,,,,,,,,,,,,,,,,0.024928,0.033292,0.019530,0.017640,0.029077,0.012658,0.024512,0.033847,0.026628,0.025893,0.029752,0.022676,0.014631,0.013718,0.018439,0.012301,0.033767,0.040675,0.019158,0.029631,0.021455,0.028434,0.029558,0.015988,0.022736,0.021588,0.024146,0.015920,0.012648,0.023674,0.046073,0.047107,0.023248,0.028988,0.020906,0.027943,0.014471,0.018044,0.024824,0.018627,0.059843,0.016380,0.019961,0.017660,0.024600,0.007028,0.009821,0.009034,0.008547,0.023192,0.037520,0.025890,0.027177,0.032626,0.028670,0.021318,0.045123,0.040798,0.022676,0.028335,0.028751,0.034191,0.044532,0.023314,0.033073,0.027471,0.019898,0.020166,0.029244,0.025900
1738755584.951678,1738755584.951746,127.000000,0.000000,4324.487305,4345.512695,4252.436035,4304.487305,4352.563965,4361.410156,4367.051270,4553.077148,4539.102539,4558.717773,4496.794922,5664.102539,4313.589844,4260.128418,74.000000,3.000000,74.000000,,,,0.000000,0.000000,0.000000,0.000000,0.000000,0.000000,0.000000,0.000000,0.000000,0.000000,0.000000,0.000000,0.000000,0.000000,0.000000,0.000000,,,,,,,,,,,,,,,,,,,,,,,,,,,,,,,,,,,,,,,,,,,,,,,,,,,,,,,,,,,,,,,,,,,,,,,,,,,,,,,,,,,,,,,,,,,,,,,,,,,,,,,,,,,,,,,,,,,,,,,,,,,,,,,,,
1738755584.959486,1738755584.959454,0.000000,0.000000,4323.717773,4347.179688,4251.538574,4302.820313,4353.846191,4360.641113,4365.384766,4551.794922,4541.153809,4559.871582,4498.205078,5663.589844,4314.487305,4257.307617,0.000000,3.000000,74.000000,,,,0.000000,0.000000,0.000000,0.000000,0.000000,0.000000,0.000000,0.000000,0.000000,0.000000,0.000000,0.000000,0.000000,0.000000,0.000000,0.000000,,,,,,,,,,,,,,,,,0.000000,0.000000,0.785001,-0.615967,-0.061096,0.025024,0.060554,-0.972775,0.238310,4.416289,-15.533805,22.416571,,,,,,,,,,,,,,,,,,,,,,,,,,,,,,,,,,,,,,,,,,,,,,,,,,,,,,,,,,,,,,,,,,,,,,,,,,,,,,,,,,,,,,,,,,,,,,,,,,,,,
1738755584.967294,1738755584.967262,1.000000,0.000000,4323.333496,4351.666504,4251.282227,4301.025879,4353.205078,4360.512695,4364.230957,4550.769043,4541.282227,4560.384766,4497.307617,5666.538574,4311.794922,4259.743652,0.000000,3.000000,74.000000,,,,0.000000,0.000000,0.000000,0.000000,0.000000,0.000000,0.000000,0.000000,0.000000,0.000000,0.000000,0.000000,0.000000,0.000000,0.000000,0.000000,,,,,,,,,,,,,,,,,,,,,,,,,,,,,,,,,,,,,,,,,,,,,,,,,,,,,,,,,,,,,,,,,,,,,,,,,,,,,,,,,,,,,,,,,,,,,,,,,,,,,,,,,,,,,,,,,,,,,,,,,,,,,,,,,
1738755584.975102,1738755584.974970,2.000000,0.000000,4320.897461,4352.179688,4253.717773,4301.025879,4351.922852,4360.897461,4365.000000,4554.487305,4539.102539,4561.922852,4496.794922,5665.000000,4314.230957,4263.333496,0.000000,3.000000,74.000000,,,,0.000000,0.000000,0.000000,0.000000,0.000000,0.000000,0.000000,0.000000,0.000000,0.000000,0.000000,0.000000,0.000000,0.000000,0.000000,0.000000,,,,,,,,,,,,,,,,,,,,,,,,,,,,,,,,,,,,,,,,,,,,,,,,,,,,,,,,,,,,,,,,,,,,,,,,,,,,,,,,,,,,,,,,,,,,,,,,,,,,,,,,,,,,,,,,,,,,,,,,,,,,,,,,,
1738755584.982910,1738755584.982778,3.000000,0.000000,4321.153809,4349.102539,4255.641113,4302.179688,4350.641113,4359.615234,4364.615234,4556.922852,4536.153809,4561.538574,4497.436035,5666.282227,4311.538574,4258.077148,0.000000,3.000000,74.000000,,,,0.000000,0.000000,0.000000,0.000000,0.000000,0.000000,0.000000,0.000000,0.000000,0.000000,0.000000,0.000000,0.000000,0.000000,0.000000,0.000000,,,,,,,,,,,,,,,,,,,,,,,,,,,,,,,,,,,,,,,,,,,,,,,,,,,,,,,,,,,,,,,,,,,,,,,,,,,,,,,,,,,,,,,,,,,,,,,,,,,,,,,,,,,,,,,,,,,,,,,,,,,,,,,,,
1738755584.990718,1738755584.990486,4.000000,0.000000,4321.666504,4349.358887,4254.102539,4301.153809,4351.538574,4359.871582,4361.922852,4551.410156,4537.179688,4560.512695,4495.769043,5668.461426,4313.077148,4258.077148,0.000000,3.000000,74.000000,,,,0.000000,0.000000,0.000000,0.000000,0.000000,0.000000,0.000000,0.000000,0.000000,0.000000,0.000000,0.000000,0.000000,0.000000,0.000000,0.000000,,,,,,,,,,,,,,,,,1.000000,0.000000,0.785043,-0.615906,-0.061096,0.025208,0.050299,-0.969357,0.239287,4.424661,-15.513758,22.508245,,,,,,,,,,,,,,,,,,,,,,,,,,,,,,,,,,,,,,,,,,,,,,,,,,,,,,,,,,,,,,,,,,,,,,,,,,,,,,,,,,,,,,,,,,,,,,,,,,,,,
1738755584.998526,1738755584.998294,5.000000,0.000000,4321.666504,4350.128418,4253.205078,4301.282227,4352.179688,4360.641113,4364.230957,4549.230957,4539.358887,4560.000000,4495.000000,5667.820313,4313.461426,4257.820313,0.000000,3.000000,74.000000,,,,0.000000,0.000000,0.000000,0.000000,0.000000,0.000000,0.000000,0.000000,0.000000,0.000000,0.000000,0.000000,0.000000,0.000000,0.000000,0.000000,,,,,,,,,,,,,,,,,,,,,,,,,,,,,,,,,,,,,,,,,,,,,,,,,,,,,,,,,,,,,,,,,,,,,,,,,,,,,,,,,,,,,,,,,,,,,,,,,,,,,,,,,,,,,,,,,,,,,,,,,,,,,,,,,
1738755585.006334,1738755585.006002,6.000000,0.000000,4322.307617,4349.358887,4253.589844,4302.948730,4349.871582,4360.769043,4363.717773,4550.769043,4538.205078,4558.974121,4496.153809,5663.333496,4311.538574,4254.487305,0.000000,3.000000,74.000000,,,,0.000000,0.000000,0.000000,0.000000,0.000000,0.000000,0.000000,0.000000,0.000000,0.000000,0.000000,0.000000,0.000000,0.000000,0.000000,0.000000,,,,,,,,,,,,,,,,,,,,,,,,,,,,,,,,,,,,,,,,,,,,,,,,,,,,,,,,,,,,,,,,,,,,,,,,,,,,,,,,,,,,,,,,,,,,,,,,,,,,,,,,,,,,,,,,,,,,,,,,,,,,,,,,,
1738755585.014143,1738755585.013810,7.000000,0.000000,4320.769043,4349.615234,4253.717773,4302.436035,4349.358887,4363.333496,4360.512695,4547.692383,4538.205078,4559.230957,4497.051270,5662.051270,4313.974121,4257.051270,0.000000,3.000000,74.000000,,,,0.000000,0.000000,0.000000,0.000000,0.000000,0.000000,0.000000,0.000000,0.000000,0.000000,0.000000,0.000000,0.000000,0.000000,0.000000,0.000000,,,,,,,,,,,,,,,,,,,,,,,,,,,,,,,,,,,,,,,,,,,,,,,,,,,,,,,,,,,,,,,,,,,,,,,,,,,,,,,,,,,,,,,,,,,,,,,,,,,,,,,,,,,,,,,,,,,,,,,,,,,,,,,,,
1738755585.021951,1738755585.021519,8.000000,0.000000,4319.743652,4348.846191,4255.769043,4302.307617,4351.410156,4362.820313,4364.487305,4548.077148,4540.512695,4561.025879,4496.282227,5664.487305,4312.563965,4257.692383,0.000000,3.000000,74.000000,,,,0.000000,0.000000,0.000000,0.000000,0.000000,0.000000,0.000000,0.000000,0.000000,0.000000,0.000000,0.000000,0.000000,0.000000,0.000000,0.000000,,,,,,,,,,,,,,,,,2.000000,0.000000,0.784998,-0.615967,-0.061035,0.025269,0.054206,-0.974240,0.237822,4.565528,-15.579048,22.457422,,,,,,,,,,,,,,,,,,,,,,,,,,,,,,,,,,,,,,,,,,,,,,,,,,,,,,,,,,,,,,,,,,,,,,,,,,,,,,,,,,,,,,,,,,,,,,,,,,,,,
1738755585.029759,1738755585.029427,9.000000,0.000000,4320.384766,4349.743652,4256.922852,4301.922852,4352.436035,4358.461426,4368.974121,4549.743652,4540.897461,4561.794922,4495.384766,5661.794922,4313.461426,4257.436035,0.000000,3.000000,74.000000,,,,0.000000,0.000000,0.000000,0.000000,0.000000,0.000000,0.000000,0.000000,0.000000,0.000000,0.000000,0.000000,0.000000,0.000000,0.000000,0.000000,,,,,,,,,,,,,,,,,,,,,,,,,,,,,,,,,,,,,,,,,,,,,,,,,,,,,,,,,,,,,,,,,,,,,,,,,,,,,,,,,,,,,,,,,,,,,,,,,,,,,,,,,,,,,,,,,,,,,,,,,,,,,,,,,
1738755585.037567,1738755585.037235,10.000000,0.000000,4323.205078,4352.179688,4255.256348,4299.871582,4352.051270,4358.717773,4368.333496,4550.000000,4537.820313,4560.769043,4496.922852,5663.333496,4312.051270,4257.179688,0.000000,3.000000,74.000000,,,,0.000000,0.000000,0.000000,0.000000,0.000000,0.000000,0.000000,0.000000,0.000000,0.000000,0.000000,0.000000,0.000000,0.000000,0.000000,0.000000,,,,,,,,,,,,,,,,,,,,,,,,,,,,,,,,,,,,,,,,,,,,,,,,,,,,,,,,,,,,,,,,,,,,,,,,,,,,,,,,,,,,,,,,,,,,,,,,,,,,,,,,,,,,,,,,,,,,,,,,,,,,,,,,,
1738755585.045375,1738755585.045143,11.000000,0.000000,4324.615234,4351.410156,4256.025879,4300.128418,4353.205078,4363.333496,4365.256348,4550.000000,4536.153809,4558.589844,4497.307617,5664.871582,4307.692383,4256.025879,0.000000,3.000000,74.000000,,,,0.000000,0.000000,0.000000,0.000000,0.000000,0.000000,0.000000,0.000000,0.000000,0.000000,0.000000,0.000000,0.000000,0.000000,0.000000,0.000000,,,,,,,,,,,,,,,,,,,,,,,,,,,,,,,,,,,,,,,,,,,,,,,,,,,,,,,,,,,,,,,,,,,,,,,,,,,,,,,,,,,,,,,,,,,,,,,,,,,,,,,,,,,,,,,,,,,,,,,,,,,,,,,,,
1738755585.053183,1738755585.052951,12.000000,0.000000,4323.333496,4349.615234,4255.769043,4302.692383,4355.769043,4362.179688,4366.794922,4548.461426,4538.333496,4557.820313,4496.282227,5662.948730,4310.641113,4256.794922,0.000000,3.000000,74.000000,,,,0.000000,0.000000,0.000000,0.000000,0.000000,0.000000,0.000000,0.000000,0.000000,0.000000,0.000000,0.000000,0.000000,0.000000,0.000000,0.000000,,,,,,,,,,,,,,,,,3.000000,0.000000,0.785049,-0.615906,-0.061035,0.025146,0.063973,-0.977658,0.228544,4.525642,-15.504477,22.495012,,,,,,,,,,,,,,,,,,,,,,,,,,,,,,,,,,,,,,,,,,,,,,,,,,,,,,,,,,,,,,,,,,,,,,,,,,,,,,,,,,,,,,,,,,,,,,,,,,,,,
1738755585.060991,1738755585.060859,13.000000,0.000000,4321.666504,4349.102539,4250.897461,4303.333496,4354.615234,4357.948730,4371.153809,4550.769043,4540.000000,4558.077148,4495.897461,5666.922852,4309.230957,4254.487305,0.000000,3.000000,74.000000,,,,0.000000,0.000000,0.000000,0.000000,0.000000,0.000000,0.000000,0.000000,0.000000,0.000000,0.000000,0.000000,0.000000,0.000000,0.000000,0.000000,,,,,,,,,,,,,,,,,,,,,,,,,,,,,,,,,,,,,,,,,,,,,,,,,,,,,,,,,,,,,,,,,,,,,,,,,,,,,,,,,,,,,,,,,,,,,,,,,,,,,,,,,,,,,,,,,,,,,,,,,,,,,,,,,
1738755585.068799,1738755585.068667,14.000000,0.000000,4321.282227,4349.102539,4251.282227,4300.897461,4352.051270,4358.461426,4367.051270,4549.871582,4541.538574,4559.487305,4496.025879,5664.871582,4307.436035,4255.641113,0.000000,3.000000,74.000000,,,,0.000000,0.000000,0.000000,0.000000,0.000000,0.000000,0.000000,0.000000,0.000000,0.000000,0.000000,0.000000,0.000000,0.000000,0.000000,0.000000,,,,,,,,,,,,,,,,,,,,,,,,,,,,,,,,,,,,,,,,,,,,,,,,,,,,,,,,,,,,0.023009,0.031271,0.028082,0.017528,0.028825,0.010350,0.022264,0.033541,0.026862,0.026320,0.029476,0.030151,0.014287,0.014082,0.017820,0.015407,0.034446,0.045391,0.022281,0.031526,0.020768,0.024557,0.025430,0.014927,0.020830,0.024097,0.024239,0.016084,0.012213,0.023954,0.050053,0.049959,0.027892,0.032587,0.021773,0.033550,0.017731,0.020056,0.023713,0.018055,0.056193,0.014720,0.018022,0.017695,0.025211,0.007615,0.010317,0.010254,0.008886,0.020263,0.033902,0.026815,0.029153,0.035952,0.029779,0.020532,0.051638,0.035951,0.021899,0.027511,0.024536,0.034531,0.039670,0.024209,0.037139,0.029916,0.019114,0.020562,0.027147,0.025402
1738755585.076607,1738755585.076576,15.000000,0.000000,4322.051270,4350.641113,4257.307617,4301.153809,4353.461426,4361.025879,4362.436035,4546.794922,4540.000000,4561.153809,4497.307617,5659.615234,4310.897461,4257.948730,0.000000,3.000000,74.000000,,,,0.000000,0.000000,0.000000,0.000000,0.000000,0.000000,0.000000,0.000000,0.000000,0.000000,0.000000,0.000000,0.000000,0.000000,0.000000,0.000000,,,,,,,,,,,,,,,,,,,,,,,,,,,,,,,,,,,,,,,,,,,,,,,,,,,,,,,,,,,,,,,,,,,,,,,,,,,,,,,,,,,,,,,,,,,,,,,,,,,,,,,,,,,,,,,,,,,,,,,,,,,,,,,,,
1738755585.084416,1738755585.084384,16.000000,0.000000,4322.820313,4352.948730,4255.384766,4303.333496,4354.358887,4361.153809,4367.051270,4550.000000,4537.948730,4560.897461,4497.948730,5663.846191,4311.794922,4256.282227,0.000000,3.000000,74.000000,,,,0.000000,0.000000,0.000000,0.000000,0.000000,0.000000,0.000000,0.000000,0.000000,0.000000,0.000000,0.000000,0.000000,0.000000,0.000000,0.000000,,,,,,,,,,,,,,,,,4.000000,0.000000,0.785054,-0.615906,-0.060974,0.025146,0.061531,-0.963008,0.233915,4.439744,-15.437363,22.445511,,,,,,,,,,,,,,,,,,,,,,,,,,,,,,,,,,,,,,,,,,,,,,,,,,,,,,,,,,,,,,,,,,,,,,,,,,,,,,,,,,,,,,,,,,,,,,,,,,,,,
1738755585.092224,1738755585.092292,17.000000,0.000000,4321.153809,4351.282227,4252.436035,4303.974121,4350.641113,4359.743652,4366.538574,4551.794922,4540.897461,4560.512695,4497.692383,5666.025879,4312.051270,4257.820313,0.000000,3.000000,74.000000,,,,0.000000,0.000000,0.000000,0.000000,0.000000,0.000000,0.000000,0.000000,0.000000,0.000000,0.000000,0.000000,0.000000,0.000000,0.000000,0.000000,,,,,,,,,,,,,,,,,,,,,,,,,,,,,,,,,,,,,,,,,,,,,,,,,,,,,,,,,,,,,,,,,,,,,,,,,,,,,,,,,,,,,,,,,,,,,,,,,,,,,,,,,,,,,,,,,,,,,,,,,,,,,,,,,
1738755585.100032,1738755585.100100,18.000000,0.000000,4319.358887,4347.436035,4254.743652,4305.769043,4350.897461,4360.000000,4363.077148,4551.794922,4541.922852,4559.358887,4497.692383,5665.769043,4310.000000,4257.436035,0.000000,3.000000,74.000000,,,,0.000000,0.000000,0.000000,0.000000,0.000000,0.000000,0.000000,0.000000,0.000000,0.000000,0.000000,0.000000,0.000000,0.000000,0.000000,0.000000,,,,,,,,,,,,,,,,,,,,,,,,,,,,,,,,,,,,,,,,,,,,,,,,,,,,,,,,,,,,,,,,,,,,,,,,,,,,,,,,,,,,,,,,,,,,,,,,,,,,,,,,,,,,,,,,,,,,,,,,,,,,,,,,,
1738755585.107840,1738755585.108008,19.000000,0.000000,4322.820313,4350.641113,4253.461426,4304.102539,4355.128418,4360.512695,4366.025879,4552.563965,4542.179688,4556.922852,4495.384766,5665.512695,4312.692383,4256.025879,0.000000,3.000000,74.000000,,,,0.000000,0.000000,0.000000,0.000000,0.000000,0.000000,0.000000,0.000000,0.000000,0.000000,0.000000,0.000000,0.000000,0.000000,0.000000,0.000000,,,,,,,,,,,,,,,,,,,,,,,,,,,,,,,,,,,,,,,,,,,,,,,,,,,,,,,,,,,,,,,,,,,,,,,,,,,,,,,,,,,,,,,,,,,,,,,,,,,,,,,,,,,,,,,,,,,,,,,,,,,,,,,,,
1738755585.115648,1738755585.115816,20.000000,0.000000,4325.128418,4352.948730,4252.307617,4301.538574,4354.615234,4360.256348,4368.205078,4552.948730,4541.025879,4557.179688,4493.461426,5661.666504,4311.025879,4257.051270,0.000000,3.000000,74.000000,,,,0.000000,0.000000,0.000000,0.000000,0.000000,0.000000,0.000000,0.000000,0.000000,0.000000,0.000000,0.000000,0.000000,0.000000,0.000000,0.000000,,,,,,,,,,,,,,,,,5.000000,0.000000,0.784997,-0.615967,-0.061096,0.025146,0.055183,-0.971798,0.234892,4.495770,-15.376960,22.234293,,,,,,,,,,,,,,,,,,,,,,,,,,,,,,,,,,,,,,,,,,,,,,,,,,,,,,,,,,,,,,,,,,,,,,,,,,,,,,,,,,,,,,,,,,,,,,,,,,,,,
1738755585.123456,1738755585.123525,21.000000,0.000000,4320.897461,4347.436035,4255.384766,4303.333496,4353.077148,4361.025879,4366.410156,4552.692383,4538.333496,4559.230957,4496.025879,5661.153809,4306.153809,4255.128418,0.000000,3.000000,74.000000,,,,0.000000,0.000000,0.000000,0.000000,0.000000,0.000000,0.000000,0.000000,0.000000,0.000000,0.000000,0.000000,0.000000,0.000000,0.000000,0.000000,,,,,,,,,,,,,,,,,,,,,,,,,,,,,,,,,,,,,,,,,,,,,,,,,,,,,,,,,,,,,,,,,,,,,,,,,,,,,,,,,,,,,,,,,,,,,,,,,,,,,,,,,,,,,,,,,,,,,,,,,,,,,,,,,
1738755585.131264,1738755585.131333,22.000000,0.000000,4321.794922,4346.538574,4257.051270,4303.077148,4353.077148,4361.922852,4366.666504,4552.436035,4539.743652,4560.897461,4497.948730,5663.333496,4313.205078,4254.102539,0.000000,3.000000,74.000000,,,,0.000000,0.000000,0.000000,0.000000,0.000000,0.000000,0.000000,0.000000,0.000000,0.000000,0.000000,0.000000,0.000000,0.000000,0.000000,0.000000,,,,,,,,,,,,,,,,,,,,,,,,,,,,,,,,,,,,,,,,,,,,,,,,,,,,,,,,,,,,,,,,,,,,,,,,,,,,,,,,,,,,,,,,,,,,,,,,,,,,,,,,,,,,,,,,,,,,,,,,,,,,,,,,,
1738755585.139072,1738755585.139041,23.000000,0.000000,4327.436035,4349.487305,4254.743652,4301.794922,4351.538574,4360.769043,4365.897461,4553.333496,4539.230957,4560.512695,4496.282227,5666.922852,4312.820313,4255.897461,0.000000,3.000000,74.000000,,,,0.000000,0.000000,0.000000,0.000000,0.000000,0.000000,0.000000,0.000000,0.000000,0.000000,0.000000,0.000000,0.000000,0.000000,0.000000,0.000000,,,,,,,,,,,,,,,,,,,,,,,,,,,,,,,,,,,,,,,,,,,,,,,,,,,,,,,,,,,,,,,,,,,,,,,,,,,,,,,,,,,,,,,,,,,,,,,,,,,,,,,,,,,,,,,,,,,,,,,,,,,,,,,,,
1738755585.146880,1738755585.146849,24.000000,0.000000,4325.512695,4349.487305,4253.205078,4303.846191,4351.922852,4359.743652,4363.589844,4551.922852,4537.179688,4559.102539,4495.512695,5666.025879,4307.948730,4257.563965,0.000000,3.000000,74.000000,,,,0.000000,0.000000,0.000000,0.000000,0.000000,0.000000,0.000000,0.000000,0.000000,0.000000,0.000000,0.000000,0.000000,0.000000,0.000000,0.000000,,,,,,,,,,,,,,,,,6.000000,0.000000,0.784947,-0.616028,-0.061096,0.025208,0.049811,-0.978635,0.237822,4.262859,-15.355930,22.227531,,,,,,,,,,,,,,,,,,,,,,,,,,,,,,,,,,,,,,,,,,,,,,,,,,,,,,,,,,,,,,,,,,,,,,,,,,,,,,,,,,,,,,,,,,,,,,,,,,,,,
1738755585.154688,1738755585.154557,25.000000,0.000000,4322.307617,4348.717773,4253.589844,4305.256348,4355.000000,4358.846191,4366.153809,4550.641113,4540.897461,4559.871582,4494.743652,5661.282227,4311.538574,4256.666504,0.000000,3.000000,74.000000,,,,0.000000,0.000000,0.000000,0.000000,0.000000,0.000000,0.000000,0.000000,0.000000,0.000000,0.000000,0.000000,0.000000,0.000000,0.000000,0.000000,,,,,,,,,,,,,,,,,,,,,,,,,,,,,,,,,,,,,,,,,,,,,,,,,,,,,,,,,,,,,,,,,,,,,,,,,,,,,,,,,,,,,,,,,,,,,,,,,,,,,,,,,,,,,,,,,,,,,,,,,,,,,,,,,
1738755585.162496,1738755585.162365,26.000000,0.000000,4323.333496,4349.358887,4253.846191,4304.102539,4354.230957,4358.589844,4367.563965,4551.153809,4542.307617,4561.025879,4494.615234,5663.717773,4309.615234,4255.641113,0.000000,3.000000,74.000000,,,,0.000000,0.000000,0.000000,0.000000,0.000000,0.000000,0.000000,0.000000,0.000000,0.000000,0.000000,0.000000,0.000000,0.000000,0.000000,0.000000,,,,,,,,,,,,,,,,,,,,,,,,,,,,,,,,,,,,,,,,,,,,,,,,,,,,,,,,,,,,,,,,,,,,,,,,,,,,,,,,,,,,,,,,,,,,,,,,,,,,,,,,,,,,,,,,,,,,,,,,,,,,,,,,,
1738755585.170305,1738755585.170073,27.000000,0.000000,4321.922852,4349.743652,4255.384766,4301.666504,4351.025879,4361.153809,4361.922852,4548.846191,4540.512695,4560.000000,4497.820313,5664.487305,4307.820313,4258.846191,0.000000,3.000000,74.000000,,,,0.000000,0.000000,0.000000,0.000000,0.000000,0.000000,0.000000,0.000000,0.000000,0.000000,0.000000,0.000000,0.000000,0.000000,0.000000,0.000000,,,,,,,,,,,,,,,,,,,,,,,,,,,,,,,,,,,,,,,,,,,,,,,,,,,,,,,,,,,,,,,,,,,,,,,,,,,,,,,,,,,,,,,,,,,,,,,,,,,,,,,,,,,,,,,,,,,,,,,,,,,,,,,,,
1738755585.178113,1738755585.177981,28.000000,0.000000,4321.922852,4347.948730,4257.436035,4302.820313,4352.563965,4361.666504,4363.333496,4549.615234,4541.538574,4558.461426,4494.487305,5661.794922,4307.051270,4257.563965,0.000000,3.000000,74.000000,,,,0.000000,0.000000,0.000000,0.000000,0.000000,0.000000,0.000000,0.000000,0.000000,0.000000,0.000000,0.000000,0.000000,0.000000,0.000000,0.000000,,,,,,,,,,,,,,,,,7.000000,0.000000,0.784950,-0.616028,-0.061035,0.025269,0.057136,-0.980100,0.237334,4.319907,-15.470337,22.271444,,,,,,,,,,,,,,,,,,,,,,,,,,,,,,,,,,,,,,,,,,,,,,,,,,,,,,,,,,,,,,,,,,,,,,,,,,,,,,,,,,,,,,,,,,,,,,,,,,,,,
1738755585.185921,1738755585.185789,29.000000,0.000000,4321.538574,4348.205078,4256.410156,4303.974121,4353.077148,4358.333496,4366.666504,4551.282227,4540.897461,4559.871582,4491.794922,5660.897461,4306.794922,4252.179688,0.000000,3.000000,74.000000,,,,0.000000,0.000000,0.000000,0.000000,0.000000,0.000000,0.000000,0.000000,0.000000,0.000000,0.000000,0.000000,0.000000,0.000000,0.000000,0.000000,,,,,,,,,,,,,,,,,,,,,,,,,,,,,,,,,,,,,,,,,,,,,,,,,,,,,,,,,,,,,,,,,,,,,,,,,,,,,,,,,,,,,,,,,,,,,,,,,,,,,,,,,,,,,,,,,,,,,,,,,,,,,,,,,
1738755585.193729,1738755585.193698,30.000000,0.000000,4318.333496,4349.358887,4253.717773,4299.743652,4350.769043,4356.922852,4362.436035,4547.820313,4540.897461,4561.410156,4496.153809,5660.000000,4310.128418,4252.179688,0.000000,3.000000,74.000000,,,,0.000000,0.000000,0.000000,0.000000,0.000000,0.000000,0.000000,0.000000,0.000000,0.000000,0.000000,0.000000,0.000000,0.000000,0.000000,0.000000,1.000000,0.000000,0.000000,0.000000,0.000000,0.000000,0.000000,0.000000,0.000000,0.000000,0.000000,0.000000,0.000000,0.000000,0.000000,0.000000,,,,,,,,,,,,,,,,,,,,,,,,,,,,,,,,,,,,,,,,,,,,0.022473,0.034032,0.037810,0.018628,0.028231,0.009514,0.020590,0.031036,0.026698,0.026194,0.028816,0.038246,0.014194,0.014675,0.018745,0.019167,0.033030,0.046453,0.024914,0.033050,0.020071,0.019833,0.023191,0.014045,0.019178,0.028281,0.022686,0.016599,0.013320,0.024671,0.052836,0.050518,0.030866,0.036712,0.023266,0.036393,0.021209,0.020871,0.022646,0.018362,0.049059,0.014195,0.016924,0.017314,0.027423,0.008940,0.011670,0.012048,0.010469,0.018326,0.029052,0.027150,0.030873,0.036621,0.030653,0.019547,0.056452,0.030541,0.022607,0.027938,0.020157,0.034552,0.036833,0.025828,0.040734,0.033914,0.018822,0.022132,0.024964,0.024601
1738755585.201537,1738755585.201506,31.000000,0.000000,4321.922852,4348.461426,4255.256348,4299.615234,4352.948730,4359.615234,4363.717773,4549.487305,4540.512695,4559.487305,4495.384766,5661.794922,4307.692383,4251.922852,0.000000,3.000000,74.000000,,,,0.000000,0.000000,0.000000,0.000000,0.000000,0.000000,0.000000,0.000000,0.000000,0.000000,0.000000,0.000000,0.000000,0.000000,0.000000,0.000000,,,,,,,,,,,,,,,,,,,,,,,,,,,,,,,,,,,,,,,,,,,,,,,,,,,,,,,,,,,,,,,,,,,,,,,,,,,,,,,,,,,,,,,,,,,,,,,,,,,,,,,,,,,,,,,,,,,,,,,,,,,,,,,,,
1738755585.209345,1738755585.209314,32.000000,0.000000,4323.974121,4348.846191,4257.436035,4301.410156,4354.743652,4360.384766,4366.025879,4552.307617,4539.102539,4557.820313,4494.487305,5660.000000,4307.948730,4251.922852,0.000000,3.000000,74.000000,,,,0.000000,0.000000,0.000000,0.000000,0.000000,0.000000,0.000000,0.000000,0.000000,0.000000,0.000000,0.000000,0.000000,0.000000,0.000000,0.000000,,,,,,,,,,,,,,,,,8.000000,0.000000,0.784946,-0.616028,-0.061035,0.025391,0.060066,-0.975217,0.235869,4.371250,-15.389970,22.177633,,,,,,,,,,,,,,,,,,,,,,,,,,,,,,,,,,,,,,,,,,,,,,,,,,,,,,,,,,,,,,,,,,,,,,,,,,,,,,,,,,,,,,,,,,,,,,,,,,,,,
1738755585.217153,1738755585.217022,33.000000,0.000000,4321.282227,4348.717773,4255.512695,4301.538574,4352.051270,4359.102539,4366.282227,4551.666504,4540.128418,4558.589844,4495.641113,5659.615234,4310.000000,4253.205078,0.000000,3.000000,74.000000,,,,0.000000,0.000000,0.000000,0.000000,0.000000,0.000000,0.000000,0.000000,0.000000,0.000000,0.000000,0.000000,0.000000,0.000000,0.000000,0.000000,,,,,,,,,,,,,,,,,,,,,,,,,,,,,,,,,,,,,,,,,,,,,,,,,,,,,,,,,,,,,,,,,,,,,,,,,,,,,,,,,,,,,,,,,,,,,,,,,,,,,,,,,,,,,,,,,,,,,,,,,,,,,,,,,
1738755585.224961,1738755585.224830,34.000000,0.000000,4324.358887,4347.563965,4252.307617,4303.589844,4351.282227,4360.512695,4367.051270,4550.769043,4541.282227,4559.358887,4493.717773,5664.358887,4306.922852,4253.846191,0.000000,3.000000,74.000000,,,,0.000000,0.000000,0.000000,0.000000,0.000000,0.000000,0.000000,0.000000,0.000000,0.000000,0.000000,0.000000,0.000000,0.000000,0.000000,0.000000,,,,,,,,,,,,,,,,,,,,,,,,,,,,,,,,,,,,,,,,,,,,,,,,,,,,,,,,,,,,,,,,,,,,,,,,,,,,,,,,,,,,,,,,,,,,,,,,,,,,,,,,,,,,,,,,,,,,,,,,,,,,,,,,,
1738755585.232769,1738755585.232538,35.000000,0.000000,4325.512695,4347.820313,4251.282227,4303.846191,4351.410156,4360.769043,4362.563965,4550.384766,4539.615234,4558.717773,4493.205078,5666.025879,4308.205078,4255.641113,0.000000,3.000000,74.000000,,,,0.000000,0.000000,0.000000,0.000000,0.000000,0.000000,0.000000,0.000000,0.000000,0.000000,0.000000,0.000000,0.000000,0.000000,0.000000,0.000000,,,,,,,,,,,,,,,,,,,,,,,,,,,,,,,,,,,,,,,,,,,,,,,,,,,,,,,,,,,,,,,,,,,,,,,,,,,,,,,,,,,,,,,,,,,,,,,,,,,,,,,,,,,,,,,,,,,,,,,,,,,,,,,,,
1738755585.240578,1738755585.240446,36.000000,0.000000,4320.897461,4347.692383,4252.948730,4303.205078,4348.974121,4359.487305,4361.922852,4552.179688,4540.128418,4558.333496,4493.205078,5667.179688,4307.051270,4254.102539,0.000000,3.000000,74.000000,,,,0.000000,0.000000,0.000000,0.000000,0.000000,0.000000,0.000000,0.000000,0.000000,0.000000,0.000000,0.000000,0.000000,0.000000,0.000000,0.000000,,,,,,,,,,,,,,,,,9.000000,0.000000,0.784946,-0.616028,-0.061035,0.025391,0.060554,-0.976193,0.231962,4.367458,-15.367640,22.309870,,,,,,,,,,,,,,,,,,,,,,,,,,,,,,,,,,,,,,,,,,,,,,,,,,,,,,,,,,,,,,,,,,,,,,,,,,,,,,,,,,,,,,,,,,,,,,,,,,,,,
1738755585.248386,1738755585.248254,37.000000,0.000000,4319.102539,4348.077148,4255.897461,4300.256348,4349.358887,4360.641113,4364.102539,4552.436035,4543.974121,4559.871582,4495.897461,5664.743652,4307.307617,4255.512695,0.000000,3.000000,74.000000,,,,0.000000,0.000000,0.000000,0.000000,0.000000,0.000000,0.000000,0.000000,0.000000,0.000000,0.000000,0.000000,0.000000,0.000000,0.000000,0.000000,,,,,,,,,,,,,,,,,,,,,,,,,,,,,,,,,,,,,,,,,,,,,,,,,,,,,,,,,,,,,,,,,,,,,,,,,,,,,,,,,,,,,,,,,,,,,,,,,,,,,,,,,,,,,,,,,,,,,,,,,,,,,,,,,
1738755585.256194,1738755585.256162,38.000000,0.000000,4322.179688,4348.461426,4255.384766,4299.743652,4351.794922,4361.922852,4364.871582,4552.051270,4542.948730,4561.025879,4497.307617,5661.282227,4311.153809,4258.846191,0.000000,3.000000,74.000000,,,,0.000000,0.000000,0.000000,0.000000,0.000000,0.000000,0.000000,0.000000,0.000000,0.000000,0.000000,0.000000,0.000000,0.000000,0.000000,0.000000,,,,,,,,,,,,,,,,,,,,,,,,,,,,,,,,,,,,,,,,,,,,,,,,,,,,,,,,,,,,,,,,,,,,,,,,,,,,,,,,,,,,,,,,,,,,,,,,,,,,,,,,,,,,,,,,,,,,,,,,,,,,,,,,,
1738755585.264002,1738755585.263971,39.000000,0.000000,4325.000000,4349.358887,4253.589844,4302.948730,4351.922852,4359.871582,4367.436035,4553.589844,4537.820313,4561.282227,4495.769043,5663.333496,4309.615234,4255.512695,0.000000,3.000000,74.000000,,,,0.000000,0.000000,0.000000,0.000000,0.000000,0.000000,0.000000,0.000000,0.000000,0.000000,0.000000,0.000000,0.000000,0.000000,0.000000,0.000000,,,,,,,,,,,,,,,,,,,,,,,,,,,,,,,,,,,,,,,,,,,,,,,,,,,,,,,,,,,,,,,,,,,,,,,,,,,,,,,,,,,,,,,,,,,,,,,,,,,,,,,,,,,,,,,,,,,,,,,,,,,,,,,,,
1738755585.271810,1738755585.271879,40.000000,0.000000,4323.077148,4351.666504,4256.025879,4303.205078,4353.205078,4359.871582,4367.051270,4552.820313,4539.743652,4560.128418,4496.410156,5663.205078,4310.384766,4252.820313,0.000000,3.000000,74.000000,,,,0.000000,0.000000,0.000000,0.000000,0.000000,0.000000,0.000000,0.000000,0.000000,0.000000,0.000000,0.000000,0.000000,0.000000,0.000000,0.000000,,,,,,,,,,,,,,,,,10.000000,0.000000,0.784943,-0.616028,-0.061096,0.025330,0.073739,-0.971310,0.233915,4.380712,-15.314209,22.362217,,,,,,,,,,,,,,,,,,,,,,,,,,,,,,,,,,,,,,,,,,,,,,,,,,,,,,,,,,,,,,,,,,,,,,,,,,,,,,,,,,,,,,,,,,,,,,,,,,,,,
1738755585.279618,1738755585.279687,41.000000,0.000000,4318.333496,4349.487305,4257.436035,4303.974121,4353.461426,4361.282227,4365.256348,4550.897461,4541.282227,4559.615234,4496.282227,5662.179688,4307.179688,4253.205078,0.000000,3.000000,74.000000,,,,0.000000,0.000000,0.000000,0.000000,0.000000,0.000000,0.000000,0.000000,0.000000,0.000000,0.000000,0.000000,0.000000,0.000000,0.000000,0.000000,,,,,,,,,,,,,,,,,,,,,,,,,,,,,,,,,,,,,,,,,,,,,,,,,,,,,,,,,,,,,,,,,,,,,,,,,,,,,,,,,,,,,,,,,,,,,,,,,,,,,,,,,,,,,,,,,,,,,,,,,,,,,,,,,
1738755585.287426,1738755585.287595,42.000000,0.000000,4317.820313,4347.563965,4254.615234,4301.794922,4351.922852,4358.717773,4365.897461,4550.897461,4538.589844,4562.051270,4495.000000,5661.538574,4309.615234,4255.769043,0.000000,3.000000,74.000000,,,,0.000000,0.000000,0.000000,0.000000,0.000000,0.000000,0.000000,0.000000,0.000000,0.000000,0.000000,0.000000,0.000000,0.000000,0.000000,0.000000,,,,,,,,,,,,,,,,,,,,,,,,,,,,,,,,,,,,,,,,,,,,,,,,,,,,,,,,,,,,,,,,,,,,,,,,,,,,,,,,,,,,,,,,,,,,,,,,,,,,,,,,,,,,,,,,,,,,,,,,,,,,,,,,,
1738755585.295234,1738755585.295403,43.000000,0.000000,4322.948730,4349.487305,4253.205078,4300.384766,4351.538574,4359.102539,4366.922852,4551.410156,4537.948730,4562.179688,4494.615234,5661.538574,4316.282227,4256.922852,0.000000,3.000000,74.000000,,,,0.000000,0.000000,0.000000,0.000000,0.000000,0.000000,0.000000,0.000000,0.000000,0.000000,0.000000,0.000000,0.000000,0.000000,0.000000,0.000000,,,,,,,,,,,,,,,,,,,,,,,,,,,,,,,,,,,,,,,,,,,,,,,,,,,,,,,,,,,,,,,,,,,,,,,,,,,,,,,,,,,,,,,,,,,,,,,,,,,,,,,,,,,,,,,,,,,,,,,,,,,,,,,,,
1738755585.303042,1738755585.303311,44.000000,0.000000,4326.666504,4348.333496,4254.487305,4304.743652,4352.948730,4361.538574,4367.051270,4550.384766,4539.487305,4560.512695,4494.487305,5663.333496,4311.153809,4255.000000,0.000000,3.000000,74.000000,,,,0.000000,0.000000,0.000000,0.000000,0.000000,0.000000,0.000000,0.000000,0.000000,0.000000,0.000000,0.000000,0.000000,0.000000,0.000000,0.000000,,,,,,,,,,,,,,,,,11.000000,0.000000,0.784940,-0.616028,-0.061157,0.025269,0.065438,-0.973752,0.243194,4.359308,-15.316122,22.459328,,,,,,,,,,,,,,,,,,,,,,,,,,,,,,,,,,,,,,,,,,,,,,,,,,,,,,,,,,,,,,,,,,,,,,,,,,,,,,,,,,,,,,,,,,,,,,,,,,,,,
1738755585.310851,1738755585.311220,45.000000,0.000000,4323.846191,4347.692383,4253.205078,4304.487305,4353.205078,4360.256348,4364.230957,4549.743652,4542.051270,4561.282227,4494.743652,5660.769043,4309.615234,4256.794922,0.000000,3.000000,74.000000,,,,0.000000,0.000000,0.000000,0.000000,0.000000,0.000000,0.000000,0.000000,0.000000,0.000000,0.000000,0.000000,0.000000,0.000000,0.000000,0.000000,,,,,,,,,,,,,,,,,,,,,,,,,,,,,,,,,,,,,,,,,,,,,,,,,,,,,,,,,,,,,,,,,,,,,,,,,,,,,,,,,,,,,,,,,,,,,,,,,,,,,,,,,,,,,,,,,,,,,,,,,,,,,,,,,
1738755585.318658,1738755585.319028,46.000000,0.000000,4322.692383,4350.000000,4251.410156,4302.692383,4352.563965,4360.512695,4364.487305,4551.922852,4540.897461,4560.641113,4493.205078,5660.256348,4311.153809,4257.948730,0.000000,3.000000,74.000000,,,,0.000000,0.000000,0.000000,0.000000,0.000000,0.000000,0.000000,0.000000,0.000000,0.000000,0.000000,0.000000,0.000000,0.000000,0.000000,0.000000,,,,,,,,,,,,,,,,,,,,,,,,,,,,,,,,,,,,,,,,,,,,,,,,,,,,,,,,,,,,0.021998,0.039080,0.046486,0.021374,0.027136,0.009496,0.019381,0.026867,0.026077,0.026040,0.028917,0.044906,0.014560,0.015350,0.020932,0.022774,0.030146,0.043419,0.026694,0.034021,0.019452,0.015815,0.022417,0.013519,0.018209,0.033159,0.019288,0.016869,0.015698,0.025452,0.054522,0.048174,0.030976,0.040575,0.025217,0.037135,0.023091,0.020543,0.021561,0.018779,0.039684,0.014555,0.017035,0.016318,0.030546,0.011052,0.014053,0.013898,0.013139,0.017339,0.023773,0.026887,0.031910,0.034594,0.030703,0.018326,0.057751,0.025431,0.024673,0.029755,0.017446,0.033741,0.034842,0.027239,0.042661,0.038882,0.019852,0.026004,0.023301,0.023563
1738755585.326467,1738755585.326836,47.000000,0.000000,4322.563965,4348.846191,4252.948730,4302.948730,4351.922852,4360.384766,4368.461426,4551.922852,4540.256348,4561.666504,4493.846191,5663.333496,4312.051270,4256.922852,0.000000,3.000000,74.000000,,,,0.000000,0.000000,0.000000,0.000000,0.000000,0.000000,0.000000,0.000000,0.000000,0.000000,0.000000,0.000000,0.000000,0.000000,0.000000,0.000000,,,,,,,,,,,,,,,,,,,,,,,,,,,,,,,,,,,,,,,,,,,,,,,,,,,,,,,,,,,,,,,,,,,,,,,,,,,,,,,,,,,,,,,,,,,,,,,,,,,,,,,,,,,,,,,,,,,,,,,,,,,,,,,,,
1738755585.334275,1738755585.334544,48.000000,0.000000,4320.897461,4346.794922,4253.846191,4304.230957,4352.692383,4358.589844,4367.436035,4550.769043,4539.358887,4563.333496,4495.641113,5663.333496,4311.410156,4257.179688,0.000000,3.000000,74.000000,,,,0.000000,0.000000,0.000000,0.000000,0.000000,0.000000,0.000000,0.000000,0.000000,0.000000,0.000000,0.000000,0.000000,0.000000,0.000000,0.000000,,,,,,,,,,,,,,,,,12.000000,0.000000,0.784991,-0.615967,-0.061096,0.025330,0.061531,-0.984984,0.245635,4.223377,-15.467843,22.596729,,,,,,,,,,,,,,,,,,,,,,,,,,,,,,,,,,,,,,,,,,,,,,,,,,,,,,,,,,,,,,,,,,,,,,,,,,,,,,,,,,,,,,,,,,,,,,,,,,,,,
1738755585.342083,1738755585.342352,49.000000,0.000000,4321.410156,4346.538574,4251.538574,4305.384766,4352.563965,4358.717773,4364.358887,4552.820313,4535.641113,4560.256348,4494.230957,5662.563965,4307.307617,4255.128418,0.000000,3.000000,74.000000,,,,0.000000,0.000000,0.000000,0.000000,0.000000,0.000000,0.000000,0.000000,0.000000,0.000000,0.000000,0.000000,0.000000,0.000000,0.000000,0.000000,,,,,,,,,,,,,,,,,,,,,,,,,,,,,,,,,,,,,,,,,,,,,,,,,,,,,,,,,,,,,,,,,,,,,,,,,,,,,,,,,,,,,,,,,,,,,,,,,,,,,,,,,,,,,,,,,,,,,,,,,,,,,,,,,
1738755585.349891,1738755585.350060,50.000000,0.000000,4321.538574,4347.051270,4249.871582,4302.692383,4351.153809,4360.000000,4363.333496,4550.128418,4539.871582,4559.743652,4494.487305,5661.025879,4310.384766,4255.769043,0.000000,3.000000,74.000000,,,,0.000000,0.000000,0.000000,0.000000,0.000000,0.000000,0.000000,0.000000,0.000000,0.000000,0.000000,0.000000,0.000000,0.000000,0.000000,0.000000,,,,,,,,,,,,,,,,,,,,,,,,,,,,,,,,,,,,,,,,,,,,,,,,,,,,,,,,,,,,,,,,,,,,,,,,,,,,,,,,,,,,,,,,,,,,,,,,,,,,,,,,,,,,,,,,,,,,,,,,,,,,,,,,,
1738755585.357699,1738755585.357868,51.000000,0.000000,4323.077148,4346.922852,4252.692383,4301.922852,4351.538574,4359.358887,4363.717773,4547.051270,4544.487305,4560.769043,4496.153809,5661.410156,4310.000000,4255.641113,0.000000,3.000000,74.000000,,,,0.000000,0.000000,0.000000,0.000000,0.000000,0.000000,0.000000,0.000000,0.000000,0.000000,0.000000,0.000000,0.000000,0.000000,0.000000,0.000000,,,,,,,,,,,,,,,,,,,,,,,,,,,,,,,,,,,,,,,,,,,,,,,,,,,,,,,,,,,,,,,,,,,,,,,,,,,,,,,,,,,,,,,,,,,,,,,,,,,,,,,,,,,,,,,,,,,,,,,,,,,,,,,,,
1738755585.365507,1738755585.365576,52.000000,0.000000,4325.512695,4348.461426,4256.153809,4303.717773,4351.538574,4359.743652,4363.974121,4550.000000,4539.743652,4559.487305,4494.487305,5663.589844,4307.436035,4253.974121,0.000000,3.000000,74.000000,,,,0.000000,0.000000,0.000000,0.000000,0.000000,0.000000,0.000000,0.000000,0.000000,0.000000,0.000000,0.000000,0.000000,0.000000,0.000000,0.000000,,,,,,,,,,,,,,,,,13.000000,0.000000,0.784986,-0.615967,-0.061157,0.025330,0.058601,-0.973752,0.236357,4.201039,-15.437725,22.603722,,,,,,,,,,,,,,,,,,,,,,,,,,,,,,,,,,,,,,,,,,,,,,,,,,,,,,,,,,,,,,,,,,,,,,,,,,,,,,,,,,,,,,,,,,,,,,,,,,,,,
1738755585.373315,1738755585.373384,53.000000,0.000000,4323.077148,4352.307617,4255.641113,4302.692383,4351.538574,4361.538574,4366.922852,4550.256348,4534.871582,4560.512695,4494.230957,5664.230957,4312.563965,4256.794922,0.000000,3.000000,74.000000,,,,0.000000,0.000000,0.000000,0.000000,0.000000,0.000000,0.000000,0.000000,0.000000,0.000000,0.000000,0.000000,0.000000,0.000000,0.000000,0.000000,,,,,,,,,,,,,,,,,,,,,,,,,,,,,,,,,,,,,,,,,,,,,,,,,,,,,,,,,,,,,,,,,,,,,,,,,,,,,,,,,,,,,,,,,,,,,,,,,,,,,,,,,,,,,,,,,,,,,,,,,,,,,,,,,
1738755585.381123,1738755585.381092,54.000000,0.000000,4320.000000,4351.025879,4253.461426,4301.153809,4352.563965,4361.282227,4371.153809,4550.128418,4535.384766,4561.025879,4496.153809,5664.615234,4312.692383,4257.307617,0.000000,3.000000,74.000000,,,,0.000000,0.000000,0.000000,0.000000,0.000000,0.000000,0.000000,0.000000,0.000000,0.000000,0.000000,0.000000,0.000000,0.000000,0.000000,0.000000,,,,,,,,,,,,,,,,,,,,,,,,,,,,,,,,,,,,,,,,,,,,,,,,,,,,,,,,,,,,,,,,,,,,,,,,,,,,,,,,,,,,,,,,,,,,,,,,,,,,,,,,,,,,,,,,,,,,,,,,,,,,,,,,,
1738755585.388931,1738755585.388900,55.000000,0.000000,4323.333496,4349.230957,4252.051270,4299.871582,4351.153809,4360.128418,4366.794922,4551.025879,4538.333496,4559.102539,4497.307617,5661.538574,4311.538574,4257.436035,0.000000,3.000000,74.000000,,,,0.000000,0.000000,0.000000,0.000000,0.000000,0.000000,0.000000,0.000000,0.000000,0.000000,0.000000,0.000000,0.000000,0.000000,0.000000,0.000000,,,,,,,,,,,,,,,,,,,,,,,,,,,,,,,,,,,,,,,,,,,,,,,,,,,,,,,,,,,,,,,,,,,,,,,,,,,,,,,,,,,,,,,,,,,,,,,,,,,,,,,,,,,,,,,,,,,,,,,,,,,,,,,,,
