title:bread1, start timestamp:1738754475.272206, stop timestamp:1738754476.295067, headset type:EPOCX, headset serial:E50208A5, headset firmware:720, channels:168, sampling rate:eeg_128;mot_32;pm_0.1;pow_8, samples:132       , version:2.2, 
Timestamp,OriginalTimestamp,EEG.Counter,EEG.Interpolated,EEG.AF3,EEG.F7,EEG.F3,EEG.FC5,EEG.T7,EEG.P7,EEG.O1,EEG.O2,EEG.P8,EEG.T8,EEG.FC6,EEG.F4,EEG.F8,EEG.AF4,EEG.RawCq,EEG.Battery,EEG.BatteryPercent,MarkerIndex,MarkerType,MarkerValueInt,EEG.MarkerHardware,CQ.AF3,CQ.F7,CQ.F3,CQ.FC5,CQ.T7,CQ.P7,CQ.O1,CQ.O2,CQ.P8,CQ.T8,CQ.FC6,CQ.F4,CQ.F8,CQ.AF4,CQ.Overall,EQ.SampleRateQuality,EQ.OVERALL,EQ.AF3,EQ.F7,EQ.F3,EQ.FC5,EQ.T7,EQ.P7,EQ.O1,EQ.O2,EQ.P8,EQ.T8,EQ.FC6,EQ.F4,EQ.F8,EQ.AF4,MOT.CounterMems,MOT.InterpolatedMems,MOT.Q0,MOT.Q1,MOT.Q2,MOT.Q3,MOT.AccX,MOT.AccY,MOT.AccZ,MOT.MagX,MOT.MagY,MOT.MagZ,PM.Attention.IsActive,PM.Attention.Scaled,PM.Attention.Raw,PM.Attention.Min,PM.Attention.Max,PM.Engagement.IsActive,PM.Engagement.Scaled,PM.Engagement.Raw,PM.Engagement.Min,PM.Engagement.Max,PM.Excitement.IsActive,PM.Excitement.Scaled,PM.Excitement.Raw,PM.Excitement.Min,PM.Excitement.Max,PM.LongTermExcitement,PM.Stress.IsActive,PM.Stress.Scaled,PM.Stress.Raw,PM.Stress.Min,PM.Stress.Max,PM.Relaxation.IsActive,PM.Relaxation.Scaled,PM.Relaxation.Raw,PM.Relaxation.Min,PM.Relaxation.Max,PM.Interest.IsActive,PM.Interest.Scaled,PM.Interest.Raw,PM.Interest.Min,PM.Interest.Max,POW.AF3.Theta,POW.AF3.Alpha,POW.AF3.BetaL,POW.AF3.BetaH,POW.AF3.Gamma,POW.F7.Theta,POW.F7.Alpha,POW.F7.BetaL,POW.F7.BetaH,POW.F7.Gamma,POW.F3.Theta,POW.F3.Alpha,POW.F3.BetaL,POW.F3.BetaH,POW.F3.Gamma,POW.FC5.Theta,POW.FC5.Alpha,POW.FC5.BetaL,POW.FC5.BetaH,POW.FC5.Gamma,POW.T7.Theta,POW.T7.Alpha,POW.T7.BetaL,POW.T7.BetaH,POW.T7.Gamma,POW.P7.Theta,POW.P7.Alpha,POW.P7.BetaL,POW.P7.BetaH,POW.P7.Gamma,POW.O1.Theta,POW.O1.Alpha,POW.O1.BetaL,POW.O1.BetaH,POW.O1.Gamma,POW.O2.Theta,POW.O2.Alpha,POW.O2.BetaL,POW.O2.BetaH,POW.O2.Gamma,POW.P8.Theta,POW.P8.Alpha,POW.P8.BetaL,POW.P8.BetaH,POW.P8.Gamma,POW.T8.Theta,POW.T8.Alpha,POW.T8.BetaL,POW.T8.BetaH,POW.T8.Gamma,POW.FC6.Theta,POW.FC6.Alpha,POW.FC6.BetaL,POW.FC6.BetaH,POW.FC6.Gamma,POW.F4.Theta,POW.F4.Alpha,POW.F4.BetaL,POW.F4.BetaH,POW.F4.Gamma,POW.F8.Theta,POW.F8.Alpha,POW.F8.BetaL,POW.F8.BetaH,POW.F8.Gamma,POW.AF4.Theta,POW.AF4.Alpha,POW.AF4.BetaL,POW.AF4.BetaH,POW.AF4.Gamma
1738754475.272206,1738754475.273279,88.000000,0.000000,4321.025879,4348.589844,4250.769043,4299.615234,4352.436035,4359.358887,4364.358887,4546.025879,4542.692383,4560.000000,4496.538574,5664.358887,4310.128418,4256.922852,0.000000,4.000000,78.000000,,,,0.000000,0.000000,0.000000,0.000000,0.000000,0.000000,0.000000,0.000000,0.000000,0.000000,0.000000,0.000000,0.000000,0.000000,0.000000,0.000000,,,,,,,,,,,,,,,,,22.000000,0.000000,0.785316,-0.615967,-0.058289,0.021606,0.069344,-0.969845,0.243194,4.621275,-15.036459,22.818878,,,,,,,,,,,,,,,,,,,,,,,,,,,,,,,,,,,,,,,,,,,,,,,,,,,,,,,,,,,,,,,,,,,,,,,,,,,,,,,,,,,,,,,,,,,,,,,,,,,,,
1738754475.280014,1738754475.281187,89.000000,0.000000,4323.461426,4348.461426,4251.794922,4301.794922,4351.794922,4363.461426,4365.128418,4548.846191,4541.922852,4557.948730,4496.794922,5665.769043,4310.000000,4255.128418,0.000000,4.000000,78.000000,,,,0.000000,0.000000,0.000000,0.000000,0.000000,0.000000,0.000000,0.000000,0.000000,0.000000,0.000000,0.000000,0.000000,0.000000,0.000000,0.000000,,,,,,,,,,,,,,,,,,,,,,,,,,,,,,,,,,,,,,,,,,,,,,,,,,,,,,,,,,,,,,,,,,,,,,,,,,,,,,,,,,,,,,,,,,,,,,,,,,,,,,,,,,,,,,,,,,,,,,,,,,,,,,,,,
1738754475.287822,1738754475.288995,90.000000,0.000000,4320.128418,4351.794922,4252.948730,4302.436035,4350.897461,4364.487305,4361.153809,4550.128418,4540.384766,4557.307617,4495.384766,5663.846191,4314.487305,4257.948730,0.000000,4.000000,78.000000,,,,0.000000,0.000000,0.000000,0.000000,0.000000,0.000000,0.000000,0.000000,0.000000,0.000000,0.000000,0.000000,0.000000,0.000000,0.000000,0.000000,,,,,,,,,,,,,,,,,,,,,,,,,,,,,,,,,,,,,,,,,,,,,,,,,,,,,,,,,,,,,,,,,,,,,,,,,,,,,,,,,,,,,,,,,,,,,,,,,,,,,,,,,,,,,,,,,,,,,,,,,,,,,,,,,
1738754475.295630,1738754475.296803,91.000000,0.000000,4318.333496,4351.922852,4251.153809,4301.153809,4351.410156,4361.282227,4366.025879,4551.282227,4540.128418,4557.563965,4492.563965,5665.897461,4311.666504,4256.282227,0.000000,4.000000,78.000000,,,,0.000000,0.000000,0.000000,0.000000,0.000000,0.000000,0.000000,0.000000,0.000000,0.000000,0.000000,0.000000,0.000000,0.000000,0.000000,0.000000,,,,,,,,,,,,,,,,,,,,,,,,,,,,,,,,,,,,,,,,,,,,,,,,,,,,,,,,,,,,,,,,,,,,,,,,,,,,,,,,,,,,,,,,,,,,,,,,,,,,,,,,,,,,,,,,,,,,,,,,,,,,,,,,,
1738754475.303438,1738754475.304511,92.000000,0.000000,4321.538574,4349.487305,4251.410156,4300.897461,4352.179688,4359.230957,4369.230957,4549.230957,4540.769043,4557.948730,4494.871582,5665.641113,4306.410156,4255.000000,0.000000,4.000000,78.000000,,,,0.000000,0.000000,0.000000,0.000000,0.000000,0.000000,0.000000,0.000000,0.000000,0.000000,0.000000,0.000000,0.000000,0.000000,0.000000,0.000000,,,,,,,,,,,,,,,,,23.000000,0.000000,0.785311,-0.615967,-0.058350,0.021606,0.056648,-0.974240,0.241240,4.675814,-14.999480,22.886990,,,,,,,,,,,,,,,,,,,,,,,,,,,,,,,,,,,,,,,,,,,,,,,,,,,,,,,,,,,,,,,,,,,,,,,,,,,,,,,,,,,,,,,,,,,,,,,,,,,,,
1738754475.311247,1738754475.312319,93.000000,0.000000,4322.051270,4350.641113,4254.358887,4303.205078,4353.333496,4360.000000,4367.051270,4546.794922,4540.769043,4558.717773,4498.077148,5663.205078,4309.102539,4257.179688,0.000000,4.000000,78.000000,,,,0.000000,0.000000,0.000000,0.000000,0.000000,0.000000,0.000000,0.000000,0.000000,0.000000,0.000000,0.000000,0.000000,0.000000,0.000000,0.000000,,,,,,,,,,,,,,,,,,,,,,,,,,,,,,,,,,,,,,,,,,,,,,,,,,,,,,,,,,,,,,,,,,,,,,,,,,,,,,,,,,,,,,,,,,,,,,,,,,,,,,,,,,,,,,,,,,,,,,,,,,,,,,,,,
1738754475.319054,1738754475.320027,94.000000,0.000000,4321.666504,4350.384766,4255.000000,4305.256348,4354.743652,4360.512695,4369.102539,4550.000000,4538.461426,4556.153809,4497.051270,5665.256348,4305.384766,4253.974121,0.000000,4.000000,78.000000,,,,0.000000,0.000000,0.000000,0.000000,0.000000,0.000000,0.000000,0.000000,0.000000,0.000000,0.000000,0.000000,0.000000,0.000000,0.000000,0.000000,1.000000,0.000000,0.000000,0.000000,0.000000,0.000000,0.000000,0.000000,0.000000,0.000000,0.000000,0.000000,0.000000,0.000000,0.000000,0.000000,,,,,,,,,,,,,,,,,,,,,,,,,,,,,,,,,,,,,,,,,,,,0.041037,0.027380,0.019928,0.030835,0.030812,0.016487,0.022820,0.013882,0.024112,0.022842,0.017701,0.034362,0.013579,0.024204,0.022424,0.024029,0.020534,0.029105,0.032849,0.019841,0.022254,0.036840,0.031826,0.016940,0.027899,0.013867,0.007946,0.016649,0.023022,0.020198,0.100211,0.062018,0.065658,0.024889,0.027204,0.025518,0.012768,0.014903,0.020218,0.018897,0.033039,0.019123,0.026150,0.016292,0.014349,0.018971,0.024430,0.022679,0.015236,0.027244,0.020770,0.044519,0.060212,0.016318,0.018871,0.037247,0.031860,0.019372,0.012232,0.024986,0.029043,0.040112,0.041325,0.041871,0.044625,0.012889,0.030551,0.021548,0.030527,0.024234
1738754475.326863,1738754475.327835,95.000000,0.000000,4322.307617,4347.563965,4254.743652,4301.666504,4353.589844,4359.615234,4366.922852,4550.769043,4539.230957,4557.179688,4497.436035,5660.897461,4309.230957,4255.128418,0.000000,4.000000,78.000000,,,,0.000000,0.000000,0.000000,0.000000,0.000000,0.000000,0.000000,0.000000,0.000000,0.000000,0.000000,0.000000,0.000000,0.000000,0.000000,0.000000,,,,,,,,,,,,,,,,,,,,,,,,,,,,,,,,,,,,,,,,,,,,,,,,,,,,,,,,,,,,,,,,,,,,,,,,,,,,,,,,,,,,,,,,,,,,,,,,,,,,,,,,,,,,,,,,,,,,,,,,,,,,,,,,,
1738754475.334671,1738754475.335543,96.000000,0.000000,4323.589844,4346.794922,4253.717773,4301.794922,4353.077148,4357.948730,4365.128418,4548.461426,4538.717773,4561.410156,4497.692383,5662.692383,4310.128418,4255.384766,0.000000,4.000000,78.000000,,,,0.000000,0.000000,0.000000,0.000000,0.000000,0.000000,0.000000,0.000000,0.000000,0.000000,0.000000,0.000000,0.000000,0.000000,0.000000,0.000000,,,,,,,,,,,,,,,,,24.000000,0.000000,0.785311,-0.615967,-0.058350,0.021606,0.065438,-0.972775,0.236845,4.641566,-15.016198,22.814957,,,,,,,,,,,,,,,,,,,,,,,,,,,,,,,,,,,,,,,,,,,,,,,,,,,,,,,,,,,,,,,,,,,,,,,,,,,,,,,,,,,,,,,,,,,,,,,,,,,,,
1738754475.342479,1738754475.343351,97.000000,0.000000,4323.077148,4347.820313,4251.538574,4300.769043,4353.077148,4357.948730,4365.512695,4547.307617,4538.846191,4560.384766,4495.384766,5666.666504,4306.538574,4256.538574,0.000000,4.000000,78.000000,,,,0.000000,0.000000,0.000000,0.000000,0.000000,0.000000,0.000000,0.000000,0.000000,0.000000,0.000000,0.000000,0.000000,0.000000,0.000000,0.000000,,,,,,,,,,,,,,,,,,,,,,,,,,,,,,,,,,,,,,,,,,,,,,,,,,,,,,,,,,,,,,,,,,,,,,,,,,,,,,,,,,,,,,,,,,,,,,,,,,,,,,,,,,,,,,,,,,,,,,,,,,,,,,,,,
1738754475.350287,1738754475.351059,98.000000,0.000000,4321.794922,4347.051270,4254.871582,4299.358887,4349.743652,4359.871582,4364.743652,4549.615234,4540.769043,4558.846191,4494.615234,5662.948730,4310.769043,4261.153809,0.000000,4.000000,78.000000,,,,0.000000,0.000000,0.000000,0.000000,0.000000,0.000000,0.000000,0.000000,0.000000,0.000000,0.000000,0.000000,0.000000,0.000000,0.000000,0.000000,,,,,,,,,,,,,,,,,,,,,,,,,,,,,,,,,,,,,,,,,,,,,,,,,,,,,,,,,,,,,,,,,,,,,,,,,,,,,,,,,,,,,,,,,,,,,,,,,,,,,,,,,,,,,,,,,,,,,,,,,,,,,,,,,
1738754475.358095,1738754475.358867,99.000000,0.000000,4319.358887,4345.769043,4257.948730,4304.487305,4347.820313,4360.769043,4367.436035,4551.666504,4539.102539,4559.102539,4493.333496,5665.128418,4305.769043,4256.282227,0.000000,4.000000,78.000000,,,,0.000000,0.000000,0.000000,0.000000,0.000000,0.000000,0.000000,0.000000,0.000000,0.000000,0.000000,0.000000,0.000000,0.000000,0.000000,0.000000,,,,,,,,,,,,,,,,,,,,,,,,,,,,,,,,,,,,,,,,,,,,,,,,,,,,,,,,,,,,,,,,,,,,,,,,,,,,,,,,,,,,,,,,,,,,,,,,,,,,,,,,,,,,,,,,,,,,,,,,,,,,,,,,,
1738754475.365903,1738754475.366575,100.000000,0.000000,4316.153809,4348.205078,4253.589844,4305.256348,4350.256348,4359.871582,4367.051270,4548.461426,4539.230957,4557.692383,4494.230957,5664.743652,4305.897461,4255.128418,0.000000,4.000000,78.000000,,,,0.000000,0.000000,0.000000,0.000000,0.000000,0.000000,0.000000,0.000000,0.000000,0.000000,0.000000,0.000000,0.000000,0.000000,0.000000,0.000000,,,,,,,,,,,,,,,,,25.000000,0.000000,0.785363,-0.615906,-0.058289,0.021606,0.075693,-0.979612,0.232939,4.660743,-15.031245,22.883461,,,,,,,,,,,,,,,,,,,,,,,,,,,,,,,,,,,,,,,,,,,,,,,,,,,,,,,,,,,,,,,,,,,,,,,,,,,,,,,,,,,,,,,,,,,,,,,,,,,,,
1738754475.373711,1738754475.374383,101.000000,0.000000,4319.615234,4347.692383,4250.897461,4303.589844,4353.461426,4359.358887,4367.179688,4549.358887,4540.256348,4556.538574,4496.538574,5662.820313,4308.205078,4258.333496,0.000000,4.000000,78.000000,,,,0.000000,0.000000,0.000000,0.000000,0.000000,0.000000,0.000000,0.000000,0.000000,0.000000,0.000000,0.000000,0.000000,0.000000,0.000000,0.000000,,,,,,,,,,,,,,,,,,,,,,,,,,,,,,,,,,,,,,,,,,,,,,,,,,,,,,,,,,,,,,,,,,,,,,,,,,,,,,,,,,,,,,,,,,,,,,,,,,,,,,,,,,,,,,,,,,,,,,,,,,,,,,,,,
1738754475.381519,1738754475.382091,102.000000,0.000000,4325.256348,4346.282227,4252.563965,4301.538574,4353.461426,4359.102539,4368.333496,4551.922852,4537.051270,4559.487305,4493.846191,5665.384766,4307.820313,4255.000000,0.000000,4.000000,78.000000,,,,0.000000,0.000000,0.000000,0.000000,0.000000,0.000000,0.000000,0.000000,0.000000,0.000000,0.000000,0.000000,0.000000,0.000000,0.000000,0.000000,,,,,,,,,,,,,,,,,,,,,,,,,,,,,,,,,,,,,,,,,,,,,,,,,,,,,,,,,,,,,,,,,,,,,,,,,,,,,,,,,,,,,,,,,,,,,,,,,,,,,,,,,,,,,,,,,,,,,,,,,,,,,,,,,
1738754475.389327,1738754475.389899,103.000000,0.000000,4324.615234,4350.512695,4251.666504,4298.717773,4352.051270,4359.102539,4366.025879,4548.205078,4536.282227,4560.384766,4493.974121,5663.461426,4309.615234,4252.948730,0.000000,4.000000,78.000000,,,,0.000000,0.000000,0.000000,0.000000,0.000000,0.000000,0.000000,0.000000,0.000000,0.000000,0.000000,0.000000,0.000000,0.000000,0.000000,0.000000,,,,,,,,,,,,,,,,,,,,,,,,,,,,,,,,,,,,,,,,,,,,,,,,,,,,,,,,,,,,,,,,,,,,,,,,,,,,,,,,,,,,,,,,,,,,,,,,,,,,,,,,,,,,,,,,,,,,,,,,,,,,,,,,,
1738754475.397136,1738754475.397607,104.000000,0.000000,4321.666504,4348.333496,4250.769043,4302.307617,4350.897461,4360.512695,4367.692383,4546.666504,4537.692383,4556.794922,4496.538574,5664.230957,4303.974121,4254.358887,0.000000,4.000000,78.000000,,,,0.000000,0.000000,0.000000,0.000000,0.000000,0.000000,0.000000,0.000000,0.000000,0.000000,0.000000,0.000000,0.000000,0.000000,0.000000,0.000000,,,,,,,,,,,,,,,,,26.000000,0.000000,0.785363,-0.615906,-0.058289,0.021606,0.056159,-0.973263,0.238310,4.628002,-15.078121,22.695116,,,,,,,,,,,,,,,,,,,,,,,,,,,,,,,,,,,,,,,,,,,,,,,,,,,,,,,,,,,,,,,,,,,,,,,,,,,,,,,,,,,,,,,,,,,,,,,,,,,,,
1738754475.404944,1738754475.405515,105.000000,0.000000,4320.512695,4345.641113,4253.589844,4302.179688,4350.000000,4359.487305,4367.051270,4547.307617,4539.743652,4557.948730,4495.897461,5665.000000,4308.589844,4257.563965,0.000000,4.000000,78.000000,,,,0.000000,0.000000,0.000000,0.000000,0.000000,0.000000,0.000000,0.000000,0.000000,0.000000,0.000000,0.000000,0.000000,0.000000,0.000000,0.000000,,,,,,,,,,,,,,,,,,,,,,,,,,,,,,,,,,,,,,,,,,,,,,,,,,,,,,,,,,,,,,,,,,,,,,,,,,,,,,,,,,,,,,,,,,,,,,,,,,,,,,,,,,,,,,,,,,,,,,,,,,,,,,,,,
1738754475.412752,1738754475.413324,106.000000,0.000000,4321.794922,4350.000000,4254.743652,4299.102539,4349.615234,4359.230957,4365.000000,4547.436035,4540.769043,4559.615234,4492.692383,5662.948730,4310.512695,4255.512695,0.000000,4.000000,78.000000,,,,0.000000,0.000000,0.000000,0.000000,0.000000,0.000000,0.000000,0.000000,0.000000,0.000000,0.000000,0.000000,0.000000,0.000000,0.000000,0.000000,,,,,,,,,,,,,,,,,,,,,,,,,,,,,,,,,,,,,,,,,,,,,,,,,,,,,,,,,,,,,,,,,,,,,,,,,,,,,,,,,,,,,,,,,,,,,,,,,,,,,,,,,,,,,,,,,,,,,,,,,,,,,,,,,
1738754475.420560,1738754475.421232,107.000000,0.000000,4322.563965,4349.358887,4252.307617,4301.794922,4350.256348,4361.666504,4364.871582,4549.871582,4538.717773,4555.769043,4491.410156,5664.230957,4306.025879,4254.358887,0.000000,4.000000,78.000000,,,,0.000000,0.000000,0.000000,0.000000,0.000000,0.000000,0.000000,0.000000,0.000000,0.000000,0.000000,0.000000,0.000000,0.000000,0.000000,0.000000,,,,,,,,,,,,,,,,,,,,,,,,,,,,,,,,,,,,,,,,,,,,,,,,,,,,,,,,,,,,,,,,,,,,,,,,,,,,,,,,,,,,,,,,,,,,,,,,,,,,,,,,,,,,,,,,,,,,,,,,,,,,,,,,,
1738754475.428368,1738754475.429040,108.000000,0.000000,4321.538574,4347.563965,4251.538574,4300.769043,4350.897461,4359.871582,4362.307617,4552.051270,4538.846191,4556.410156,4493.846191,5662.051270,4312.436035,4258.717773,0.000000,4.000000,78.000000,,,,0.000000,0.000000,0.000000,0.000000,0.000000,0.000000,0.000000,0.000000,0.000000,0.000000,0.000000,0.000000,0.000000,0.000000,0.000000,0.000000,,,,,,,,,,,,,,,,,27.000000,0.000000,0.785320,-0.615967,-0.058228,0.021606,0.060066,-0.958125,0.231474,4.681868,-14.853642,22.558937,,,,,,,,,,,,,,,,,,,,,,,,,,,,,,,,,,,,,,,,,,,,,,,,,,,,,,,,,,,,,,,,,,,,,,,,,,,,,,,,,,,,,,,,,,,,,,,,,,,,,
1738754475.436176,1738754475.436948,109.000000,0.000000,4323.461426,4348.974121,4254.102539,4300.512695,4351.025879,4358.077148,4362.436035,4550.641113,4537.307617,4559.743652,4493.589844,5660.897461,4309.487305,4255.897461,0.000000,4.000000,78.000000,,,,0.000000,0.000000,0.000000,0.000000,0.000000,0.000000,0.000000,0.000000,0.000000,0.000000,0.000000,0.000000,0.000000,0.000000,0.000000,0.000000,,,,,,,,,,,,,,,,,,,,,,,,,,,,,,,,,,,,,,,,,,,,,,,,,,,,,,,,,,,,,,,,,,,,,,,,,,,,,,,,,,,,,,,,,,,,,,,,,,,,,,,,,,,,,,,,,,,,,,,,,,,,,,,,,
1738754475.443984,1738754475.444756,110.000000,0.000000,4324.871582,4351.666504,4255.897461,4302.692383,4352.692383,4359.102539,4363.205078,4546.410156,4537.179688,4558.589844,4493.974121,5661.410156,4307.563965,4257.051270,0.000000,4.000000,78.000000,,,,0.000000,0.000000,0.000000,0.000000,0.000000,0.000000,0.000000,0.000000,0.000000,0.000000,0.000000,0.000000,0.000000,0.000000,0.000000,0.000000,,,,,,,,,,,,,,,,,,,,,,,,,,,,,,,,,,,,,,,,,,,,,,,,,,,,,,,,,,,,0.040254,0.029402,0.019529,0.029320,0.031572,0.017860,0.020674,0.014935,0.019580,0.020474,0.012624,0.028114,0.013814,0.022278,0.020725,0.018462,0.021988,0.039716,0.034815,0.020133,0.023537,0.039297,0.028487,0.017198,0.028794,0.014775,0.008182,0.017110,0.027208,0.021625,0.089929,0.060397,0.061318,0.029071,0.025164,0.020478,0.009932,0.014841,0.024043,0.019050,0.035631,0.019472,0.027171,0.018949,0.014813,0.023368,0.021865,0.019781,0.016189,0.027394,0.019759,0.041524,0.057657,0.015280,0.019521,0.025141,0.028359,0.015597,0.011712,0.024930,0.025150,0.042859,0.038429,0.044485,0.043857,0.011090,0.027981,0.022487,0.033622,0.026682
1738754475.451792,1738754475.452664,111.000000,0.000000,4322.692383,4350.641113,4255.000000,4301.538574,4352.307617,4359.871582,4361.666504,4547.820313,4540.512695,4555.000000,4495.897461,5662.948730,4310.128418,4258.846191,0.000000,4.000000,78.000000,,,,0.000000,0.000000,0.000000,0.000000,0.000000,0.000000,0.000000,0.000000,0.000000,0.000000,0.000000,0.000000,0.000000,0.000000,0.000000,0.000000,,,,,,,,,,,,,,,,,,,,,,,,,,,,,,,,,,,,,,,,,,,,,,,,,,,,,,,,,,,,,,,,,,,,,,,,,,,,,,,,,,,,,,,,,,,,,,,,,,,,,,,,,,,,,,,,,,,,,,,,,,,,,,,,,
1738754475.459600,1738754475.460473,112.000000,0.000000,4319.358887,4345.512695,4253.077148,4302.563965,4349.615234,4360.512695,4361.282227,4551.666504,4538.589844,4554.871582,4497.436035,5667.948730,4306.410156,4254.358887,0.000000,4.000000,78.000000,,,,0.000000,0.000000,0.000000,0.000000,0.000000,0.000000,0.000000,0.000000,0.000000,0.000000,0.000000,0.000000,0.000000,0.000000,0.000000,0.000000,,,,,,,,,,,,,,,,,28.000000,0.000000,0.785322,-0.615967,-0.058228,0.021545,0.060066,-0.971798,0.229032,4.697015,-14.834945,22.653044,,,,,,,,,,,,,,,,,,,,,,,,,,,,,,,,,,,,,,,,,,,,,,,,,,,,,,,,,,,,,,,,,,,,,,,,,,,,,,,,,,,,,,,,,,,,,,,,,,,,,
1738754475.467409,1738754475.468281,113.000000,0.000000,4318.205078,4346.282227,4254.230957,4302.948730,4349.871582,4361.410156,4359.615234,4549.358887,4537.436035,4558.717773,4499.615234,5663.461426,4310.256348,4256.538574,0.000000,4.000000,78.000000,,,,0.000000,0.000000,0.000000,0.000000,0.000000,0.000000,0.000000,0.000000,0.000000,0.000000,0.000000,0.000000,0.000000,0.000000,0.000000,0.000000,,,,,,,,,,,,,,,,,,,,,,,,,,,,,,,,,,,,,,,,,,,,,,,,,,,,,,,,,,,,,,,,,,,,,,,,,,,,,,,,,,,,,,,,,,,,,,,,,,,,,,,,,,,,,,,,,,,,,,,,,,,,,,,,,
1738754475.475217,1738754475.476089,114.000000,0.000000,4319.487305,4347.692383,4255.897461,4303.589844,4352.563965,4360.769043,4360.769043,4550.128418,4541.153809,4558.461426,4496.410156,5660.897461,4306.794922,4256.282227,0.000000,4.000000,78.000000,,,,0.000000,0.000000,0.000000,0.000000,0.000000,0.000000,0.000000,0.000000,0.000000,0.000000,0.000000,0.000000,0.000000,0.000000,0.000000,0.000000,,,,,,,,,,,,,,,,,,,,,,,,,,,,,,,,,,,,,,,,,,,,,,,,,,,,,,,,,,,,,,,,,,,,,,,,,,,,,,,,,,,,,,,,,,,,,,,,,,,,,,,,,,,,,,,,,,,,,,,,,,,,,,,,,
1738754475.483025,1738754475.483797,115.000000,0.000000,4319.743652,4346.922852,4251.410156,4302.820313,4352.563965,4358.333496,4363.461426,4551.153809,4541.794922,4556.025879,4495.512695,5662.563965,4306.538574,4256.282227,0.000000,4.000000,78.000000,,,,0.000000,0.000000,0.000000,0.000000,0.000000,0.000000,0.000000,0.000000,0.000000,0.000000,0.000000,0.000000,0.000000,0.000000,0.000000,0.000000,,,,,,,,,,,,,,,,,,,,,,,,,,,,,,,,,,,,,,,,,,,,,,,,,,,,,,,,,,,,,,,,,,,,,,,,,,,,,,,,,,,,,,,,,,,,,,,,,,,,,,,,,,,,,,,,,,,,,,,,,,,,,,,,,
1738754475.490833,1738754475.491605,116.000000,0.000000,4322.051270,4346.538574,4251.794922,4301.538574,4351.153809,4359.743652,4365.256348,4548.589844,4537.051270,4556.794922,4498.717773,5660.897461,4313.974121,4257.820313,0.000000,4.000000,78.000000,,,,0.000000,0.000000,0.000000,0.000000,0.000000,0.000000,0.000000,0.000000,0.000000,0.000000,0.000000,0.000000,0.000000,0.000000,0.000000,0.000000,,,,,,,,,,,,,,,,,29.000000,0.000000,0.785322,-0.615967,-0.058228,0.021545,0.065438,-0.976682,0.229520,4.810647,-14.668117,22.587740,,,,,,,,,,,,,,,,,,,,,,,,,,,,,,,,,,,,,,,,,,,,,,,,,,,,,,,,,,,,,,,,,,,,,,,,,,,,,,,,,,,,,,,,,,,,,,,,,,,,,
1738754475.498641,1738754475.499313,117.000000,0.000000,4322.692383,4347.179688,4257.051270,4302.436035,4352.051270,4362.563965,4368.846191,4550.897461,4534.358887,4558.333496,4495.641113,5663.461426,4305.512695,4251.538574,0.000000,4.000000,78.000000,,,,0.000000,0.000000,0.000000,0.000000,0.000000,0.000000,0.000000,0.000000,0.000000,0.000000,0.000000,0.000000,0.000000,0.000000,0.000000,0.000000,,,,,,,,,,,,,,,,,,,,,,,,,,,,,,,,,,,,,,,,,,,,,,,,,,,,,,,,,,,,,,,,,,,,,,,,,,,,,,,,,,,,,,,,,,,,,,,,,,,,,,,,,,,,,,,,,,,,,,,,,,,,,,,,,
1738754475.506449,1738754475.507121,118.000000,0.000000,4316.282227,4348.717773,4255.512695,4299.358887,4353.461426,4361.666504,4366.922852,4549.102539,4538.205078,4559.487305,4492.563965,5663.461426,4307.051270,4255.769043,0.000000,4.000000,78.000000,,,,0.000000,0.000000,0.000000,0.000000,0.000000,0.000000,0.000000,0.000000,0.000000,0.000000,0.000000,0.000000,0.000000,0.000000,0.000000,0.000000,,,,,,,,,,,,,,,,,,,,,,,,,,,,,,,,,,,,,,,,,,,,,,,,,,,,,,,,,,,,,,,,,,,,,,,,,,,,,,,,,,,,,,,,,,,,,,,,,,,,,,,,,,,,,,,,,,,,,,,,,,,,,,,,,
1738754475.514257,1738754475.514829,119.000000,0.000000,4317.051270,4345.769043,4253.333496,4301.025879,4354.102539,4360.384766,4365.897461,4547.692383,4538.846191,4559.230957,4494.102539,5664.615234,4310.897461,4260.897461,0.000000,4.000000,78.000000,,,,0.000000,0.000000,0.000000,0.000000,0.000000,0.000000,0.000000,0.000000,0.000000,0.000000,0.000000,0.000000,0.000000,0.000000,0.000000,0.000000,,,,,,,,,,,,,,,,,,,,,,,,,,,,,,,,,,,,,,,,,,,,,,,,,,,,,,,,,,,,,,,,,,,,,,,,,,,,,,,,,,,,,,,,,,,,,,,,,,,,,,,,,,,,,,,,,,,,,,,,,,,,,,,,,
1738754475.522065,1738754475.522637,120.000000,0.000000,4321.666504,4346.025879,4255.769043,4303.461426,4352.436035,4361.666504,4366.794922,4551.666504,4536.538574,4557.948730,4497.563965,5665.512695,4306.025879,4255.769043,0.000000,4.000000,78.000000,,,,0.000000,0.000000,0.000000,0.000000,0.000000,0.000000,0.000000,0.000000,0.000000,0.000000,0.000000,0.000000,0.000000,0.000000,0.000000,0.000000,,,,,,,,,,,,,,,,,30.000000,0.000000,0.785276,-0.616028,-0.058228,0.021484,0.076670,-0.974728,0.242705,4.829582,-14.684638,22.662298,,,,,,,,,,,,,,,,,,,,,,,,,,,,,,,,,,,,,,,,,,,,,,,,,,,,,,,,,,,,,,,,,,,,,,,,,,,,,,,,,,,,,,,,,,,,,,,,,,,,,
1738754475.529873,1738754475.530345,121.000000,0.000000,4319.743652,4348.974121,4255.769043,4300.000000,4350.128418,4362.948730,4362.692383,4550.512695,4537.692383,4557.820313,4495.641113,5661.025879,4310.256348,4255.128418,0.000000,4.000000,78.000000,,,,0.000000,0.000000,0.000000,0.000000,0.000000,0.000000,0.000000,0.000000,0.000000,0.000000,0.000000,0.000000,0.000000,0.000000,0.000000,0.000000,,,,,,,,,,,,,,,,,,,,,,,,,,,,,,,,,,,,,,,,,,,,,,,,,,,,,,,,,,,,,,,,,,,,,,,,,,,,,,,,,,,,,,,,,,,,,,,,,,,,,,,,,,,,,,,,,,,,,,,,,,,,,,,,,
1738754475.537681,1738754475.538153,122.000000,0.000000,4321.153809,4346.922852,4253.589844,4301.666504,4351.538574,4361.794922,4365.384766,4549.743652,4538.333496,4559.743652,4490.897461,5663.589844,4308.846191,4254.487305,0.000000,4.000000,78.000000,,,,0.000000,0.000000,0.000000,0.000000,0.000000,0.000000,0.000000,0.000000,0.000000,0.000000,0.000000,0.000000,0.000000,0.000000,0.000000,0.000000,,,,,,,,,,,,,,,,,,,,,,,,,,,,,,,,,,,,,,,,,,,,,,,,,,,,,,,,,,,,,,,,,,,,,,,,,,,,,,,,,,,,,,,,,,,,,,,,,,,,,,,,,,,,,,,,,,,,,,,,,,,,,,,,,
1738754475.545489,1738754475.545861,123.000000,0.000000,4323.974121,4347.307617,4252.179688,4303.461426,4353.846191,4359.615234,4366.538574,4550.769043,4538.333496,4560.512695,4496.538574,5664.230957,4310.512695,4256.282227,0.000000,4.000000,78.000000,,,,0.000000,0.000000,0.000000,0.000000,0.000000,0.000000,0.000000,0.000000,0.000000,0.000000,0.000000,0.000000,0.000000,0.000000,0.000000,0.000000,,,,,,,,,,,,,,,,,,,,,,,,,,,,,,,,,,,,,,,,,,,,,,,,,,,,,,,,,,,,,,,,,,,,,,,,,,,,,,,,,,,,,,,,,,,,,,,,,,,,,,,,,,,,,,,,,,,,,,,,,,,,,,,,,
1738754475.553298,1738754475.553669,124.000000,0.000000,4322.179688,4350.128418,4252.948730,4301.794922,4352.179688,4359.615234,4364.615234,4550.000000,4537.692383,4558.974121,4499.358887,5663.077148,4312.179688,4258.717773,0.000000,4.000000,78.000000,,,,0.000000,0.000000,0.000000,0.000000,0.000000,0.000000,0.000000,0.000000,0.000000,0.000000,0.000000,0.000000,0.000000,0.000000,0.000000,0.000000,,,,,,,,,,,,,,,,,31.000000,0.000000,0.785362,-0.615906,-0.058350,0.021484,0.059578,-0.975705,0.228544,4.746624,-14.632841,22.496069,,,,,,,,,,,,,,,,,,,,,,,,,,,,,,,,,,,,,,,,,,,,,,,,,,,,,,,,,,,,,,,,,,,,,,,,,,,,,,,,,,,,,,,,,,,,,,,,,,,,,
1738754475.561106,1738754475.561377,125.000000,0.000000,4320.897461,4349.615234,4253.974121,4301.538574,4349.871582,4361.153809,4364.358887,4548.461426,4536.282227,4558.461426,4492.820313,5663.589844,4309.743652,4258.077148,0.000000,4.000000,78.000000,,,,0.000000,0.000000,0.000000,0.000000,0.000000,0.000000,0.000000,0.000000,0.000000,0.000000,0.000000,0.000000,0.000000,0.000000,0.000000,0.000000,,,,,,,,,,,,,,,,,,,,,,,,,,,,,,,,,,,,,,,,,,,,,,,,,,,,,,,,,,,,,,,,,,,,,,,,,,,,,,,,,,,,,,,,,,,,,,,,,,,,,,,,,,,,,,,,,,,,,,,,,,,,,,,,,
1738754475.568914,1738754475.569285,126.000000,0.000000,4321.025879,4348.974121,4251.410156,4300.897461,4352.820313,4361.410156,4361.666504,4546.922852,4537.692383,4558.589844,4493.461426,5658.717773,4315.256348,4258.717773,0.000000,4.000000,78.000000,,,,0.000000,0.000000,0.000000,0.000000,0.000000,0.000000,0.000000,0.000000,0.000000,0.000000,0.000000,0.000000,0.000000,0.000000,0.000000,0.000000,,,,,,,,,,,,,,,,,,,,,,,,,,,,,,,,,,,,,,,,,,,,,,,,,,,,,,,,,,,,0.041369,0.033481,0.019650,0.028576,0.031078,0.020421,0.019484,0.016186,0.016950,0.019915,0.009946,0.025235,0.015336,0.019045,0.020064,0.015745,0.025026,0.049293,0.037504,0.020628,0.023320,0.042022,0.024448,0.019408,0.028984,0.015297,0.009567,0.016760,0.029880,0.022057,0.076957,0.058020,0.053637,0.032194,0.023658,0.016311,0.008277,0.016325,0.027587,0.018435,0.037944,0.020578,0.027307,0.021025,0.016854,0.027057,0.019194,0.018829,0.016863,0.026959,0.018759,0.036803,0.054183,0.013884,0.020404,0.020403,0.026405,0.012558,0.012123,0.025713,0.023956,0.044436,0.035440,0.044290,0.041264,0.010170,0.025706,0.023612,0.036570,0.029187
1738754475.576722,1738754475.577093,127.000000,0.000000,4323.717773,4348.333496,4248.717773,4302.179688,4355.512695,4360.897461,4364.230957,4549.230957,4537.563965,4555.384766,4497.820313,5662.307617,4312.820313,4255.000000,78.000000,4.000000,78.000000,,,,0.000000,0.000000,0.000000,0.000000,0.000000,0.000000,0.000000,0.000000,0.000000,0.000000,0.000000,0.000000,0.000000,0.000000,0.000000,0.000000,,,,,,,,,,,,,,,,,,,,,,,,,,,,,,,,,,,,,,,,,,,,,,,,,,,,,,,,,,,,,,,,,,,,,,,,,,,,,,,,,,,,,,,,,,,,,,,,,,,,,,,,,,,,,,,,,,,,,,,,,,,,,,,,,
1738754475.584530,1738754475.585001,0.000000,0.000000,4323.077148,4347.051270,4250.897461,4302.051270,4351.794922,4361.538574,4364.743652,4548.461426,4539.358887,4554.487305,4496.922852,5666.666504,4311.282227,4256.410156,0.000000,4.000000,78.000000,,,,0.000000,0.000000,0.000000,0.000000,0.000000,0.000000,0.000000,0.000000,0.000000,0.000000,0.000000,0.000000,0.000000,0.000000,0.000000,0.000000,,,,,,,,,,,,,,,,,0.000000,0.000000,0.785367,-0.615906,-0.058289,0.021484,0.073251,-0.964473,0.246124,4.721961,-14.619557,22.529795,,,,,,,,,,,,,,,,,,,,,,,,,,,,,,,,,,,,,,,,,,,,,,,,,,,,,,,,,,,,,,,,,,,,,,,,,,,,,,,,,,,,,,,,,,,,,,,,,,,,,
1738754475.592338,1738754475.592809,1.000000,0.000000,4318.846191,4346.282227,4255.384766,4300.641113,4349.615234,4361.025879,4363.846191,4547.820313,4541.282227,4557.820313,4494.230957,5664.230957,4311.922852,4257.563965,0.000000,4.000000,78.000000,,,,0.000000,0.000000,0.000000,0.000000,0.000000,0.000000,0.000000,0.000000,0.000000,0.000000,0.000000,0.000000,0.000000,0.000000,0.000000,0.000000,,,,,,,,,,,,,,,,,,,,,,,,,,,,,,,,,,,,,,,,,,,,,,,,,,,,,,,,,,,,,,,,,,,,,,,,,,,,,,,,,,,,,,,,,,,,,,,,,,,,,,,,,,,,,,,,,,,,,,,,,,,,,,,,,
1738754475.600146,1738754475.600718,2.000000,0.000000,4319.871582,4347.820313,4256.538574,4302.563965,4351.410156,4360.000000,4367.563965,4550.512695,4538.333496,4558.717773,4496.282227,5663.974121,4309.358887,4254.871582,0.000000,4.000000,78.000000,,,,0.000000,0.000000,0.000000,0.000000,0.000000,0.000000,0.000000,0.000000,0.000000,0.000000,0.000000,0.000000,0.000000,0.000000,0.000000,0.000000,,,,,,,,,,,,,,,,,,,,,,,,,,,,,,,,,,,,,,,,,,,,,,,,,,,,,,,,,,,,,,,,,,,,,,,,,,,,,,,,,,,,,,,,,,,,,,,,,,,,,,,,,,,,,,,,,,,,,,,,,,,,,,,,,
1738754475.607954,1738754475.608526,3.000000,0.000000,4320.128418,4350.512695,4255.384766,4302.051270,4350.769043,4361.282227,4367.436035,4546.922852,4539.487305,4558.717773,4499.230957,5660.384766,4314.358887,4258.589844,0.000000,4.000000,78.000000,,,,0.000000,0.000000,0.000000,0.000000,0.000000,0.000000,0.000000,0.000000,0.000000,0.000000,0.000000,0.000000,0.000000,0.000000,0.000000,0.000000,,,,,,,,,,,,,,,,,,,,,,,,,,,,,,,,,,,,,,,,,,,,,,,,,,,,,,,,,,,,,,,,,,,,,,,,,,,,,,,,,,,,,,,,,,,,,,,,,,,,,,,,,,,,,,,,,,,,,,,,,,,,,,,,,
1738754475.615762,1738754475.616434,4.000000,0.000000,4318.205078,4348.974121,4253.846191,4302.051270,4349.615234,4361.794922,4366.666504,4546.922852,4539.871582,4558.461426,4497.563965,5660.641113,4308.717773,4256.025879,0.000000,4.000000,78.000000,,,,0.000000,0.000000,0.000000,0.000000,0.000000,0.000000,0.000000,0.000000,0.000000,0.000000,0.000000,0.000000,0.000000,0.000000,0.000000,0.000000,,,,,,,,,,,,,,,,,1.000000,0.000000,0.785326,-0.615967,-0.058167,0.021545,0.069833,-0.972287,0.230985,4.599765,-14.674268,22.543482,,,,,,,,,,,,,,,,,,,,,,,,,,,,,,,,,,,,,,,,,,,,,,,,,,,,,,,,,,,,,,,,,,,,,,,,,,,,,,,,,,,,,,,,,,,,,,,,,,,,,
1738754475.623571,1738754475.624242,5.000000,0.000000,4320.128418,4347.051270,4252.436035,4303.974121,4352.948730,4361.410156,4366.282227,4549.487305,4537.948730,4558.077148,4497.179688,5661.538574,4306.153809,4253.974121,0.000000,4.000000,78.000000,,,,0.000000,0.000000,0.000000,0.000000,0.000000,0.000000,0.000000,0.000000,0.000000,0.000000,0.000000,0.000000,0.000000,0.000000,0.000000,0.000000,,,,,,,,,,,,,,,,,,,,,,,,,,,,,,,,,,,,,,,,,,,,,,,,,,,,,,,,,,,,,,,,,,,,,,,,,,,,,,,,,,,,,,,,,,,,,,,,,,,,,,,,,,,,,,,,,,,,,,,,,,,,,,,,,
1738754475.631379,1738754475.632150,6.000000,0.000000,4321.794922,4347.051270,4252.179688,4304.871582,4355.256348,4360.512695,4365.769043,4548.333496,4538.077148,4557.179688,4498.333496,5664.615234,4311.794922,4254.871582,0.000000,4.000000,78.000000,,,,0.000000,0.000000,0.000000,0.000000,0.000000,0.000000,0.000000,0.000000,0.000000,0.000000,0.000000,0.000000,0.000000,0.000000,0.000000,0.000000,,,,,,,,,,,,,,,,,,,,,,,,,,,,,,,,,,,,,,,,,,,,,,,,,,,,,,,,,,,,,,,,,,,,,,,,,,,,,,,,,,,,,,,,,,,,,,,,,,,,,,,,,,,,,,,,,,,,,,,,,,,,,,,,,
1738754475.639187,1738754475.639958,7.000000,0.000000,4320.641113,4346.410156,4252.307617,4303.333496,4352.051270,4358.461426,4366.794922,4549.743652,4537.051270,4555.256348,4496.538574,5671.922852,4305.897461,4250.384766,0.000000,4.000000,78.000000,,,,0.000000,0.000000,0.000000,0.000000,0.000000,0.000000,0.000000,0.000000,0.000000,0.000000,0.000000,0.000000,0.000000,0.000000,0.000000,0.000000,,,,,,,,,,,,,,,,,,,,,,,,,,,,,,,,,,,,,,,,,,,,,,,,,,,,,,,,,,,,,,,,,,,,,,,,,,,,,,,,,,,,,,,,,,,,,,,,,,,,,,,,,,,,,,,,,,,,,,,,,,,,,,,,,
1738754475.646995,1738754475.647866,8.000000,0.000000,4321.410156,4360.641113,4252.563965,4296.538574,4351.025879,4366.666504,4363.333496,4541.794922,4538.333496,4557.436035,4495.641113,5658.589844,4318.077148,4267.051270,0.000000,4.000000,78.000000,,,,0.000000,0.000000,0.000000,0.000000,0.000000,0.000000,0.000000,0.000000,0.000000,0.000000,0.000000,0.000000,0.000000,0.000000,0.000000,0.000000,,,,,,,,,,,,,,,,,2.000000,0.000000,0.785268,-0.616028,-0.058289,0.021606,0.068368,-0.979612,0.239287,4.489789,-14.806841,22.589134,,,,,,,,,,,,,,,,,,,,,,,,,,,,,,,,,,,,,,,,,,,,,,,,,,,,,,,,,,,,,,,,,,,,,,,,,,,,,,,,,,,,,,,,,,,,,,,,,,,,,
1738754475.654803,1738754475.655674,9.000000,0.000000,4321.538574,4348.461426,4252.692383,4301.922852,4349.358887,4362.692383,4364.615234,4546.538574,4535.769043,4557.692383,4497.948730,5659.743652,4311.794922,4260.256348,0.000000,4.000000,78.000000,,,,0.000000,0.000000,0.000000,0.000000,0.000000,0.000000,0.000000,0.000000,0.000000,0.000000,0.000000,0.000000,0.000000,0.000000,0.000000,0.000000,,,,,,,,,,,,,,,,,,,,,,,,,,,,,,,,,,,,,,,,,,,,,,,,,,,,,,,,,,,,,,,,,,,,,,,,,,,,,,,,,,,,,,,,,,,,,,,,,,,,,,,,,,,,,,,,,,,,,,,,,,,,,,,,,
1738754475.662611,1738754475.663382,10.000000,0.000000,4318.077148,4326.153809,4253.461426,4307.179688,4347.436035,4350.000000,4368.205078,4560.000000,4532.948730,4557.051270,4498.974121,5677.179688,4287.692383,4233.846191,0.000000,4.000000,78.000000,,,,0.000000,0.000000,0.000000,0.000000,0.000000,0.000000,0.000000,0.000000,0.000000,0.000000,0.000000,0.000000,0.000000,0.000000,0.000000,0.000000,,,,,,,,,,,,,,,,,,,,,,,,,,,,,,,,,,,,,,,,,,,,,,,,,,,,,,,,,,,,,,,,,,,,,,,,,,,,,,,,,,,,,,,,,,,,,,,,,,,,,,,,,,,,,,,,,,,,,,,,,,,,,,,,,
1738754475.670419,1738754475.671190,11.000000,0.000000,4323.846191,4399.487305,4252.307617,4285.769043,4363.077148,4390.000000,4357.436035,4520.256348,4545.000000,4562.692383,4496.794922,5630.000000,4353.461426,4311.153809,0.000000,4.000000,78.000000,,,,0.000000,0.000000,0.000000,0.000000,0.000000,0.000000,0.000000,0.000000,0.000000,0.000000,0.000000,0.000000,0.000000,0.000000,0.000000,0.000000,,,,,,,,,,,,,,,,,,,,,,,,,,,,,,,,,,,,,,,,,,,,,,,,,,,,,,,,,,,,,,,,,,,,,,,,,,,,,,,,,,,,,,,,,,,,,,,,,,,,,,,,,,,,,,,,,,,,,,,,,,,,,,,,,
1738754475.678227,1738754475.678898,12.000000,0.000000,4326.153809,4394.743652,4252.948730,4287.692383,4359.615234,4386.666504,4356.025879,4519.487305,4546.282227,4561.666504,4498.846191,5625.128418,4365.000000,4311.538574,0.000000,4.000000,78.000000,,,,0.000000,0.000000,0.000000,0.000000,0.000000,0.000000,0.000000,0.000000,0.000000,0.000000,0.000000,0.000000,0.000000,0.000000,0.000000,0.000000,,,,,,,,,,,,,,,,,3.000000,0.000000,0.785314,-0.615967,-0.058289,0.021667,0.061531,-0.976682,0.237822,4.574143,-14.776157,22.663553,,,,,,,,,,,,,,,,,,,,,,,,,,,,,,,,,,,,,,,,,,,,,,,,,,,,,,,,,,,,,,,,,,,,,,,,,,,,,,,,,,,,,,,,,,,,,,,,,,,,,
1738754475.686035,1738754475.686706,13.000000,0.000000,4319.102539,4306.922852,4255.512695,4309.230957,4340.256348,4335.000000,4364.871582,4570.128418,4534.102539,4554.358887,4499.487305,5682.436035,4288.974121,4213.205078,0.000000,4.000000,78.000000,,,,0.000000,0.000000,0.000000,0.000000,0.000000,0.000000,0.000000,0.000000,0.000000,0.000000,0.000000,0.000000,0.000000,0.000000,0.000000,0.000000,,,,,,,,,,,,,,,,,,,,,,,,,,,,,,,,,,,,,,,,,,,,,,,,,,,,,,,,,,,,,,,,,,,,,,,,,,,,,,,,,,,,,,,,,,,,,,,,,,,,,,,,,,,,,,,,,,,,,,,,,,,,,,,,,
1738754475.693843,1738754475.694414,14.000000,0.000000,4321.282227,4343.077148,4254.487305,4300.384766,4350.000000,4357.436035,4362.948730,4553.846191,4537.179688,4555.384766,4496.538574,5665.512695,4304.615234,4247.692383,0.000000,4.000000,78.000000,,,,0.000000,0.000000,0.000000,0.000000,0.000000,0.000000,0.000000,0.000000,0.000000,0.000000,0.000000,0.000000,0.000000,0.000000,0.000000,0.000000,,,,,,,,,,,,,,,,,,,,,,,,,,,,,,,,,,,,,,,,,,,,,,,,,,,,,,,,,,,,0.042416,0.038996,0.019980,0.029425,0.029943,0.023455,0.019738,0.017260,0.015749,0.021002,0.009150,0.024368,0.017603,0.015713,0.020569,0.015471,0.027754,0.054581,0.040539,0.021286,0.021515,0.045356,0.020784,0.022529,0.027966,0.015110,0.011834,0.015870,0.030271,0.021167,0.063503,0.055541,0.045313,0.033272,0.022688,0.013036,0.007811,0.018765,0.030006,0.017176,0.040444,0.021585,0.027305,0.022015,0.019352,0.028294,0.016799,0.019752,0.017375,0.026389,0.018383,0.032557,0.051307,0.012447,0.021575,0.020982,0.026508,0.010969,0.013501,0.026365,0.025450,0.044378,0.032457,0.041926,0.037565,0.009949,0.023933,0.024704,0.038411,0.031329
1738754475.701651,1738754475.702323,15.000000,0.000000,4322.179688,4360.769043,4255.512695,4297.820313,4352.820313,4368.333496,4363.846191,4539.487305,4539.615234,4556.153809,4498.589844,5653.974121,4320.512695,4271.794922,0.000000,4.000000,78.000000,,,,0.000000,0.000000,0.000000,0.000000,0.000000,0.000000,0.000000,0.000000,0.000000,0.000000,0.000000,0.000000,0.000000,0.000000,0.000000,0.000000,,,,,,,,,,,,,,,,,,,,,,,,,,,,,,,,,,,,,,,,,,,,,,,,,,,,,,,,,,,,,,,,,,,,,,,,,,,,,,,,,,,,,,,,,,,,,,,,,,,,,,,,,,,,,,,,,,,,,,,,,,,,,,,,,
1738754475.709459,1738754475.710131,16.000000,0.000000,4320.512695,4336.153809,4257.820313,4306.025879,4345.256348,4351.538574,4366.282227,4552.948730,4536.922852,4553.333496,4500.641113,5668.333496,4303.589844,4243.077148,0.000000,4.000000,78.000000,,,,0.000000,0.000000,0.000000,0.000000,0.000000,0.000000,0.000000,0.000000,0.000000,0.000000,0.000000,0.000000,0.000000,0.000000,0.000000,0.000000,,,,,,,,,,,,,,,,,4.000000,0.000000,0.785314,-0.615967,-0.058289,0.021667,0.059578,-0.968380,0.233427,4.633396,-14.848541,22.830532,,,,,,,,,,,,,,,,,,,,,,,,,,,,,,,,,,,,,,,,,,,,,,,,,,,,,,,,,,,,,,,,,,,,,,,,,,,,,,,,,,,,,,,,,,,,,,,,,,,,,
1738754475.717268,1738754475.718039,17.000000,0.000000,4323.461426,4349.487305,4257.436035,4304.102539,4347.948730,4358.974121,4367.307617,4550.641113,4539.230957,4553.589844,4498.974121,5661.538574,4309.358887,4254.102539,0.000000,4.000000,78.000000,,,,0.000000,0.000000,0.000000,0.000000,0.000000,0.000000,0.000000,0.000000,0.000000,0.000000,0.000000,0.000000,0.000000,0.000000,0.000000,0.000000,,,,,,,,,,,,,,,,,,,,,,,,,,,,,,,,,,,,,,,,,,,,,,,,,,,,,,,,,,,,,,,,,,,,,,,,,,,,,,,,,,,,,,,,,,,,,,,,,,,,,,,,,,,,,,,,,,,,,,,,,,,,,,,,,
1738754475.725076,1738754475.725847,18.000000,0.000000,4321.538574,4343.333496,4255.000000,4303.846191,4348.333496,4356.666504,4368.589844,4551.922852,4538.974121,4555.512695,4496.666504,5661.538574,4305.897461,4256.153809,0.000000,4.000000,78.000000,,,,0.000000,0.000000,0.000000,0.000000,0.000000,0.000000,0.000000,0.000000,0.000000,0.000000,0.000000,0.000000,0.000000,0.000000,0.000000,0.000000,,,,,,,,,,,,,,,,,,,,,,,,,,,,,,,,,,,,,,,,,,,,,,,,,,,,,,,,,,,,,,,,,,,,,,,,,,,,,,,,,,,,,,,,,,,,,,,,,,,,,,,,,,,,,,,,,,,,,,,,,,,,,,,,,
1738754475.732884,1738754475.733755,19.000000,0.000000,4319.743652,4342.051270,4252.820313,4301.538574,4348.974121,4357.948730,4365.512695,4551.153809,4538.589844,4558.717773,4495.128418,5659.615234,4306.794922,4256.538574,0.000000,4.000000,78.000000,,,,0.000000,0.000000,0.000000,0.000000,0.000000,0.000000,0.000000,0.000000,0.000000,0.000000,0.000000,0.000000,0.000000,0.000000,0.000000,0.000000,,,,,,,,,,,,,,,,,,,,,,,,,,,,,,,,,,,,,,,,,,,,,,,,,,,,,,,,,,,,,,,,,,,,,,,,,,,,,,,,,,,,,,,,,,,,,,,,,,,,,,,,,,,,,,,,,,,,,,,,,,,,,,,,,
1738754475.740692,1738754475.741563,20.000000,0.000000,4321.282227,4349.102539,4254.615234,4301.538574,4348.717773,4358.974121,4363.717773,4549.871582,4539.615234,4557.692383,4495.384766,5663.846191,4308.589844,4254.743652,0.000000,4.000000,78.000000,,,,0.000000,0.000000,0.000000,0.000000,0.000000,0.000000,0.000000,0.000000,0.000000,0.000000,0.000000,0.000000,0.000000,0.000000,0.000000,0.000000,,,,,,,,,,,,,,,,,5.000000,0.000000,0.785314,-0.615967,-0.058289,0.021667,0.049811,-0.974728,0.246124,4.453389,-14.947021,22.880812,,,,,,,,,,,,,,,,,,,,,,,,,,,,,,,,,,,,,,,,,,,,,,,,,,,,,,,,,,,,,,,,,,,,,,,,,,,,,,,,,,,,,,,,,,,,,,,,,,,,,
1738754475.748500,1738754475.749372,21.000000,0.000000,4320.769043,4351.025879,4256.153809,4302.307617,4350.641113,4357.436035,4364.102539,4546.666504,4541.538574,4554.743652,4495.897461,5662.563965,4312.948730,4255.384766,0.000000,4.000000,78.000000,,,,0.000000,0.000000,0.000000,0.000000,0.000000,0.000000,0.000000,0.000000,0.000000,0.000000,0.000000,0.000000,0.000000,0.000000,0.000000,0.000000,,,,,,,,,,,,,,,,,,,,,,,,,,,,,,,,,,,,,,,,,,,,,,,,,,,,,,,,,,,,,,,,,,,,,,,,,,,,,,,,,,,,,,,,,,,,,,,,,,,,,,,,,,,,,,,,,,,,,,,,,,,,,,,,,
1738754475.756308,1738754475.757080,22.000000,0.000000,4321.794922,4346.666504,4254.615234,4301.794922,4351.538574,4360.769043,4364.743652,4549.487305,4540.897461,4556.410156,4494.743652,5662.051270,4310.769043,4253.717773,0.000000,4.000000,78.000000,,,,0.000000,0.000000,0.000000,0.000000,0.000000,0.000000,0.000000,0.000000,0.000000,0.000000,0.000000,0.000000,0.000000,0.000000,0.000000,0.000000,,,,,,,,,,,,,,,,,,,,,,,,,,,,,,,,,,,,,,,,,,,,,,,,,,,,,,,,,,,,,,,,,,,,,,,,,,,,,,,,,,,,,,,,,,,,,,,,,,,,,,,,,,,,,,,,,,,,,,,,,,,,,,,,,
1738754475.764116,1738754475.764988,23.000000,0.000000,4323.461426,4345.384766,4252.179688,4300.897461,4349.871582,4361.794922,4364.102539,4553.846191,4539.871582,4559.871582,4494.230957,5666.282227,4309.871582,4256.922852,0.000000,4.000000,78.000000,,,,0.000000,0.000000,0.000000,0.000000,0.000000,0.000000,0.000000,0.000000,0.000000,0.000000,0.000000,0.000000,0.000000,0.000000,0.000000,0.000000,,,,,,,,,,,,,,,,,,,,,,,,,,,,,,,,,,,,,,,,,,,,,,,,,,,,,,,,,,,,,,,,,,,,,,,,,,,,,,,,,,,,,,,,,,,,,,,,,,,,,,,,,,,,,,,,,,,,,,,,,,,,,,,,,
1738754475.771924,1738754475.772796,24.000000,0.000000,4321.282227,4349.102539,4251.922852,4304.230957,4350.256348,4357.820313,4365.897461,4549.871582,4540.384766,4559.230957,4492.948730,5662.307617,4311.025879,4260.897461,0.000000,4.000000,78.000000,,,,0.000000,0.000000,0.000000,0.000000,0.000000,0.000000,0.000000,0.000000,0.000000,0.000000,0.000000,0.000000,0.000000,0.000000,0.000000,0.000000,,,,,,,,,,,,,,,,,6.000000,0.000000,0.785309,-0.615967,-0.058350,0.021667,0.085460,-0.972775,0.243682,4.424717,-14.935652,22.876064,,,,,,,,,,,,,,,,,,,,,,,,,,,,,,,,,,,,,,,,,,,,,,,,,,,,,,,,,,,,,,,,,,,,,,,,,,,,,,,,,,,,,,,,,,,,,,,,,,,,,
1738754475.779732,1738754475.780704,25.000000,0.000000,4320.769043,4346.282227,4251.794922,4309.102539,4350.128418,4356.282227,4366.410156,4550.128418,4537.179688,4555.512695,4491.410156,5662.692383,4306.538574,4252.948730,0.000000,4.000000,78.000000,,,,0.000000,0.000000,0.000000,0.000000,0.000000,0.000000,0.000000,0.000000,0.000000,0.000000,0.000000,0.000000,0.000000,0.000000,0.000000,0.000000,,,,,,,,,,,,,,,,,,,,,,,,,,,,,,,,,,,,,,,,,,,,,,,,,,,,,,,,,,,,,,,,,,,,,,,,,,,,,,,,,,,,,,,,,,,,,,,,,,,,,,,,,,,,,,,,,,,,,,,,,,,,,,,,,
1738754475.787541,1738754475.788512,26.000000,0.000000,4322.820313,4344.230957,4252.692383,4303.077148,4349.615234,4360.641113,4360.256348,4551.922852,4538.077148,4556.538574,4499.358887,5664.358887,4314.358887,4254.615234,0.000000,4.000000,78.000000,,,,0.000000,0.000000,0.000000,0.000000,0.000000,0.000000,0.000000,0.000000,0.000000,0.000000,0.000000,0.000000,0.000000,0.000000,0.000000,0.000000,,,,,,,,,,,,,,,,,,,,,,,,,,,,,,,,,,,,,,,,,,,,,,,,,,,,,,,,,,,,,,,,,,,,,,,,,,,,,,,,,,,,,,,,,,,,,,,,,,,,,,,,,,,,,,,,,,,,,,,,,,,,,,,,,
1738754475.795349,1738754475.796420,27.000000,0.000000,4323.077148,4344.871582,4255.897461,4300.769043,4350.000000,4361.794922,4363.717773,4553.205078,4540.000000,4558.717773,4502.436035,5665.256348,4310.000000,4256.410156,0.000000,4.000000,78.000000,,,,0.000000,0.000000,0.000000,0.000000,0.000000,0.000000,0.000000,0.000000,0.000000,0.000000,0.000000,0.000000,0.000000,0.000000,0.000000,0.000000,,,,,,,,,,,,,,,,,,,,,,,,,,,,,,,,,,,,,,,,,,,,,,,,,,,,,,,,,,,,,,,,,,,,,,,,,,,,,,,,,,,,,,,,,,,,,,,,,,,,,,,,,,,,,,,,,,,,,,,,,,,,,,,,,
1738754475.803157,1738754475.804229,28.000000,0.000000,4320.897461,4348.205078,4254.487305,4303.974121,4350.897461,4362.692383,4368.974121,4550.641113,4539.102539,4558.461426,4496.282227,5662.820313,4303.717773,4253.333496,0.000000,4.000000,78.000000,,,,0.000000,0.000000,0.000000,0.000000,0.000000,0.000000,0.000000,0.000000,0.000000,0.000000,0.000000,0.000000,0.000000,0.000000,0.000000,0.000000,,,,,,,,,,,,,,,,,7.000000,0.000000,0.785254,-0.616028,-0.058411,0.021790,0.062996,-0.984007,0.230985,4.498912,-15.042087,22.938457,,,,,,,,,,,,,,,,,,,,,,,,,,,,,,,,,,,,,,,,,,,,,,,,,,,,,,,,,,,,,,,,,,,,,,,,,,,,,,,,,,,,,,,,,,,,,,,,,,,,,
1738754475.810965,1738754475.812137,29.000000,0.000000,4319.615234,4348.846191,4252.436035,4301.922852,4350.384766,4361.153809,4364.487305,4548.717773,4541.282227,4558.205078,4495.512695,5661.538574,4311.666504,4254.102539,0.000000,4.000000,78.000000,,,,0.000000,0.000000,0.000000,0.000000,0.000000,0.000000,0.000000,0.000000,0.000000,0.000000,0.000000,0.000000,0.000000,0.000000,0.000000,0.000000,,,,,,,,,,,,,,,,,,,,,,,,,,,,,,,,,,,,,,,,,,,,,,,,,,,,,,,,,,,,,,,,,,,,,,,,,,,,,,,,,,,,,,,,,,,,,,,,,,,,,,,,,,,,,,,,,,,,,,,,,,,,,,,,,
1738754475.818773,1738754475.819945,30.000000,0.000000,4320.256348,4347.179688,4253.333496,4302.692383,4349.615234,4358.589844,4365.897461,4552.563965,4540.769043,4557.820313,4496.025879,5667.820313,4307.692383,4254.230957,0.000000,4.000000,78.000000,,,,0.000000,0.000000,0.000000,0.000000,0.000000,0.000000,0.000000,0.000000,0.000000,0.000000,0.000000,0.000000,0.000000,0.000000,0.000000,0.000000,1.000000,0.000000,0.000000,0.000000,0.000000,0.000000,0.000000,0.000000,0.000000,0.000000,0.000000,0.000000,0.000000,0.000000,0.000000,0.000000,,,,,,,,,,,,,,,,,,,,,,,,,,,,,,,,,,,,,,,,,,,,0.042362,0.045015,0.020541,0.032228,0.028866,0.027127,0.022359,0.018245,0.016171,0.026029,0.010141,0.024657,0.019903,0.013518,0.022065,0.016735,0.028497,0.053939,0.043131,0.022180,0.018501,0.048335,0.018490,0.025734,0.025835,0.014873,0.014406,0.014698,0.028463,0.020028,0.052974,0.054358,0.038519,0.032306,0.021773,0.010584,0.008220,0.021172,0.030966,0.016755,0.043155,0.021471,0.027658,0.021948,0.021720,0.026916,0.014837,0.021932,0.017745,0.026074,0.019019,0.030503,0.050562,0.011236,0.023153,0.024088,0.029422,0.010986,0.016182,0.027135,0.029256,0.044350,0.030881,0.039189,0.035961,0.010619,0.023764,0.026364,0.038806,0.036394
1738754475.826581,1738754475.827853,31.000000,0.000000,4321.282227,4347.948730,4254.487305,4303.717773,4349.615234,4359.487305,4366.025879,4552.307617,4539.487305,4560.641113,4497.179688,5666.025879,4307.948730,4258.846191,0.000000,4.000000,78.000000,,,,0.000000,0.000000,0.000000,0.000000,0.000000,0.000000,0.000000,0.000000,0.000000,0.000000,0.000000,0.000000,0.000000,0.000000,0.000000,0.000000,,,,,,,,,,,,,,,,,,,,,,,,,,,,,,,,,,,,,,,,,,,,,,,,,,,,,,,,,,,,,,,,,,,,,,,,,,,,,,,,,,,,,,,,,,,,,,,,,,,,,,,,,,,,,,,,,,,,,,,,,,,,,,,,,
1738754475.834389,1738754475.835661,32.000000,0.000000,4324.487305,4345.641113,4257.179688,4302.820313,4349.743652,4358.333496,4363.717773,4549.871582,4538.077148,4561.025879,4497.948730,5663.717773,4309.487305,4258.205078,0.000000,4.000000,78.000000,,,,0.000000,0.000000,0.000000,0.000000,0.000000,0.000000,0.000000,0.000000,0.000000,0.000000,0.000000,0.000000,0.000000,0.000000,0.000000,0.000000,,,,,,,,,,,,,,,,,8.000000,0.000000,0.785306,-0.615967,-0.058350,0.021790,0.052741,-0.976682,0.244170,4.465687,-15.121211,22.811279,,,,,,,,,,,,,,,,,,,,,,,,,,,,,,,,,,,,,,,,,,,,,,,,,,,,,,,,,,,,,,,,,,,,,,,,,,,,,,,,,,,,,,,,,,,,,,,,,,,,,
1738754475.842197,1738754475.843369,33.000000,0.000000,4323.974121,4348.333496,4256.666504,4301.922852,4350.000000,4361.666504,4364.871582,4547.179688,4538.974121,4556.410156,4496.282227,5665.897461,4306.153809,4253.846191,0.000000,4.000000,78.000000,,,,0.000000,0.000000,0.000000,0.000000,0.000000,0.000000,0.000000,0.000000,0.000000,0.000000,0.000000,0.000000,0.000000,0.000000,0.000000,0.000000,,,,,,,,,,,,,,,,,,,,,,,,,,,,,,,,,,,,,,,,,,,,,,,,,,,,,,,,,,,,,,,,,,,,,,,,,,,,,,,,,,,,,,,,,,,,,,,,,,,,,,,,,,,,,,,,,,,,,,,,,,,,,,,,,
1738754475.850005,1738754475.851177,34.000000,0.000000,4319.358887,4350.384766,4254.358887,4301.410156,4350.512695,4361.538574,4365.000000,4546.282227,4541.794922,4556.538574,4497.179688,5665.384766,4309.615234,4256.922852,0.000000,4.000000,78.000000,,,,0.000000,0.000000,0.000000,0.000000,0.000000,0.000000,0.000000,0.000000,0.000000,0.000000,0.000000,0.000000,0.000000,0.000000,0.000000,0.000000,,,,,,,,,,,,,,,,,,,,,,,,,,,,,,,,,,,,,,,,,,,,,,,,,,,,,,,,,,,,,,,,,,,,,,,,,,,,,,,,,,,,,,,,,,,,,,,,,,,,,,,,,,,,,,,,,,,,,,,,,,,,,,,,,
1738754475.857813,1738754475.858885,35.000000,0.000000,4319.230957,4345.000000,4253.589844,4302.692383,4353.589844,4357.563965,4368.974121,4549.230957,4539.358887,4558.846191,4497.436035,5662.820313,4307.563965,4254.230957,0.000000,4.000000,78.000000,,,,0.000000,0.000000,0.000000,0.000000,0.000000,0.000000,0.000000,0.000000,0.000000,0.000000,0.000000,0.000000,0.000000,0.000000,0.000000,0.000000,,,,,,,,,,,,,,,,,,,,,,,,,,,,,,,,,,,,,,,,,,,,,,,,,,,,,,,,,,,,,,,,,,,,,,,,,,,,,,,,,,,,,,,,,,,,,,,,,,,,,,,,,,,,,,,,,,,,,,,,,,,,,,,,,
1738754475.865621,1738754475.866693,36.000000,0.000000,4322.307617,4347.692383,4252.436035,4302.307617,4353.717773,4360.128418,4367.436035,4548.846191,4539.230957,4556.922852,4497.307617,5657.179688,4311.538574,4253.717773,0.000000,4.000000,78.000000,,,,0.000000,0.000000,0.000000,0.000000,0.000000,0.000000,0.000000,0.000000,0.000000,0.000000,0.000000,0.000000,0.000000,0.000000,0.000000,0.000000,,,,,,,,,,,,,,,,,9.000000,0.000000,0.785315,-0.615967,-0.058228,0.021790,0.067391,-0.978635,0.230009,4.552452,-15.192424,22.730150,,,,,,,,,,,,,,,,,,,,,,,,,,,,,,,,,,,,,,,,,,,,,,,,,,,,,,,,,,,,,,,,,,,,,,,,,,,,,,,,,,,,,,,,,,,,,,,,,,,,,
1738754475.873430,1738754475.874401,37.000000,0.000000,4322.179688,4351.282227,4252.692383,4302.436035,4350.000000,4361.025879,4362.820313,4550.769043,4539.743652,4557.051270,4497.179688,5663.974121,4312.307617,4255.769043,0.000000,4.000000,78.000000,,,,0.000000,0.000000,0.000000,0.000000,0.000000,0.000000,0.000000,0.000000,0.000000,0.000000,0.000000,0.000000,0.000000,0.000000,0.000000,0.000000,,,,,,,,,,,,,,,,,,,,,,,,,,,,,,,,,,,,,,,,,,,,,,,,,,,,,,,,,,,,,,,,,,,,,,,,,,,,,,,,,,,,,,,,,,,,,,,,,,,,,,,,,,,,,,,,,,,,,,,,,,,,,,,,,
1738754475.881238,1738754475.882209,38.000000,0.000000,4319.743652,4348.717773,4252.436035,4302.179688,4349.871582,4360.641113,4365.384766,4551.794922,4537.820313,4560.128418,4495.641113,5671.282227,4308.205078,4255.512695,0.000000,4.000000,78.000000,,,,0.000000,0.000000,0.000000,0.000000,0.000000,0.000000,0.000000,0.000000,0.000000,0.000000,0.000000,0.000000,0.000000,0.000000,0.000000,0.000000,,,,,,,,,,,,,,,,,,,,,,,,,,,,,,,,,,,,,,,,,,,,,,,,,,,,,,,,,,,,,,,,,,,,,,,,,,,,,,,,,,,,,,,,,,,,,,,,,,,,,,,,,,,,,,,,,,,,,,,,,,,,,,,,,
1738754475.889046,1738754475.889917,39.000000,0.000000,4320.000000,4348.461426,4252.692383,4301.025879,4351.025879,4360.769043,4365.641113,4547.948730,4538.333496,4557.948730,4496.410156,5663.077148,4311.794922,4257.307617,0.000000,4.000000,78.000000,,,,0.000000,0.000000,0.000000,0.000000,0.000000,0.000000,0.000000,0.000000,0.000000,0.000000,0.000000,0.000000,0.000000,0.000000,0.000000,0.000000,,,,,,,,,,,,,,,,,,,,,,,,,,,,,,,,,,,,,,,,,,,,,,,,,,,,,,,,,,,,,,,,,,,,,,,,,,,,,,,,,,,,,,,,,,,,,,,,,,,,,,,,,,,,,,,,,,,,,,,,,,,,,,,,,
1738754475.896854,1738754475.897725,40.000000,0.000000,4322.563965,4350.769043,4253.077148,4302.948730,4350.641113,4360.769043,4365.769043,4549.615234,4538.589844,4554.871582,4494.358887,5662.820313,4307.179688,4254.615234,0.000000,4.000000,78.000000,,,,0.000000,0.000000,0.000000,0.000000,0.000000,0.000000,0.000000,0.000000,0.000000,0.000000,0.000000,0.000000,0.000000,0.000000,0.000000,0.000000,,,,,,,,,,,,,,,,,10.000000,0.000000,0.785263,-0.616028,-0.058289,0.021790,0.053717,-0.973263,0.237822,4.463873,-15.206514,22.707136,,,,,,,,,,,,,,,,,,,,,,,,,,,,,,,,,,,,,,,,,,,,,,,,,,,,,,,,,,,,,,,,,,,,,,,,,,,,,,,,,,,,,,,,,,,,,,,,,,,,,
1738754475.904662,1738754475.905433,41.000000,0.000000,4321.922852,4353.461426,4253.717773,4300.256348,4351.538574,4360.897461,4365.384766,4549.871582,4539.743652,4557.179688,4492.948730,5665.512695,4310.512695,4256.666504,0.000000,4.000000,78.000000,,,,0.000000,0.000000,0.000000,0.000000,0.000000,0.000000,0.000000,0.000000,0.000000,0.000000,0.000000,0.000000,0.000000,0.000000,0.000000,0.000000,,,,,,,,,,,,,,,,,,,,,,,,,,,,,,,,,,,,,,,,,,,,,,,,,,,,,,,,,,,,,,,,,,,,,,,,,,,,,,,,,,,,,,,,,,,,,,,,,,,,,,,,,,,,,,,,,,,,,,,,,,,,,,,,,
1738754475.912470,1738754475.913241,42.000000,0.000000,4321.794922,4351.153809,4254.743652,4299.743652,4352.051270,4359.102539,4364.358887,4548.589844,4540.128418,4558.077148,4495.000000,5663.717773,4313.717773,4257.820313,0.000000,4.000000,78.000000,,,,0.000000,0.000000,0.000000,0.000000,0.000000,0.000000,0.000000,0.000000,0.000000,0.000000,0.000000,0.000000,0.000000,0.000000,0.000000,0.000000,,,,,,,,,,,,,,,,,,,,,,,,,,,,,,,,,,,,,,,,,,,,,,,,,,,,,,,,,,,,,,,,,,,,,,,,,,,,,,,,,,,,,,,,,,,,,,,,,,,,,,,,,,,,,,,,,,,,,,,,,,,,,,,,,
1738754475.920278,1738754475.920950,43.000000,0.000000,4323.589844,4346.922852,4253.717773,4304.358887,4352.692383,4360.000000,4366.666504,4551.922852,4538.717773,4556.538574,4497.563965,5664.615234,4308.077148,4255.641113,0.000000,4.000000,78.000000,,,,0.000000,0.000000,0.000000,0.000000,0.000000,0.000000,0.000000,0.000000,0.000000,0.000000,0.000000,0.000000,0.000000,0.000000,0.000000,0.000000,,,,,,,,,,,,,,,,,,,,,,,,,,,,,,,,,,,,,,,,,,,,,,,,,,,,,,,,,,,,,,,,,,,,,,,,,,,,,,,,,,,,,,,,,,,,,,,,,,,,,,,,,,,,,,,,,,,,,,,,,,,,,,,,,
1738754475.928086,1738754475.928757,44.000000,0.000000,4322.563965,4348.077148,4253.974121,4305.897461,4353.461426,4362.051270,4366.282227,4550.384766,4538.974121,4556.153809,4499.102539,5665.000000,4312.179688,4258.846191,0.000000,4.000000,78.000000,,,,0.000000,0.000000,0.000000,0.000000,0.000000,0.000000,0.000000,0.000000,0.000000,0.000000,0.000000,0.000000,0.000000,0.000000,0.000000,0.000000,,,,,,,,,,,,,,,,,11.000000,0.000000,0.785218,-0.616089,-0.058228,0.021851,0.067391,-0.975217,0.238310,4.434153,-15.302529,22.803089,,,,,,,,,,,,,,,,,,,,,,,,,,,,,,,,,,,,,,,,,,,,,,,,,,,,,,,,,,,,,,,,,,,,,,,,,,,,,,,,,,,,,,,,,,,,,,,,,,,,,
1738754475.935894,1738754475.936466,45.000000,0.000000,4322.563965,4349.230957,4254.230957,4306.538574,4351.538574,4360.512695,4365.128418,4549.230957,4537.563965,4555.512695,4496.666504,5666.282227,4310.769043,4258.077148,0.000000,4.000000,78.000000,,,,0.000000,0.000000,0.000000,0.000000,0.000000,0.000000,0.000000,0.000000,0.000000,0.000000,0.000000,0.000000,0.000000,0.000000,0.000000,0.000000,,,,,,,,,,,,,,,,,,,,,,,,,,,,,,,,,,,,,,,,,,,,,,,,,,,,,,,,,,,,,,,,,,,,,,,,,,,,,,,,,,,,,,,,,,,,,,,,,,,,,,,,,,,,,,,,,,,,,,,,,,,,,,,,,
1738754475.943703,1738754475.944274,46.000000,0.000000,4321.922852,4349.487305,4253.846191,4303.846191,4350.512695,4358.333496,4363.461426,4550.128418,4537.820313,4558.077148,4496.538574,5662.820313,4313.974121,4259.487305,0.000000,4.000000,78.000000,,,,0.000000,0.000000,0.000000,0.000000,0.000000,0.000000,0.000000,0.000000,0.000000,0.000000,0.000000,0.000000,0.000000,0.000000,0.000000,0.000000,,,,,,,,,,,,,,,,,,,,,,,,,,,,,,,,,,,,,,,,,,,,,,,,,,,,,,,,,,,,0.041411,0.050348,0.021245,0.036580,0.028337,0.034479,0.032223,0.022962,0.023211,0.056019,0.012887,0.026618,0.021516,0.013225,0.024137,0.019402,0.027979,0.048786,0.044391,0.024650,0.015197,0.049542,0.017793,0.029186,0.024119,0.016886,0.018219,0.015597,0.027194,0.026107,0.048127,0.057983,0.034717,0.030224,0.020590,0.010583,0.010805,0.024159,0.032161,0.024673,0.045325,0.019914,0.029012,0.021281,0.023892,0.024205,0.013277,0.024875,0.018055,0.026137,0.020800,0.030924,0.052371,0.010332,0.025209,0.029122,0.037272,0.014998,0.023818,0.036011,0.037108,0.054375,0.037054,0.042856,0.053552,0.016155,0.033064,0.036165,0.045260,0.069805
1738754475.951511,1738754475.951982,47.000000,0.000000,4319.871582,4350.128418,4254.487305,4303.589844,4349.743652,4360.256348,4367.179688,4549.871582,4538.974121,4560.128418,4497.692383,5661.410156,4316.794922,4259.230957,0.000000,4.000000,78.000000,,,,0.000000,0.000000,0.000000,0.000000,0.000000,0.000000,0.000000,0.000000,0.000000,0.000000,0.000000,0.000000,0.000000,0.000000,0.000000,0.000000,,,,,,,,,,,,,,,,,,,,,,,,,,,,,,,,,,,,,,,,,,,,,,,,,,,,,,,,,,,,,,,,,,,,,,,,,,,,,,,,,,,,,,,,,,,,,,,,,,,,,,,,,,,,,,,,,,,,,,,,,,,,,,,,,
1738754475.959319,1738754475.959890,48.000000,0.000000,4320.897461,4349.487305,4253.333496,4306.282227,4350.256348,4361.666504,4370.256348,4551.794922,4537.820313,4556.410156,4495.897461,5668.205078,4306.410156,4255.769043,0.000000,4.000000,78.000000,,,,0.000000,0.000000,0.000000,0.000000,0.000000,0.000000,0.000000,0.000000,0.000000,0.000000,0.000000,0.000000,0.000000,0.000000,0.000000,0.000000,,,,,,,,,,,,,,,,,12.000000,0.000000,0.785270,-0.616028,-0.058167,0.021851,0.070321,-0.977170,0.238799,4.424071,-15.155610,22.822781,,,,,,,,,,,,,,,,,,,,,,,,,,,,,,,,,,,,,,,,,,,,,,,,,,,,,,,,,,,,,,,,,,,,,,,,,,,,,,,,,,,,,,,,,,,,,,,,,,,,,
1738754475.967127,1738754475.967698,49.000000,0.000000,4321.410156,4350.384766,4253.333496,4301.025879,4352.563965,4358.333496,4364.358887,4551.153809,4540.256348,4555.769043,4495.897461,5664.615234,4311.666504,4259.615234,0.000000,4.000000,78.000000,,,,0.000000,0.000000,0.000000,0.000000,0.000000,0.000000,0.000000,0.000000,0.000000,0.000000,0.000000,0.000000,0.000000,0.000000,0.000000,0.000000,,,,,,,,,,,,,,,,,,,,,,,,,,,,,,,,,,,,,,,,,,,,,,,,,,,,,,,,,,,,,,,,,,,,,,,,,,,,,,,,,,,,,,,,,,,,,,,,,,,,,,,,,,,,,,,,,,,,,,,,,,,,,,,,,
1738754475.974935,1738754475.975606,50.000000,0.000000,4322.563965,4349.102539,4255.256348,4301.666504,4352.820313,4358.717773,4364.871582,4552.179688,4538.205078,4558.333496,4496.538574,5663.077148,4312.948730,4258.461426,0.000000,4.000000,78.000000,,,,0.000000,0.000000,0.000000,0.000000,0.000000,0.000000,0.000000,0.000000,0.000000,0.000000,0.000000,0.000000,0.000000,0.000000,0.000000,0.000000,,,,,,,,,,,,,,,,,,,,,,,,,,,,,,,,,,,,,,,,,,,,,,,,,,,,,,,,,,,,,,,,,,,,,,,,,,,,,,,,,,,,,,,,,,,,,,,,,,,,,,,,,,,,,,,,,,,,,,,,,,,,,,,,,
1738754475.982743,1738754475.983414,51.000000,0.000000,4322.563965,4347.820313,4254.615234,4305.256348,4352.051270,4362.307617,4365.256348,4551.538574,4536.666504,4558.846191,4496.538574,5666.666504,4309.102539,4256.794922,0.000000,4.000000,78.000000,,,,0.000000,0.000000,0.000000,0.000000,0.000000,0.000000,0.000000,0.000000,0.000000,0.000000,0.000000,0.000000,0.000000,0.000000,0.000000,0.000000,,,,,,,,,,,,,,,,,,,,,,,,,,,,,,,,,,,,,,,,,,,,,,,,,,,,,,,,,,,,,,,,,,,,,,,,,,,,,,,,,,,,,,,,,,,,,,,,,,,,,,,,,,,,,,,,,,,,,,,,,,,,,,,,,
1738754475.990551,1738754475.991322,52.000000,0.000000,4321.922852,4348.333496,4253.461426,4301.410156,4350.384766,4363.333496,4363.077148,4548.717773,4539.743652,4558.846191,4495.641113,5664.743652,4316.410156,4258.846191,0.000000,4.000000,78.000000,,,,0.000000,0.000000,0.000000,0.000000,0.000000,0.000000,0.000000,0.000000,0.000000,0.000000,0.000000,0.000000,0.000000,0.000000,0.000000,0.000000,,,,,,,,,,,,,,,,,13.000000,0.000000,0.785219,-0.616089,-0.058228,0.021790,0.063973,-0.986937,0.230985,4.514997,-15.223382,22.873835,,,,,,,,,,,,,,,,,,,,,,,,,,,,,,,,,,,,,,,,,,,,,,,,,,,,,,,,,,,,,,,,,,,,,,,,,,,,,,,,,,,,,,,,,,,,,,,,,,,,,
1738754475.998359,1738754475.999131,53.000000,0.000000,4323.333496,4350.641113,4255.384766,4301.410156,4349.487305,4361.794922,4368.077148,4551.153809,4538.205078,4557.051270,4495.512695,5665.897461,4312.948730,4256.282227,0.000000,4.000000,78.000000,,,,0.000000,0.000000,0.000000,0.000000,0.000000,0.000000,0.000000,0.000000,0.000000,0.000000,0.000000,0.000000,0.000000,0.000000,0.000000,0.000000,,,,,,,,,,,,,,,,,,,,,,,,,,,,,,,,,,,,,,,,,,,,,,,,,,,,,,,,,,,,,,,,,,,,,,,,,,,,,,,,,,,,,,,,,,,,,,,,,,,,,,,,,,,,,,,,,,,,,,,,,,,,,,,,,
1738754476.006167,1738754476.007039,54.000000,0.000000,4323.974121,4355.641113,4254.230957,4302.179688,4350.512695,4359.487305,4368.333496,4548.333496,4538.717773,4556.153809,4496.922852,5665.512695,4310.128418,4258.589844,0.000000,4.000000,78.000000,,,,0.000000,0.000000,0.000000,0.000000,0.000000,0.000000,0.000000,0.000000,0.000000,0.000000,0.000000,0.000000,0.000000,0.000000,0.000000,0.000000,,,,,,,,,,,,,,,,,,,,,,,,,,,,,,,,,,,,,,,,,,,,,,,,,,,,,,,,,,,,,,,,,,,,,,,,,,,,,,,,,,,,,,,,,,,,,,,,,,,,,,,,,,,,,,,,,,,,,,,,,,,,,,,,,
1738754476.013976,1738754476.014847,55.000000,0.000000,4323.461426,4351.410156,4252.179688,4302.179688,4352.692383,4359.743652,4365.897461,4546.538574,4540.512695,4557.563965,4496.794922,5666.922852,4309.102539,4257.692383,0.000000,4.000000,78.000000,,,,0.000000,0.000000,0.000000,0.000000,0.000000,0.000000,0.000000,0.000000,0.000000,0.000000,0.000000,0.000000,0.000000,0.000000,0.000000,0.000000,,,,,,,,,,,,,,,,,,,,,,,,,,,,,,,,,,,,,,,,,,,,,,,,,,,,,,,,,,,,,,,,,,,,,,,,,,,,,,,,,,,,,,,,,,,,,,,,,,,,,,,,,,,,,,,,,,,,,,,,,,,,,,,,,
1738754476.021783,1738754476.022755,56.000000,0.000000,4321.666504,4345.897461,4253.077148,4303.205078,4351.666504,4359.743652,4364.743652,4548.846191,4538.717773,4558.461426,4495.256348,5665.769043,4310.000000,4254.487305,0.000000,4.000000,78.000000,,,,0.000000,0.000000,0.000000,0.000000,0.000000,0.000000,0.000000,0.000000,0.000000,0.000000,0.000000,0.000000,0.000000,0.000000,0.000000,0.000000,,,,,,,,,,,,,,,,,14.000000,0.000000,0.785167,-0.616150,-0.058289,0.021790,0.063484,-0.962520,0.229520,4.580164,-15.351045,22.769785,,,,,,,,,,,,,,,,,,,,,,,,,,,,,,,,,,,,,,,,,,,,,,,,,,,,,,,,,,,,,,,,,,,,,,,,,,,,,,,,,,,,,,,,,,,,,,,,,,,,,
1738754476.029592,1738754476.030563,57.000000,0.000000,4321.538574,4348.846191,4255.256348,4301.282227,4347.820313,4357.820313,4362.692383,4547.692383,4539.358887,4556.922852,4496.025879,5661.153809,4314.487305,4257.436035,0.000000,4.000000,78.000000,,,,0.000000,0.000000,0.000000,0.000000,0.000000,0.000000,0.000000,0.000000,0.000000,0.000000,0.000000,0.000000,0.000000,0.000000,0.000000,0.000000,,,,,,,,,,,,,,,,,,,,,,,,,,,,,,,,,,,,,,,,,,,,,,,,,,,,,,,,,,,,,,,,,,,,,,,,,,,,,,,,,,,,,,,,,,,,,,,,,,,,,,,,,,,,,,,,,,,,,,,,,,,,,,,,,
1738754476.037400,1738754476.038271,58.000000,0.000000,4322.692383,4347.692383,4256.794922,4302.051270,4349.615234,4360.000000,4366.538574,4549.743652,4538.846191,4555.384766,4495.897461,5665.000000,4303.974121,4254.230957,0.000000,4.000000,78.000000,,,,0.000000,0.000000,0.000000,0.000000,0.000000,0.000000,0.000000,0.000000,0.000000,0.000000,0.000000,0.000000,0.000000,0.000000,0.000000,0.000000,,,,,,,,,,,,,,,,,,,,,,,,,,,,,,,,,,,,,,,,,,,,,,,,,,,,,,,,,,,,,,,,,,,,,,,,,,,,,,,,,,,,,,,,,,,,,,,,,,,,,,,,,,,,,,,,,,,,,,,,,,,,,,,,,
1738754476.045208,1738754476.046079,59.000000,0.000000,4320.641113,4346.025879,4254.487305,4304.102539,4352.179688,4363.717773,4365.384766,4550.000000,4537.051270,4557.436035,4495.384766,5662.051270,4304.230957,4256.282227,0.000000,4.000000,78.000000,,,,0.000000,0.000000,0.000000,0.000000,0.000000,0.000000,0.000000,0.000000,0.000000,0.000000,0.000000,0.000000,0.000000,0.000000,0.000000,0.000000,,,,,,,,,,,,,,,,,,,,,,,,,,,,,,,,,,,,,,,,,,,,,,,,,,,,,,,,,,,,,,,,,,,,,,,,,,,,,,,,,,,,,,,,,,,,,,,,,,,,,,,,,,,,,,,,,,,,,,,,,,,,,,,,,
1738754476.053016,1738754476.053787,60.000000,0.000000,4319.743652,4347.820313,4251.922852,4303.077148,4351.666504,4360.641113,4363.589844,4549.615234,4538.333496,4557.563965,4497.179688,5658.717773,4310.897461,4259.615234,0.000000,4.000000,78.000000,,,,0.000000,0.000000,0.000000,0.000000,0.000000,0.000000,0.000000,0.000000,0.000000,0.000000,0.000000,0.000000,0.000000,0.000000,0.000000,0.000000,,,,,,,,,,,,,,,,,15.000000,0.000000,0.785122,-0.616211,-0.058289,0.021667,0.064461,-0.980588,0.231474,4.605481,-15.365940,22.792807,,,,,,,,,,,,,,,,,,,,,,,,,,,,,,,,,,,,,,,,,,,,,,,,,,,,,,,,,,,,,,,,,,,,,,,,,,,,,,,,,,,,,,,,,,,,,,,,,,,,,
1738754476.060824,1738754476.061595,61.000000,0.000000,4322.563965,4350.384766,4252.692383,4300.512695,4349.743652,4358.974121,4367.948730,4551.410156,4538.717773,4557.307617,4496.153809,5663.333496,4306.153809,4256.025879,0.000000,4.000000,78.000000,,,,0.000000,0.000000,0.000000,0.000000,0.000000,0.000000,0.000000,0.000000,0.000000,0.000000,0.000000,0.000000,0.000000,0.000000,0.000000,0.000000,,,,,,,,,,,,,,,,,,,,,,,,,,,,,,,,,,,,,,,,,,,,,,,,,,,,,,,,,,,,,,,,,,,,,,,,,,,,,,,,,,,,,,,,,,,,,,,,,,,,,,,,,,,,,,,,,,,,,,,,,,,,,,,,,
1738754476.068632,1738754476.069303,62.000000,0.000000,4323.077148,4352.436035,4252.948730,4300.384766,4350.128418,4361.153809,4367.436035,4550.897461,4537.692383,4557.563965,4495.512695,5660.641113,4308.461426,4257.051270,0.000000,4.000000,78.000000,,,,0.000000,0.000000,0.000000,0.000000,0.000000,0.000000,0.000000,0.000000,0.000000,0.000000,0.000000,0.000000,0.000000,0.000000,0.000000,0.000000,,,,,,,,,,,,,,,,,,,,,,,,,,,,,,,,,,,,,,,,,,,,,,,,,,,,,,,,,,,,0.040167,0.053944,0.021574,0.041357,0.028482,0.050937,0.056910,0.038868,0.045614,0.146614,0.017251,0.030997,0.022231,0.014928,0.026201,0.024407,0.028557,0.043703,0.044016,0.031151,0.012855,0.048483,0.017923,0.033482,0.025300,0.024579,0.025425,0.022438,0.031349,0.051529,0.049764,0.069292,0.033964,0.028362,0.019494,0.016260,0.018811,0.029588,0.036970,0.052896,0.045675,0.017222,0.031813,0.020717,0.026179,0.022244,0.011945,0.028363,0.018450,0.026503,0.023864,0.033012,0.055799,0.009939,0.027659,0.037659,0.052537,0.027915,0.042665,0.067292,0.053997,0.090368,0.060229,0.062736,0.117529,0.033617,0.064134,0.065573,0.071999,0.174213
1738754476.076440,1738754476.077111,63.000000,0.000000,4322.436035,4347.692383,4254.871582,4306.153809,4351.025879,4359.358887,4367.436035,4552.307617,4537.948730,4555.384766,4495.512695,5660.256348,4310.000000,4255.512695,0.000000,4.000000,78.000000,,,,0.000000,0.000000,0.000000,0.000000,0.000000,0.000000,0.000000,0.000000,0.000000,0.000000,0.000000,0.000000,0.000000,0.000000,0.000000,0.000000,,,,,,,,,,,,,,,,,,,,,,,,,,,,,,,,,,,,,,,,,,,,,,,,,,,,,,,,,,,,,,,,,,,,,,,,,,,,,,,,,,,,,,,,,,,,,,,,,,,,,,,,,,,,,,,,,,,,,,,,,,,,,,,,,
1738754476.084248,1738754476.084819,64.000000,0.000000,4321.922852,4346.282227,4259.102539,4304.615234,4350.128418,4356.922852,4366.538574,4551.538574,4540.128418,4555.000000,4495.128418,5662.307617,4313.077148,4255.641113,0.000000,4.000000,78.000000,,,,0.000000,0.000000,0.000000,0.000000,0.000000,0.000000,0.000000,0.000000,0.000000,0.000000,0.000000,0.000000,0.000000,0.000000,0.000000,0.000000,,,,,,,,,,,,,,,,,16.000000,0.000000,0.785113,-0.616211,-0.058411,0.021667,0.071298,-0.973263,0.238310,4.594933,-15.279346,22.880192,,,,,,,,,,,,,,,,,,,,,,,,,,,,,,,,,,,,,,,,,,,,,,,,,,,,,,,,,,,,,,,,,,,,,,,,,,,,,,,,,,,,,,,,,,,,,,,,,,,,,
1738754476.092056,1738754476.092627,65.000000,0.000000,4320.512695,4348.846191,4257.436035,4300.641113,4351.282227,4357.563965,4364.871582,4551.410156,4539.230957,4556.538574,4494.230957,5663.717773,4310.384766,4256.666504,0.000000,4.000000,78.000000,,,,0.000000,0.000000,0.000000,0.000000,0.000000,0.000000,0.000000,0.000000,0.000000,0.000000,0.000000,0.000000,0.000000,0.000000,0.000000,0.000000,,,,,,,,,,,,,,,,,,,,,,,,,,,,,,,,,,,,,,,,,,,,,,,,,,,,,,,,,,,,,,,,,,,,,,,,,,,,,,,,,,,,,,,,,,,,,,,,,,,,,,,,,,,,,,,,,,,,,,,,,,,,,,,,,
1738754476.099864,1738754476.100335,66.000000,0.000000,4321.025879,4347.948730,4251.666504,4303.077148,4351.794922,4357.307617,4364.871582,4551.410156,4537.948730,4557.692383,4491.922852,5665.256348,4306.153809,4255.256348,0.000000,4.000000,78.000000,,,,0.000000,0.000000,0.000000,0.000000,0.000000,0.000000,0.000000,0.000000,0.000000,0.000000,0.000000,0.000000,0.000000,0.000000,0.000000,0.000000,,,,,,,,,,,,,,,,,,,,,,,,,,,,,,,,,,,,,,,,,,,,,,,,,,,,,,,,,,,,,,,,,,,,,,,,,,,,,,,,,,,,,,,,,,,,,,,,,,,,,,,,,,,,,,,,,,,,,,,,,,,,,,,,,
1738754476.107673,1738754476.108143,67.000000,0.000000,4322.307617,4348.717773,4252.692383,4303.461426,4350.128418,4358.077148,4362.820313,4547.307617,4541.538574,4558.846191,4492.307617,5659.743652,4313.333496,4257.307617,0.000000,4.000000,78.000000,,,,0.000000,0.000000,0.000000,0.000000,0.000000,0.000000,0.000000,0.000000,0.000000,0.000000,0.000000,0.000000,0.000000,0.000000,0.000000,0.000000,,,,,,,,,,,,,,,,,,,,,,,,,,,,,,,,,,,,,,,,,,,,,,,,,,,,,,,,,,,,,,,,,,,,,,,,,,,,,,,,,,,,,,,,,,,,,,,,,,,,,,,,,,,,,,,,,,,,,,,,,,,,,,,,,
1738754476.115481,1738754476.115851,68.000000,0.000000,4321.282227,4347.948730,4255.128418,4305.256348,4349.871582,4361.282227,4363.205078,4549.230957,4538.717773,4557.692383,4492.436035,5660.256348,4307.436035,4254.743652,0.000000,4.000000,78.000000,,,,0.000000,0.000000,0.000000,0.000000,0.000000,0.000000,0.000000,0.000000,0.000000,0.000000,0.000000,0.000000,0.000000,0.000000,0.000000,0.000000,,,,,,,,,,,,,,,,,17.000000,0.000000,0.785169,-0.616150,-0.058289,0.021729,0.084971,-0.981565,0.230009,4.552106,-15.284744,22.925507,,,,,,,,,,,,,,,,,,,,,,,,,,,,,,,,,,,,,,,,,,,,,,,,,,,,,,,,,,,,,,,,,,,,,,,,,,,,,,,,,,,,,,,,,,,,,,,,,,,,,
1738754476.123289,1738754476.123659,69.000000,0.000000,4318.461426,4347.051270,4254.230957,4302.436035,4351.538574,4361.538574,4362.563965,4551.282227,4537.436035,4558.333496,4496.282227,5663.205078,4306.794922,4257.051270,0.000000,4.000000,78.000000,,,,0.000000,0.000000,0.000000,0.000000,0.000000,0.000000,0.000000,0.000000,0.000000,0.000000,0.000000,0.000000,0.000000,0.000000,0.000000,0.000000,,,,,,,,,,,,,,,,,,,,,,,,,,,,,,,,,,,,,,,,,,,,,,,,,,,,,,,,,,,,,,,,,,,,,,,,,,,,,,,,,,,,,,,,,,,,,,,,,,,,,,,,,,,,,,,,,,,,,,,,,,,,,,,,,
1738754476.131097,1738754476.131367,70.000000,0.000000,4318.461426,4348.717773,4255.000000,4300.000000,4351.794922,4357.179688,4364.487305,4548.974121,4542.051270,4560.128418,4498.717773,5661.282227,4312.948730,4260.897461,0.000000,4.000000,78.000000,,,,0.000000,0.000000,0.000000,0.000000,0.000000,0.000000,0.000000,0.000000,0.000000,0.000000,0.000000,0.000000,0.000000,0.000000,0.000000,0.000000,,,,,,,,,,,,,,,,,,,,,,,,,,,,,,,,,,,,,,,,,,,,,,,,,,,,,,,,,,,,,,,,,,,,,,,,,,,,,,,,,,,,,,,,,,,,,,,,,,,,,,,,,,,,,,,,,,,,,,,,,,,,,,,,,
1738754476.138905,1738754476.139275,71.000000,0.000000,4322.820313,4349.487305,4254.743652,4305.897461,4351.025879,4357.820313,4366.794922,4548.333496,4539.358887,4556.922852,4494.487305,5663.077148,4308.589844,4258.461426,0.000000,4.000000,78.000000,,,,0.000000,0.000000,0.000000,0.000000,0.000000,0.000000,0.000000,0.000000,0.000000,0.000000,0.000000,0.000000,0.000000,0.000000,0.000000,0.000000,,,,,,,,,,,,,,,,,,,,,,,,,,,,,,,,,,,,,,,,,,,,,,,,,,,,,,,,,,,,,,,,,,,,,,,,,,,,,,,,,,,,,,,,,,,,,,,,,,,,,,,,,,,,,,,,,,,,,,,,,,,,,,,,,
1738754476.146713,1738754476.147083,72.000000,0.000000,4324.615234,4348.077148,4254.230957,4303.589844,4351.794922,4361.794922,4364.743652,4546.922852,4537.051270,4557.051270,4492.820313,5661.025879,4309.230957,4259.487305,0.000000,4.000000,78.000000,,,,0.000000,0.000000,0.000000,0.000000,0.000000,0.000000,0.000000,0.000000,0.000000,0.000000,0.000000,0.000000,0.000000,0.000000,0.000000,0.000000,,,,,,,,,,,,,,,,,18.000000,0.000000,0.785116,-0.616211,-0.058350,0.021729,0.064461,-0.971310,0.236845,4.546896,-15.289603,23.049623,,,,,,,,,,,,,,,,,,,,,,,,,,,,,,,,,,,,,,,,,,,,,,,,,,,,,,,,,,,,,,,,,,,,,,,,,,,,,,,,,,,,,,,,,,,,,,,,,,,,,
1738754476.154521,1738754476.154991,73.000000,0.000000,4322.948730,4345.000000,4256.666504,4300.512695,4350.000000,4358.205078,4367.820313,4549.487305,4538.461426,4560.128418,4493.461426,5661.153809,4304.487305,4256.025879,0.000000,4.000000,78.000000,,,,0.000000,0.000000,0.000000,0.000000,0.000000,0.000000,0.000000,0.000000,0.000000,0.000000,0.000000,0.000000,0.000000,0.000000,0.000000,0.000000,,,,,,,,,,,,,,,,,,,,,,,,,,,,,,,,,,,,,,,,,,,,,,,,,,,,,,,,,,,,,,,,,,,,,,,,,,,,,,,,,,,,,,,,,,,,,,,,,,,,,,,,,,,,,,,,,,,,,,,,,,,,,,,,,
1738754476.162329,1738754476.162800,74.000000,0.000000,4318.717773,4346.666504,4257.051270,4304.358887,4348.077148,4355.256348,4369.230957,4550.897461,4537.692383,4558.077148,4496.153809,5662.051270,4303.333496,4255.256348,0.000000,4.000000,78.000000,,,,0.000000,0.000000,0.000000,0.000000,0.000000,0.000000,0.000000,0.000000,0.000000,0.000000,0.000000,0.000000,0.000000,0.000000,0.000000,0.000000,,,,,,,,,,,,,,,,,,,,,,,,,,,,,,,,,,,,,,,,,,,,,,,,,,,,,,,,,,,,,,,,,,,,,,,,,,,,,,,,,,,,,,,,,,,,,,,,,,,,,,,,,,,,,,,,,,,,,,,,,,,,,,,,,
1738754476.170137,1738754476.170708,75.000000,0.000000,4318.205078,4347.563965,4255.897461,4304.871582,4351.025879,4360.256348,4366.025879,4549.358887,4537.307617,4556.794922,4497.436035,5662.051270,4309.871582,4260.000000,0.000000,4.000000,78.000000,,,,0.000000,0.000000,0.000000,0.000000,0.000000,0.000000,0.000000,0.000000,0.000000,0.000000,0.000000,0.000000,0.000000,0.000000,0.000000,0.000000,,,,,,,,,,,,,,,,,,,,,,,,,,,,,,,,,,,,,,,,,,,,,,,,,,,,,,,,,,,,,,,,,,,,,,,,,,,,,,,,,,,,,,,,,,,,,,,,,,,,,,,,,,,,,,,,,,,,,,,,,,,,,,,,,
1738754476.177946,1738754476.178516,76.000000,0.000000,4320.897461,4345.641113,4255.000000,4302.307617,4352.692383,4360.512695,4368.974121,4550.769043,4537.948730,4558.589844,4495.512695,5665.384766,4306.666504,4255.897461,0.000000,4.000000,78.000000,,,,0.000000,0.000000,0.000000,0.000000,0.000000,0.000000,0.000000,0.000000,0.000000,0.000000,0.000000,0.000000,0.000000,0.000000,0.000000,0.000000,,,,,,,,,,,,,,,,,19.000000,0.000000,0.785110,-0.616211,-0.058411,0.021790,0.062508,-0.974728,0.229032,4.508873,-15.343976,22.944660,,,,,,,,,,,,,,,,,,,,,,,,,,,,,,,,,,,,,,,,,,,,,,,,,,,,,,,,,,,,,,,,,,,,,,,,,,,,,,,,,,,,,,,,,,,,,,,,,,,,,
1738754476.185753,1738754476.186424,77.000000,0.000000,4320.000000,4351.282227,4254.615234,4300.384766,4351.025879,4358.717773,4367.563965,4549.102539,4538.333496,4557.820313,4496.025879,5661.025879,4310.769043,4255.128418,0.000000,4.000000,78.000000,,,,0.000000,0.000000,0.000000,0.000000,0.000000,0.000000,0.000000,0.000000,0.000000,0.000000,0.000000,0.000000,0.000000,0.000000,0.000000,0.000000,,,,,,,,,,,,,,,,,,,,,,,,,,,,,,,,,,,,,,,,,,,,,,,,,,,,,,,,,,,,,,,,,,,,,,,,,,,,,,,,,,,,,,,,,,,,,,,,,,,,,,,,,,,,,,,,,,,,,,,,,,,,,,,,,
1738754476.193562,1738754476.194232,78.000000,0.000000,4319.871582,4351.922852,4255.128418,4301.666504,4349.743652,4361.410156,4362.563965,4549.871582,4536.025879,4555.512695,4496.025879,5661.410156,4310.128418,4255.128418,0.000000,4.000000,78.000000,,,,0.000000,0.000000,0.000000,0.000000,0.000000,0.000000,0.000000,0.000000,0.000000,0.000000,0.000000,0.000000,0.000000,0.000000,0.000000,0.000000,,,,,,,,,,,,,,,,,,,,,,,,,,,,,,,,,,,,,,,,,,,,,,,,,,,,,,,,,,,,0.038792,0.054912,0.021255,0.045033,0.029033,0.079412,0.100335,0.071903,0.088810,0.319919,0.022593,0.037833,0.022138,0.018122,0.027596,0.032418,0.032199,0.043395,0.042121,0.043309,0.012282,0.045697,0.017867,0.038768,0.031074,0.039870,0.037491,0.037933,0.044572,0.103776,0.056088,0.086752,0.034666,0.027641,0.019365,0.029866,0.034891,0.038712,0.047956,0.108657,0.043123,0.014062,0.035585,0.020851,0.028838,0.022673,0.010939,0.032189,0.018970,0.027081,0.028102,0.035560,0.059107,0.010402,0.030177,0.051289,0.075562,0.053653,0.076448,0.130743,0.082359,0.160982,0.105942,0.103884,0.244312,0.067388,0.123757,0.120906,0.128670,0.376250
1738754476.201370,1738754476.202140,79.000000,0.000000,4320.641113,4346.410156,4253.205078,4302.051270,4349.871582,4361.794922,4363.333496,4550.641113,4537.179688,4557.563965,4495.128418,5666.666504,4306.282227,4253.461426,0.000000,4.000000,78.000000,,,,0.000000,0.000000,0.000000,0.000000,0.000000,0.000000,0.000000,0.000000,0.000000,0.000000,0.000000,0.000000,0.000000,0.000000,0.000000,0.000000,,,,,,,,,,,,,,,,,,,,,,,,,,,,,,,,,,,,,,,,,,,,,,,,,,,,,,,,,,,,,,,,,,,,,,,,,,,,,,,,,,,,,,,,,,,,,,,,,,,,,,,,,,,,,,,,,,,,,,,,,,,,,,,,,
1738754476.209178,1738754476.209949,80.000000,0.000000,4320.256348,4347.179688,4250.000000,4301.282227,4351.153809,4360.128418,4365.641113,4547.820313,4540.769043,4559.871582,4495.000000,5661.922852,4312.179688,4254.487305,0.000000,4.000000,78.000000,,,,0.000000,0.000000,0.000000,0.000000,0.000000,0.000000,0.000000,0.000000,0.000000,0.000000,0.000000,0.000000,0.000000,0.000000,0.000000,0.000000,,,,,,,,,,,,,,,,,20.000000,0.000000,0.785066,-0.616272,-0.058350,0.021790,0.069344,-0.958613,0.237822,4.474652,-15.292912,22.850195,,,,,,,,,,,,,,,,,,,,,,,,,,,,,,,,,,,,,,,,,,,,,,,,,,,,,,,,,,,,,,,,,,,,,,,,,,,,,,,,,,,,,,,,,,,,,,,,,,,,,
1738754476.216986,1738754476.217757,81.000000,0.000000,4323.717773,4349.230957,4251.153809,4304.358887,4350.512695,4360.384766,4367.051270,4551.025879,4537.563965,4557.820313,4494.230957,5661.666504,4308.205078,4251.538574,0.000000,4.000000,78.000000,,,,0.000000,0.000000,0.000000,0.000000,0.000000,0.000000,0.000000,0.000000,0.000000,0.000000,0.000000,0.000000,0.000000,0.000000,0.000000,0.000000,,,,,,,,,,,,,,,,,,,,,,,,,,,,,,,,,,,,,,,,,,,,,,,,,,,,,,,,,,,,,,,,,,,,,,,,,,,,,,,,,,,,,,,,,,,,,,,,,,,,,,,,,,,,,,,,,,,,,,,,,,,,,,,,,
1738754476.224794,1738754476.225565,82.000000,0.000000,4323.717773,4349.615234,4253.974121,4302.948730,4349.871582,4357.563965,4363.846191,4552.051270,4536.922852,4556.666504,4495.769043,5662.436035,4310.256348,4256.922852,0.000000,4.000000,78.000000,,,,0.000000,0.000000,0.000000,0.000000,0.000000,0.000000,0.000000,0.000000,0.000000,0.000000,0.000000,0.000000,0.000000,0.000000,0.000000,0.000000,,,,,,,,,,,,,,,,,,,,,,,,,,,,,,,,,,,,,,,,,,,,,,,,,,,,,,,,,,,,,,,,,,,,,,,,,,,,,,,,,,,,,,,,,,,,,,,,,,,,,,,,,,,,,,,,,,,,,,,,,,,,,,,,,
1738754476.232602,1738754476.233472,83.000000,0.000000,4320.256348,4349.230957,4255.128418,4301.282227,4350.384766,4358.205078,4365.641113,4550.000000,4538.846191,4556.153809,4496.282227,5663.974121,4311.922852,4259.230957,0.000000,4.000000,78.000000,,,,0.000000,0.000000,0.000000,0.000000,0.000000,0.000000,0.000000,0.000000,0.000000,0.000000,0.000000,0.000000,0.000000,0.000000,0.000000,0.000000,,,,,,,,,,,,,,,,,,,,,,,,,,,,,,,,,,,,,,,,,,,,,,,,,,,,,,,,,,,,,,,,,,,,,,,,,,,,,,,,,,,,,,,,,,,,,,,,,,,,,,,,,,,,,,,,,,,,,,,,,,,,,,,,,
1738754476.240410,1738754476.241280,84.000000,0.000000,4321.025879,4348.333496,4255.128418,4303.974121,4351.025879,4361.410156,4369.102539,4549.358887,4537.692383,4558.333496,4494.102539,5666.025879,4308.589844,4253.589844,0.000000,4.000000,78.000000,,,,0.000000,0.000000,0.000000,0.000000,0.000000,0.000000,0.000000,0.000000,0.000000,0.000000,0.000000,0.000000,0.000000,0.000000,0.000000,0.000000,,,,,,,,,,,,,,,,,21.000000,0.000000,0.785060,-0.616272,-0.058411,0.021851,0.058601,-0.973752,0.235380,4.443853,-15.163621,22.898508,,,,,,,,,,,,,,,,,,,,,,,,,,,,,,,,,,,,,,,,,,,,,,,,,,,,,,,,,,,,,,,,,,,,,,,,,,,,,,,,,,,,,,,,,,,,,,,,,,,,,
1738754476.248218,1738754476.248988,85.000000,0.000000,4321.410156,4349.102539,4252.820313,4300.769043,4351.153809,4359.102539,4364.230957,4550.641113,4539.743652,4562.051270,4497.051270,5662.307617,4315.000000,4256.538574,0.000000,4.000000,78.000000,,,,0.000000,0.000000,0.000000,0.000000,0.000000,0.000000,0.000000,0.000000,0.000000,0.000000,0.000000,0.000000,0.000000,0.000000,0.000000,0.000000,,,,,,,,,,,,,,,,,,,,,,,,,,,,,,,,,,,,,,,,,,,,,,,,,,,,,,,,,,,,,,,,,,,,,,,,,,,,,,,,,,,,,,,,,,,,,,,,,,,,,,,,,,,,,,,,,,,,,,,,,,,,,,,,,
1738754476.256026,1738754476.256796,86.000000,0.000000,4320.897461,4347.692383,4251.282227,4297.563965,4353.333496,4357.307617,4363.205078,4552.948730,4539.743652,4559.102539,4499.102539,5664.358887,4311.794922,4257.307617,0.000000,4.000000,78.000000,,,,0.000000,0.000000,0.000000,0.000000,0.000000,0.000000,0.000000,0.000000,0.000000,0.000000,0.000000,0.000000,0.000000,0.000000,0.000000,0.000000,,,,,,,,,,,,,,,,,,,,,,,,,,,,,,,,,,,,,,,,,,,,,,,,,,,,,,,,,,,,,,,,,,,,,,,,,,,,,,,,,,,,,,,,,,,,,,,,,,,,,,,,,,,,,,,,,,,,,,,,,,,,,,,,,
1738754476.263835,1738754476.264504,87.000000,0.000000,4323.333496,4347.692383,4253.333496,4299.102539,4353.077148,4360.641113,4365.897461,4549.871582,4538.846191,4555.641113,4495.769043,5663.205078,4311.538574,4256.153809,0.000000,4.000000,78.000000,,,,0.000000,0.000000,0.000000,0.000000,0.000000,0.000000,0.000000,0.000000,0.000000,0.000000,0.000000,0.000000,0.000000,0.000000,0.000000,0.000000,,,,,,,,,,,,,,,,,,,,,,,,,,,,,,,,,,,,,,,,,,,,,,,,,,,,,,,,,,,,,,,,,,,,,,,,,,,,,,,,,,,,,,,,,,,,,,,,,,,,,,,,,,,,,,,,,,,,,,,,,,,,,,,,,
1738754476.271643,1738754476.272312,88.000000,0.000000,4324.615234,4349.871582,4255.897461,4305.000000,4349.487305,4360.256348,4367.820313,4549.615234,4541.410156,4557.179688,4494.871582,5660.897461,4311.538574,4255.128418,0.000000,4.000000,78.000000,,,,0.000000,0.000000,0.000000,0.000000,0.000000,0.000000,0.000000,0.000000,0.000000,0.000000,0.000000,0.000000,0.000000,0.000000,0.000000,0.000000,,,,,,,,,,,,,,,,,22.000000,0.000000,0.785065,-0.616272,-0.058350,0.021851,0.063484,-0.977170,0.225125,4.266135,-15.197259,22.875324,,,,,,,,,,,,,,,,,,,,,,,,,,,,,,,,,,,,,,,,,,,,,,,,,,,,,,,,,,,,,,,,,,,,,,,,,,,,,,,,,,,,,,,,,,,,,,,,,,,,,
1738754476.279451,1738754476.280021,89.000000,0.000000,4322.820313,4350.256348,4254.871582,4306.666504,4350.769043,4356.794922,4367.436035,4553.333496,4542.179688,4557.948730,4498.589844,5667.051270,4306.025879,4254.743652,0.000000,4.000000,78.000000,,,,0.000000,0.000000,0.000000,0.000000,0.000000,0.000000,0.000000,0.000000,0.000000,0.000000,0.000000,0.000000,0.000000,0.000000,0.000000,0.000000,,,,,,,,,,,,,,,,,,,,,,,,,,,,,,,,,,,,,,,,,,,,,,,,,,,,,,,,,,,,,,,,,,,,,,,,,,,,,,,,,,,,,,,,,,,,,,,,,,,,,,,,,,,,,,,,,,,,,,,,,,,,,,,,,
1738754476.287259,1738754476.287929,90.000000,0.000000,4321.410156,4350.384766,4253.077148,4297.948730,4353.333496,4358.974121,4365.769043,4548.717773,4540.512695,4557.948730,4499.743652,5666.153809,4310.512695,4257.948730,0.000000,4.000000,78.000000,,,,0.000000,0.000000,0.000000,0.000000,0.000000,0.000000,0.000000,0.000000,0.000000,0.000000,0.000000,0.000000,0.000000,0.000000,0.000000,0.000000,,,,,,,,,,,,,,,,,,,,,,,,,,,,,,,,,,,,,,,,,,,,,,,,,,,,,,,,,,,,,,,,,,,,,,,,,,,,,,,,,,,,,,,,,,,,,,,,,,,,,,,,,,,,,,,,,,,,,,,,,,,,,,,,,
1738754476.295067,1738754476.295737,91.000000,0.000000,4323.589844,4347.436035,4253.333496,4298.717773,4352.692383,4361.794922,4370.512695,4548.333496,4536.922852,4557.948730,4496.025879,5666.794922,4306.794922,4254.743652,0.000000,4.000000,78.000000,,,,0.000000,0.000000,0.000000,0.000000,0.000000,0.000000,0.000000,0.000000,0.000000,0.000000,0.000000,0.000000,0.000000,0.000000,0.000000,0.000000,,,,,,,,,,,,,,,,,,,,,,,,,,,,,,,,,,,,,,,,,,,,,,,,,,,,,,,,,,,,,,,,,,,,,,,,,,,,,,,,,,,,,,,,,,,,,,,,,,,,,,,,,,,,,,,,,,,,,,,,,,,,,,,,,
