title:bread1, start timestamp:1738755394.402891, stop timestamp:1738755395.441368, headset type:EPOCX, headset serial:E50208A5, headset firmware:720, channels:168, sampling rate:eeg_128;mot_32;pm_0.1;pow_8, samples:134       , version:2.2, 
Timestamp,OriginalTimestamp,EEG.Counter,EEG.Interpolated,EEG.AF3,EEG.F7,EEG.F3,EEG.FC5,EEG.T7,EEG.P7,EEG.O1,EEG.O2,EEG.P8,EEG.T8,EEG.FC6,EEG.F4,EEG.F8,EEG.AF4,EEG.RawCq,EEG.Battery,EEG.BatteryPercent,MarkerIndex,MarkerType,MarkerValueInt,EEG.MarkerHardware,CQ.AF3,CQ.F7,CQ.F3,CQ.FC5,CQ.T7,CQ.P7,CQ.O1,CQ.O2,CQ.P8,CQ.T8,CQ.FC6,CQ.F4,CQ.F8,CQ.AF4,CQ.Overall,EQ.SampleRateQuality,EQ.OVERALL,EQ.AF3,EQ.F7,EQ.F3,EQ.FC5,EQ.T7,EQ.P7,EQ.O1,EQ.O2,EQ.P8,EQ.T8,EQ.FC6,EQ.F4,EQ.F8,EQ.AF4,MOT.CounterMems,MOT.InterpolatedMems,MOT.Q0,MOT.Q1,MOT.Q2,MOT.Q3,MOT.AccX,MOT.AccY,MOT.AccZ,MOT.MagX,MOT.MagY,MOT.MagZ,PM.Attention.IsActive,PM.Attention.Scaled,PM.Attention.Raw,PM.Attention.Min,PM.Attention.Max,PM.Engagement.IsActive,PM.Engagement.Scaled,PM.Engagement.Raw,PM.Engagement.Min,PM.Engagement.Max,PM.Excitement.IsActive,PM.Excitement.Scaled,PM.Excitement.Raw,PM.Excitement.Min,PM.Excitement.Max,PM.LongTermExcitement,PM.Stress.IsActive,PM.Stress.Scaled,PM.Stress.Raw,PM.Stress.Min,PM.Stress.Max,PM.Relaxation.IsActive,PM.Relaxation.Scaled,PM.Relaxation.Raw,PM.Relaxation.Min,PM.Relaxation.Max,PM.Interest.IsActive,PM.Interest.Scaled,PM.Interest.Raw,PM.Interest.Min,PM.Interest.Max,POW.AF3.Theta,POW.AF3.Alpha,POW.AF3.BetaL,POW.AF3.BetaH,POW.AF3.Gamma,POW.F7.Theta,POW.F7.Alpha,POW.F7.BetaL,POW.F7.BetaH,POW.F7.Gamma,POW.F3.Theta,POW.F3.Alpha,POW.F3.BetaL,POW.F3.BetaH,POW.F3.Gamma,POW.FC5.Theta,POW.FC5.Alpha,POW.FC5.BetaL,POW.FC5.BetaH,POW.FC5.Gamma,POW.T7.Theta,POW.T7.Alpha,POW.T7.BetaL,POW.T7.BetaH,POW.T7.Gamma,POW.P7.Theta,POW.P7.Alpha,POW.P7.BetaL,POW.P7.BetaH,POW.P7.Gamma,POW.O1.Theta,POW.O1.Alpha,POW.O1.BetaL,POW.O1.BetaH,POW.O1.Gamma,POW.O2.Theta,POW.O2.Alpha,POW.O2.BetaL,POW.O2.BetaH,POW.O2.Gamma,POW.P8.Theta,POW.P8.Alpha,POW.P8.BetaL,POW.P8.BetaH,POW.P8.Gamma,POW.T8.Theta,POW.T8.Alpha,POW.T8.BetaL,POW.T8.BetaH,POW.T8.Gamma,POW.FC6.Theta,POW.FC6.Alpha,POW.FC6.BetaL,POW.FC6.BetaH,POW.FC6.Gamma,POW.F4.Theta,POW.F4.Alpha,POW.F4.BetaL,POW.F4.BetaH,POW.F4.Gamma,POW.F8.Theta,POW.F8.Alpha,POW.F8.BetaL,POW.F8.BetaH,POW.F8.Gamma,POW.AF4.Theta,POW.AF4.Alpha,POW.AF4.BetaL,POW.AF4.BetaH,POW.AF4.Gamma
1738755394.402891,1738755394.403207,43.000000,0.000000,4318.461426,4349.487305,4254.358887,4300.512695,4352.436035,4354.102539,4361.922852,4552.179688,4540.641113,4559.230957,4495.256348,5660.512695,4312.051270,4257.563965,0.000000,3.000000,74.000000,,,,0.000000,0.000000,0.000000,0.000000,0.000000,0.000000,0.000000,0.000000,0.000000,0.000000,0.000000,0.000000,0.000000,0.000000,0.000000,0.000000,,,,,,,,,,,,,,,,,,,,,,,,,,,,,,,,,,,,,,,,,,,,,,,,,,,,,,,,,,,,,,,,,,,,,,,,,,,,,,,,,,,,,,,,,,,,,,,,,,,,,,,,,,,,,,,,,,,,,,,,,,,,,,,,,
1738755394.410699,1738755394.411115,44.000000,0.000000,4320.897461,4349.871582,4252.820313,4304.102539,4350.000000,4356.153809,4366.794922,4552.051270,4538.461426,4559.358887,4497.563965,5661.538574,4311.666504,4258.717773,0.000000,3.000000,74.000000,,,,0.000000,0.000000,0.000000,0.000000,0.000000,0.000000,0.000000,0.000000,0.000000,0.000000,0.000000,0.000000,0.000000,0.000000,0.000000,0.000000,,,,,,,,,,,,,,,,,11.000000,0.000000,0.784998,-0.615967,-0.060852,0.025696,0.053717,-0.978635,0.239775,4.330579,-14.901360,22.604250,,,,,,,,,,,,,,,,,,,,,,,,,,,,,,,,,,,,,,,,,,,,,,,,,,,,,,,,,,,,,,,,,,,,,,,,,,,,,,,,,,,,,,,,,,,,,,,,,,,,,
1738755394.418507,1738755394.418923,45.000000,0.000000,4324.358887,4350.512695,4254.487305,4305.128418,4350.641113,4360.641113,4367.820313,4550.512695,4538.717773,4560.512695,4497.051270,5662.051270,4310.641113,4257.692383,0.000000,3.000000,74.000000,,,,0.000000,0.000000,0.000000,0.000000,0.000000,0.000000,0.000000,0.000000,0.000000,0.000000,0.000000,0.000000,0.000000,0.000000,0.000000,0.000000,,,,,,,,,,,,,,,,,,,,,,,,,,,,,,,,,,,,,,,,,,,,,,,,,,,,,,,,,,,,,,,,,,,,,,,,,,,,,,,,,,,,,,,,,,,,,,,,,,,,,,,,,,,,,,,,,,,,,,,,,,,,,,,,,
1738755394.426315,1738755394.426832,46.000000,0.000000,4325.256348,4349.358887,4255.000000,4302.051270,4353.077148,4362.563965,4368.205078,4552.051270,4539.615234,4560.256348,4496.153809,5661.410156,4310.000000,4255.512695,0.000000,3.000000,74.000000,,,,0.000000,0.000000,0.000000,0.000000,0.000000,0.000000,0.000000,0.000000,0.000000,0.000000,0.000000,0.000000,0.000000,0.000000,0.000000,0.000000,,,,,,,,,,,,,,,,,,,,,,,,,,,,,,,,,,,,,,,,,,,,,,,,,,,,,,,,,,,,0.015789,0.019443,0.030228,0.013696,0.036783,0.021859,0.014308,0.019946,0.026556,0.020002,0.009327,0.038944,0.036174,0.021785,0.021662,0.037427,0.013217,0.029107,0.014321,0.035089,0.036486,0.042693,0.025020,0.028846,0.016898,0.027472,0.026682,0.015790,0.021180,0.035279,0.024325,0.016236,0.025900,0.021547,0.029639,0.036792,0.032261,0.015283,0.028679,0.019843,0.023526,0.044041,0.015836,0.032351,0.029712,0.019228,0.015856,0.023086,0.020869,0.014442,0.020590,0.014616,0.024469,0.014647,0.017931,0.025000,0.025242,0.038407,0.017678,0.027904,0.047949,0.035319,0.039954,0.024591,0.036211,0.028423,0.040994,0.048188,0.044419,0.021172
1738755394.434123,1738755394.434640,47.000000,0.000000,4325.000000,4348.205078,4253.717773,4300.384766,4352.051270,4360.512695,4367.820313,4550.256348,4540.512695,4561.922852,4498.205078,5661.025879,4316.025879,4259.615234,0.000000,3.000000,74.000000,,,,0.000000,0.000000,0.000000,0.000000,0.000000,0.000000,0.000000,0.000000,0.000000,0.000000,0.000000,0.000000,0.000000,0.000000,0.000000,0.000000,,,,,,,,,,,,,,,,,,,,,,,,,,,,,,,,,,,,,,,,,,,,,,,,,,,,,,,,,,,,,,,,,,,,,,,,,,,,,,,,,,,,,,,,,,,,,,,,,,,,,,,,,,,,,,,,,,,,,,,,,,,,,,,,,
1738755394.441931,1738755394.442548,48.000000,0.000000,4326.025879,4350.512695,4254.230957,4303.974121,4351.282227,4358.077148,4367.948730,4549.230957,4538.974121,4564.358887,4498.717773,5664.487305,4313.974121,4260.384766,0.000000,3.000000,74.000000,,,,0.000000,0.000000,0.000000,0.000000,0.000000,0.000000,0.000000,0.000000,0.000000,0.000000,0.000000,0.000000,0.000000,0.000000,0.000000,0.000000,,,,,,,,,,,,,,,,,12.000000,0.000000,0.785000,-0.615967,-0.060852,0.025635,0.061043,-0.973263,0.232939,4.497521,-14.961224,22.560492,,,,,,,,,,,,,,,,,,,,,,,,,,,,,,,,,,,,,,,,,,,,,,,,,,,,,,,,,,,,,,,,,,,,,,,,,,,,,,,,,,,,,,,,,,,,,,,,,,,,,
1738755394.449739,1738755394.450356,49.000000,0.000000,4323.333496,4350.769043,4255.512695,4303.205078,4353.077148,4359.358887,4367.820313,4548.846191,4536.922852,4561.794922,4499.871582,5664.487305,4310.256348,4257.179688,0.000000,3.000000,74.000000,,,,0.000000,0.000000,0.000000,0.000000,0.000000,0.000000,0.000000,0.000000,0.000000,0.000000,0.000000,0.000000,0.000000,0.000000,0.000000,0.000000,,,,,,,,,,,,,,,,,,,,,,,,,,,,,,,,,,,,,,,,,,,,,,,,,,,,,,,,,,,,,,,,,,,,,,,,,,,,,,,,,,,,,,,,,,,,,,,,,,,,,,,,,,,,,,,,,,,,,,,,,,,,,,,,,
1738755394.457547,1738755394.458264,50.000000,0.000000,4318.333496,4349.102539,4255.769043,4297.563965,4354.102539,4360.897461,4366.153809,4548.077148,4538.333496,4559.487305,4498.846191,5660.384766,4312.563965,4256.666504,0.000000,3.000000,74.000000,,,,0.000000,0.000000,0.000000,0.000000,0.000000,0.000000,0.000000,0.000000,0.000000,0.000000,0.000000,0.000000,0.000000,0.000000,0.000000,0.000000,,,,,,,,,,,,,,,,,,,,,,,,,,,,,,,,,,,,,,,,,,,,,,,,,,,,,,,,,,,,,,,,,,,,,,,,,,,,,,,,,,,,,,,,,,,,,,,,,,,,,,,,,,,,,,,,,,,,,,,,,,,,,,,,,
1738755394.465355,1738755394.466072,51.000000,0.000000,4319.871582,4349.487305,4255.641113,4298.974121,4352.563965,4360.256348,4365.128418,4552.179688,4539.615234,4559.743652,4495.641113,5662.051270,4309.487305,4255.128418,0.000000,3.000000,74.000000,,,,0.000000,0.000000,0.000000,0.000000,0.000000,0.000000,0.000000,0.000000,0.000000,0.000000,0.000000,0.000000,0.000000,0.000000,0.000000,0.000000,,,,,,,,,,,,,,,,,,,,,,,,,,,,,,,,,,,,,,,,,,,,,,,,,,,,,,,,,,,,,,,,,,,,,,,,,,,,,,,,,,,,,,,,,,,,,,,,,,,,,,,,,,,,,,,,,,,,,,,,,,,,,,,,,
1738755394.473163,1738755394.473781,52.000000,0.000000,4321.153809,4351.025879,4254.230957,4300.641113,4350.897461,4359.615234,4365.384766,4550.641113,4539.487305,4559.230957,4497.051270,5663.333496,4311.153809,4255.384766,0.000000,3.000000,74.000000,,,,0.000000,0.000000,0.000000,0.000000,0.000000,0.000000,0.000000,0.000000,0.000000,0.000000,0.000000,0.000000,0.000000,0.000000,0.000000,0.000000,,,,,,,,,,,,,,,,,13.000000,0.000000,0.785000,-0.615967,-0.060852,0.025635,0.062019,-0.965450,0.243682,4.547769,-14.948435,22.504442,,,,,,,,,,,,,,,,,,,,,,,,,,,,,,,,,,,,,,,,,,,,,,,,,,,,,,,,,,,,,,,,,,,,,,,,,,,,,,,,,,,,,,,,,,,,,,,,,,,,,
1738755394.480971,1738755394.481589,53.000000,0.000000,4320.512695,4352.051270,4253.589844,4299.615234,4351.025879,4361.025879,4366.025879,4546.282227,4541.410156,4558.589844,4497.051270,5665.128418,4311.666504,4256.282227,0.000000,3.000000,74.000000,,,,0.000000,0.000000,0.000000,0.000000,0.000000,0.000000,0.000000,0.000000,0.000000,0.000000,0.000000,0.000000,0.000000,0.000000,0.000000,0.000000,,,,,,,,,,,,,,,,,,,,,,,,,,,,,,,,,,,,,,,,,,,,,,,,,,,,,,,,,,,,,,,,,,,,,,,,,,,,,,,,,,,,,,,,,,,,,,,,,,,,,,,,,,,,,,,,,,,,,,,,,,,,,,,,,
1738755394.488780,1738755394.489297,54.000000,0.000000,4321.922852,4351.538574,4256.282227,4299.487305,4353.077148,4362.051270,4363.077148,4547.692383,4543.846191,4561.153809,4493.589844,5664.615234,4309.102539,4256.153809,0.000000,3.000000,74.000000,,,,0.000000,0.000000,0.000000,0.000000,0.000000,0.000000,0.000000,0.000000,0.000000,0.000000,0.000000,0.000000,0.000000,0.000000,0.000000,0.000000,,,,,,,,,,,,,,,,,,,,,,,,,,,,,,,,,,,,,,,,,,,,,,,,,,,,,,,,,,,,,,,,,,,,,,,,,,,,,,,,,,,,,,,,,,,,,,,,,,,,,,,,,,,,,,,,,,,,,,,,,,,,,,,,,
1738755394.496588,1738755394.497105,55.000000,0.000000,4322.051270,4351.153809,4258.589844,4302.563965,4354.230957,4362.051270,4364.487305,4548.589844,4542.051270,4563.205078,4494.358887,5660.128418,4310.000000,4254.230957,0.000000,3.000000,74.000000,,,,0.000000,0.000000,0.000000,0.000000,0.000000,0.000000,0.000000,0.000000,0.000000,0.000000,0.000000,0.000000,0.000000,0.000000,0.000000,0.000000,,,,,,,,,,,,,,,,,,,,,,,,,,,,,,,,,,,,,,,,,,,,,,,,,,,,,,,,,,,,,,,,,,,,,,,,,,,,,,,,,,,,,,,,,,,,,,,,,,,,,,,,,,,,,,,,,,,,,,,,,,,,,,,,,
1738755394.504396,1738755394.504813,56.000000,0.000000,4320.512695,4350.512695,4256.922852,4307.948730,4353.077148,4361.922852,4369.358887,4549.615234,4538.077148,4559.487305,4498.589844,5661.794922,4305.897461,4252.692383,0.000000,3.000000,74.000000,,,,0.000000,0.000000,0.000000,0.000000,0.000000,0.000000,0.000000,0.000000,0.000000,0.000000,0.000000,0.000000,0.000000,0.000000,0.000000,0.000000,,,,,,,,,,,,,,,,,14.000000,0.000000,0.784993,-0.615967,-0.060913,0.025696,0.065926,-0.973263,0.245147,4.542992,-14.903591,22.420664,,,,,,,,,,,,,,,,,,,,,,,,,,,,,,,,,,,,,,,,,,,,,,,,,,,,,,,,,,,,,,,,,,,,,,,,,,,,,,,,,,,,,,,,,,,,,,,,,,,,,
1738755394.512204,1738755394.512621,57.000000,0.000000,4320.641113,4349.230957,4254.230957,4305.000000,4353.077148,4359.487305,4364.615234,4551.025879,4539.358887,4557.820313,4498.461426,5662.563965,4306.922852,4258.077148,0.000000,3.000000,74.000000,,,,0.000000,0.000000,0.000000,0.000000,0.000000,0.000000,0.000000,0.000000,0.000000,0.000000,0.000000,0.000000,0.000000,0.000000,0.000000,0.000000,,,,,,,,,,,,,,,,,,,,,,,,,,,,,,,,,,,,,,,,,,,,,,,,,,,,,,,,,,,,,,,,,,,,,,,,,,,,,,,,,,,,,,,,,,,,,,,,,,,,,,,,,,,,,,,,,,,,,,,,,,,,,,,,,
1738755394.520012,1738755394.520329,58.000000,0.000000,4323.589844,4348.717773,4252.307617,4301.153809,4353.077148,4358.077148,4363.717773,4549.871582,4542.051270,4562.436035,4494.615234,5661.794922,4310.000000,4257.948730,0.000000,3.000000,74.000000,,,,0.000000,0.000000,0.000000,0.000000,0.000000,0.000000,0.000000,0.000000,0.000000,0.000000,0.000000,0.000000,0.000000,0.000000,0.000000,0.000000,,,,,,,,,,,,,,,,,,,,,,,,,,,,,,,,,,,,,,,,,,,,,,,,,,,,,,,,,,,,,,,,,,,,,,,,,,,,,,,,,,,,,,,,,,,,,,,,,,,,,,,,,,,,,,,,,,,,,,,,,,,,,,,,,
1738755394.527820,1738755394.528137,59.000000,0.000000,4323.205078,4349.615234,4252.948730,4302.820313,4352.051270,4360.512695,4369.743652,4546.282227,4539.487305,4564.230957,4493.461426,5663.333496,4308.846191,4251.538574,0.000000,3.000000,74.000000,,,,0.000000,0.000000,0.000000,0.000000,0.000000,0.000000,0.000000,0.000000,0.000000,0.000000,0.000000,0.000000,0.000000,0.000000,0.000000,0.000000,,,,,,,,,,,,,,,,,,,,,,,,,,,,,,,,,,,,,,,,,,,,,,,,,,,,,,,,,,,,,,,,,,,,,,,,,,,,,,,,,,,,,,,,,,,,,,,,,,,,,,,,,,,,,,,,,,,,,,,,,,,,,,,,,
1738755394.535628,1738755394.535845,60.000000,0.000000,4324.487305,4350.000000,4255.000000,4300.769043,4352.179688,4362.051270,4365.769043,4545.384766,4538.717773,4559.487305,4495.384766,5663.333496,4308.974121,4253.333496,0.000000,3.000000,74.000000,,,,0.000000,0.000000,0.000000,0.000000,0.000000,0.000000,0.000000,0.000000,0.000000,0.000000,0.000000,0.000000,0.000000,0.000000,0.000000,0.000000,,,,,,,,,,,,,,,,,15.000000,0.000000,0.784998,-0.615967,-0.060852,0.025696,0.067391,-0.971798,0.228055,4.605360,-14.879898,22.561932,,,,,,,,,,,,,,,,,,,,,,,,,,,,,,,,,,,,,,,,,,,,,,,,,,,,,,,,,,,,,,,,,,,,,,,,,,,,,,,,,,,,,,,,,,,,,,,,,,,,,
1738755394.543436,1738755394.543653,61.000000,0.000000,4327.563965,4350.769043,4254.871582,4300.000000,4353.461426,4361.922852,4362.051270,4548.846191,4541.153809,4558.205078,4495.384766,5664.230957,4307.051270,4256.282227,0.000000,3.000000,74.000000,,,,0.000000,0.000000,0.000000,0.000000,0.000000,0.000000,0.000000,0.000000,0.000000,0.000000,0.000000,0.000000,0.000000,0.000000,0.000000,0.000000,,,,,,,,,,,,,,,,,,,,,,,,,,,,,,,,,,,,,,,,,,,,,,,,,,,,,,,,,,,,,,,,,,,,,,,,,,,,,,,,,,,,,,,,,,,,,,,,,,,,,,,,,,,,,,,,,,,,,,,,,,,,,,,,,
1738755394.551244,1738755394.551361,62.000000,0.000000,4325.384766,4351.922852,4254.102539,4303.205078,4352.948730,4362.179688,4366.794922,4550.641113,4541.282227,4563.077148,4494.358887,5662.948730,4308.974121,4255.512695,0.000000,3.000000,74.000000,,,,0.000000,0.000000,0.000000,0.000000,0.000000,0.000000,0.000000,0.000000,0.000000,0.000000,0.000000,0.000000,0.000000,0.000000,0.000000,0.000000,,,,,,,,,,,,,,,,,,,,,,,,,,,,,,,,,,,,,,,,,,,,,,,,,,,,,,,,,,,,0.013583,0.020801,0.027883,0.013990,0.034329,0.022354,0.014829,0.023277,0.025426,0.023145,0.007994,0.036145,0.038319,0.025390,0.021438,0.036228,0.012539,0.028187,0.013775,0.033245,0.032369,0.035548,0.022378,0.027145,0.017249,0.030713,0.026320,0.015844,0.021711,0.031693,0.027802,0.017148,0.028952,0.023335,0.029003,0.033147,0.026387,0.013904,0.030601,0.019452,0.026312,0.054694,0.016994,0.032669,0.029933,0.024851,0.020272,0.023230,0.020154,0.015018,0.019028,0.015620,0.033070,0.017207,0.017295,0.026583,0.024017,0.038035,0.017513,0.029269,0.056755,0.033827,0.049840,0.023536,0.034508,0.029633,0.045930,0.047092,0.041177,0.021211
1738755394.559053,1738755394.559169,63.000000,0.000000,4321.666504,4349.871582,4255.000000,4303.461426,4352.307617,4361.922852,4367.307617,4549.615234,4541.025879,4562.179688,4495.769043,5661.538574,4310.128418,4252.948730,0.000000,3.000000,74.000000,,,,0.000000,0.000000,0.000000,0.000000,0.000000,0.000000,0.000000,0.000000,0.000000,0.000000,0.000000,0.000000,0.000000,0.000000,0.000000,0.000000,,,,,,,,,,,,,,,,,,,,,,,,,,,,,,,,,,,,,,,,,,,,,,,,,,,,,,,,,,,,,,,,,,,,,,,,,,,,,,,,,,,,,,,,,,,,,,,,,,,,,,,,,,,,,,,,,,,,,,,,,,,,,,,,,
1738755394.566861,1738755394.566877,64.000000,0.000000,4322.820313,4349.230957,4256.666504,4302.692383,4353.717773,4359.230957,4363.589844,4550.128418,4541.794922,4558.717773,4498.461426,5662.820313,4306.538574,4252.436035,0.000000,3.000000,74.000000,,,,0.000000,0.000000,0.000000,0.000000,0.000000,0.000000,0.000000,0.000000,0.000000,0.000000,0.000000,0.000000,0.000000,0.000000,0.000000,0.000000,,,,,,,,,,,,,,,,,16.000000,0.000000,0.785039,-0.615906,-0.060913,0.025757,0.059089,-0.966915,0.235869,4.561490,-14.875242,22.422405,,,,,,,,,,,,,,,,,,,,,,,,,,,,,,,,,,,,,,,,,,,,,,,,,,,,,,,,,,,,,,,,,,,,,,,,,,,,,,,,,,,,,,,,,,,,,,,,,,,,,
1738755394.574669,1738755394.574785,65.000000,0.000000,4323.717773,4349.871582,4255.769043,4304.102539,4352.563965,4358.974121,4362.820313,4552.436035,4539.871582,4562.051270,4498.846191,5661.282227,4308.974121,4255.384766,0.000000,3.000000,74.000000,,,,0.000000,0.000000,0.000000,0.000000,0.000000,0.000000,0.000000,0.000000,0.000000,0.000000,0.000000,0.000000,0.000000,0.000000,0.000000,0.000000,,,,,,,,,,,,,,,,,,,,,,,,,,,,,,,,,,,,,,,,,,,,,,,,,,,,,,,,,,,,,,,,,,,,,,,,,,,,,,,,,,,,,,,,,,,,,,,,,,,,,,,,,,,,,,,,,,,,,,,,,,,,,,,,,
1738755394.582477,1738755394.582593,66.000000,0.000000,4321.794922,4345.512695,4254.487305,4304.743652,4352.051270,4362.948730,4365.897461,4551.922852,4538.077148,4563.077148,4495.384766,5661.153809,4309.743652,4253.974121,0.000000,3.000000,74.000000,,,,0.000000,0.000000,0.000000,0.000000,0.000000,0.000000,0.000000,0.000000,0.000000,0.000000,0.000000,0.000000,0.000000,0.000000,0.000000,0.000000,,,,,,,,,,,,,,,,,,,,,,,,,,,,,,,,,,,,,,,,,,,,,,,,,,,,,,,,,,,,,,,,,,,,,,,,,,,,,,,,,,,,,,,,,,,,,,,,,,,,,,,,,,,,,,,,,,,,,,,,,,,,,,,,,
1738755394.590285,1738755394.590502,67.000000,0.000000,4321.666504,4343.974121,4254.615234,4303.461426,4353.717773,4364.615234,4367.307617,4550.128418,4541.794922,4559.102539,4494.230957,5664.230957,4310.000000,4252.563965,0.000000,3.000000,74.000000,,,,0.000000,0.000000,0.000000,0.000000,0.000000,0.000000,0.000000,0.000000,0.000000,0.000000,0.000000,0.000000,0.000000,0.000000,0.000000,0.000000,,,,,,,,,,,,,,,,,,,,,,,,,,,,,,,,,,,,,,,,,,,,,,,,,,,,,,,,,,,,,,,,,,,,,,,,,,,,,,,,,,,,,,,,,,,,,,,,,,,,,,,,,,,,,,,,,,,,,,,,,,,,,,,,,
1738755394.598093,1738755394.598310,68.000000,0.000000,4321.025879,4350.000000,4255.000000,4302.179688,4353.077148,4360.897461,4367.436035,4551.282227,4541.538574,4559.615234,4497.436035,5664.487305,4310.256348,4254.871582,0.000000,3.000000,74.000000,,,,0.000000,0.000000,0.000000,0.000000,0.000000,0.000000,0.000000,0.000000,0.000000,0.000000,0.000000,0.000000,0.000000,0.000000,0.000000,0.000000,,,,,,,,,,,,,,,,,17.000000,0.000000,0.785043,-0.615906,-0.060913,0.025635,0.062996,-0.972287,0.235380,4.372008,-14.987718,22.530165,,,,,,,,,,,,,,,,,,,,,,,,,,,,,,,,,,,,,,,,,,,,,,,,,,,,,,,,,,,,,,,,,,,,,,,,,,,,,,,,,,,,,,,,,,,,,,,,,,,,,
1738755394.605901,1738755394.606218,69.000000,0.000000,4320.641113,4351.794922,4255.897461,4300.769043,4352.051270,4356.282227,4366.410156,4550.128418,4537.051270,4561.025879,4495.897461,5662.692383,4307.436035,4254.871582,0.000000,3.000000,74.000000,,,,0.000000,0.000000,0.000000,0.000000,0.000000,0.000000,0.000000,0.000000,0.000000,0.000000,0.000000,0.000000,0.000000,0.000000,0.000000,0.000000,,,,,,,,,,,,,,,,,,,,,,,,,,,,,,,,,,,,,,,,,,,,,,,,,,,,,,,,,,,,,,,,,,,,,,,,,,,,,,,,,,,,,,,,,,,,,,,,,,,,,,,,,,,,,,,,,,,,,,,,,,,,,,,,,
1738755394.613709,1738755394.614026,70.000000,0.000000,4322.307617,4349.358887,4254.358887,4300.256348,4351.922852,4358.077148,4362.051270,4546.282227,4539.871582,4559.102539,4492.051270,5661.282227,4308.846191,4254.102539,0.000000,3.000000,74.000000,,,,0.000000,0.000000,0.000000,0.000000,0.000000,0.000000,0.000000,0.000000,0.000000,0.000000,0.000000,0.000000,0.000000,0.000000,0.000000,0.000000,,,,,,,,,,,,,,,,,,,,,,,,,,,,,,,,,,,,,,,,,,,,,,,,,,,,,,,,,,,,,,,,,,,,,,,,,,,,,,,,,,,,,,,,,,,,,,,,,,,,,,,,,,,,,,,,,,,,,,,,,,,,,,,,,
1738755394.621517,1738755394.621934,71.000000,0.000000,4324.230957,4349.615234,4253.461426,4303.717773,4351.025879,4361.025879,4364.358887,4551.153809,4541.282227,4559.615234,4493.974121,5664.871582,4306.538574,4254.230957,0.000000,3.000000,74.000000,,,,0.000000,0.000000,0.000000,0.000000,0.000000,0.000000,0.000000,0.000000,0.000000,0.000000,0.000000,0.000000,0.000000,0.000000,0.000000,0.000000,,,,,,,,,,,,,,,,,,,,,,,,,,,,,,,,,,,,,,,,,,,,,,,,,,,,,,,,,,,,,,,,,,,,,,,,,,,,,,,,,,,,,,,,,,,,,,,,,,,,,,,,,,,,,,,,,,,,,,,,,,,,,,,,,
1738755394.629326,1738755394.629842,72.000000,0.000000,4323.205078,4350.897461,4254.487305,4305.769043,4350.897461,4360.000000,4366.282227,4553.077148,4539.487305,4560.000000,4498.974121,5665.000000,4305.769043,4253.589844,0.000000,3.000000,74.000000,,,,0.000000,0.000000,0.000000,0.000000,0.000000,0.000000,0.000000,0.000000,0.000000,0.000000,0.000000,0.000000,0.000000,0.000000,0.000000,0.000000,,,,,,,,,,,,,,,,,18.000000,0.000000,0.785038,-0.615906,-0.061035,0.025513,0.069833,-0.981077,0.231474,4.268140,-15.022280,22.560482,,,,,,,,,,,,,,,,,,,,,,,,,,,,,,,,,,,,,,,,,,,,,,,,,,,,,,,,,,,,,,,,,,,,,,,,,,,,,,,,,,,,,,,,,,,,,,,,,,,,,
1738755394.637133,1738755394.637651,73.000000,0.000000,4321.025879,4350.000000,4255.897461,4302.563965,4352.948730,4361.025879,4364.358887,4543.974121,4537.820313,4558.846191,4497.563965,5659.743652,4309.102539,4253.589844,0.000000,3.000000,74.000000,,,,0.000000,0.000000,0.000000,0.000000,0.000000,0.000000,0.000000,0.000000,0.000000,0.000000,0.000000,0.000000,0.000000,0.000000,0.000000,0.000000,,,,,,,,,,,,,,,,,,,,,,,,,,,,,,,,,,,,,,,,,,,,,,,,,,,,,,,,,,,,,,,,,,,,,,,,,,,,,,,,,,,,,,,,,,,,,,,,,,,,,,,,,,,,,,,,,,,,,,,,,,,,,,,,,
1738755394.644942,1738755394.645459,74.000000,0.000000,4320.641113,4348.717773,4255.128418,4301.794922,4354.230957,4363.205078,4368.205078,4543.717773,4536.410156,4561.410156,4494.615234,5661.794922,4308.205078,4254.102539,0.000000,3.000000,74.000000,,,,0.000000,0.000000,0.000000,0.000000,0.000000,0.000000,0.000000,0.000000,0.000000,0.000000,0.000000,0.000000,0.000000,0.000000,0.000000,0.000000,,,,,,,,,,,,,,,,,,,,,,,,,,,,,,,,,,,,,,,,,,,,,,,,,,,,,,,,,,,,,,,,,,,,,,,,,,,,,,,,,,,,,,,,,,,,,,,,,,,,,,,,,,,,,,,,,,,,,,,,,,,,,,,,,
1738755394.652750,1738755394.653167,75.000000,0.000000,4321.282227,4351.666504,4255.384766,4302.820313,4352.820313,4362.436035,4367.692383,4551.282227,4541.025879,4563.461426,4496.922852,5665.128418,4307.179688,4254.743652,0.000000,3.000000,74.000000,,,,0.000000,0.000000,0.000000,0.000000,0.000000,0.000000,0.000000,0.000000,0.000000,0.000000,0.000000,0.000000,0.000000,0.000000,0.000000,0.000000,,,,,,,,,,,,,,,,,,,,,,,,,,,,,,,,,,,,,,,,,,,,,,,,,,,,,,,,,,,,,,,,,,,,,,,,,,,,,,,,,,,,,,,,,,,,,,,,,,,,,,,,,,,,,,,,,,,,,,,,,,,,,,,,,
1738755394.660558,1738755394.660975,76.000000,0.000000,4323.333496,4350.641113,4259.871582,4303.974121,4352.820313,4360.000000,4363.589844,4551.410156,4542.307617,4559.358887,4497.179688,5663.974121,4307.051270,4254.358887,0.000000,3.000000,74.000000,,,,0.000000,0.000000,0.000000,0.000000,0.000000,0.000000,0.000000,0.000000,0.000000,0.000000,0.000000,0.000000,0.000000,0.000000,0.000000,0.000000,,,,,,,,,,,,,,,,,19.000000,0.000000,0.785038,-0.615906,-0.061035,0.025513,0.060554,-0.984007,0.237334,4.191327,-14.986718,22.571100,,,,,,,,,,,,,,,,,,,,,,,,,,,,,,,,,,,,,,,,,,,,,,,,,,,,,,,,,,,,,,,,,,,,,,,,,,,,,,,,,,,,,,,,,,,,,,,,,,,,,
1738755394.668366,1738755394.668683,77.000000,0.000000,4321.410156,4347.820313,4259.230957,4302.051270,4353.077148,4360.897461,4363.589844,4546.282227,4536.794922,4558.077148,4495.897461,5660.384766,4310.384766,4255.128418,0.000000,3.000000,74.000000,,,,0.000000,0.000000,0.000000,0.000000,0.000000,0.000000,0.000000,0.000000,0.000000,0.000000,0.000000,0.000000,0.000000,0.000000,0.000000,0.000000,,,,,,,,,,,,,,,,,,,,,,,,,,,,,,,,,,,,,,,,,,,,,,,,,,,,,,,,,,,,,,,,,,,,,,,,,,,,,,,,,,,,,,,,,,,,,,,,,,,,,,,,,,,,,,,,,,,,,,,,,,,,,,,,,
1738755394.676174,1738755394.676491,78.000000,0.000000,4318.974121,4351.666504,4253.974121,4299.358887,4351.666504,4363.205078,4365.641113,4547.820313,4538.333496,4563.333496,4496.410156,5661.794922,4311.282227,4256.153809,0.000000,3.000000,74.000000,,,,0.000000,0.000000,0.000000,0.000000,0.000000,0.000000,0.000000,0.000000,0.000000,0.000000,0.000000,0.000000,0.000000,0.000000,0.000000,0.000000,,,,,,,,,,,,,,,,,,,,,,,,,,,,,,,,,,,,,,,,,,,,,,,,,,,,,,,,,,,,0.011274,0.022218,0.026040,0.016818,0.031193,0.021398,0.015342,0.026143,0.023019,0.025549,0.006649,0.032848,0.038022,0.027788,0.021253,0.033648,0.012364,0.026873,0.012559,0.030429,0.028052,0.026999,0.018821,0.024209,0.017292,0.033584,0.025444,0.017012,0.022773,0.028108,0.031103,0.018521,0.033871,0.025772,0.027819,0.028413,0.021478,0.011905,0.031205,0.019897,0.029459,0.065979,0.018427,0.030966,0.030455,0.029368,0.023685,0.022425,0.018647,0.015543,0.017712,0.016376,0.041782,0.020378,0.017112,0.028166,0.024216,0.036902,0.018428,0.029974,0.062871,0.031768,0.062983,0.023091,0.031446,0.030882,0.046574,0.045187,0.035098,0.020721
1738755394.683982,1738755394.684199,79.000000,0.000000,4321.538574,4351.666504,4252.948730,4301.666504,4351.025879,4360.000000,4367.179688,4553.333496,4542.692383,4562.820313,4494.230957,5668.077148,4304.102539,4254.871582,0.000000,3.000000,74.000000,,,,0.000000,0.000000,0.000000,0.000000,0.000000,0.000000,0.000000,0.000000,0.000000,0.000000,0.000000,0.000000,0.000000,0.000000,0.000000,0.000000,,,,,,,,,,,,,,,,,,,,,,,,,,,,,,,,,,,,,,,,,,,,,,,,,,,,,,,,,,,,,,,,,,,,,,,,,,,,,,,,,,,,,,,,,,,,,,,,,,,,,,,,,,,,,,,,,,,,,,,,,,,,,,,,,
1738755394.691790,1738755394.692007,80.000000,0.000000,4323.077148,4350.384766,4256.025879,4300.512695,4351.922852,4357.820313,4365.512695,4548.717773,4541.153809,4559.230957,4495.128418,5667.948730,4306.153809,4256.794922,0.000000,3.000000,74.000000,,,,0.000000,0.000000,0.000000,0.000000,0.000000,0.000000,0.000000,0.000000,0.000000,0.000000,0.000000,0.000000,0.000000,0.000000,0.000000,0.000000,,,,,,,,,,,,,,,,,20.000000,0.000000,0.785038,-0.615906,-0.061035,0.025513,0.055183,-0.973263,0.246612,4.122194,-15.004713,22.580656,,,,,,,,,,,,,,,,,,,,,,,,,,,,,,,,,,,,,,,,,,,,,,,,,,,,,,,,,,,,,,,,,,,,,,,,,,,,,,,,,,,,,,,,,,,,,,,,,,,,,
1738755394.699598,1738755394.699715,81.000000,0.000000,4322.563965,4351.153809,4256.410156,4301.153809,4353.205078,4362.436035,4364.615234,4545.897461,4539.358887,4560.384766,4499.871582,5665.256348,4310.256348,4258.974121,0.000000,3.000000,74.000000,,,,0.000000,0.000000,0.000000,0.000000,0.000000,0.000000,0.000000,0.000000,0.000000,0.000000,0.000000,0.000000,0.000000,0.000000,0.000000,0.000000,,,,,,,,,,,,,,,,,,,,,,,,,,,,,,,,,,,,,,,,,,,,,,,,,,,,,,,,,,,,,,,,,,,,,,,,,,,,,,,,,,,,,,,,,,,,,,,,,,,,,,,,,,,,,,,,,,,,,,,,,,,,,,,,,
1738755394.707406,1738755394.707624,82.000000,0.000000,4323.077148,4350.512695,4253.846191,4304.871582,4352.820313,4361.922852,4364.358887,4551.794922,4540.641113,4560.256348,4500.384766,5665.000000,4306.666504,4257.948730,0.000000,3.000000,74.000000,,,,0.000000,0.000000,0.000000,0.000000,0.000000,0.000000,0.000000,0.000000,0.000000,0.000000,0.000000,0.000000,0.000000,0.000000,0.000000,0.000000,,,,,,,,,,,,,,,,,,,,,,,,,,,,,,,,,,,,,,,,,,,,,,,,,,,,,,,,,,,,,,,,,,,,,,,,,,,,,,,,,,,,,,,,,,,,,,,,,,,,,,,,,,,,,,,,,,,,,,,,,,,,,,,,,
1738755394.715215,1738755394.715432,83.000000,0.000000,4321.922852,4351.153809,4253.717773,4302.820313,4352.692383,4357.692383,4364.102539,4552.179688,4540.256348,4558.846191,4496.666504,5663.205078,4309.102539,4257.820313,0.000000,3.000000,74.000000,,,,0.000000,0.000000,0.000000,0.000000,0.000000,0.000000,0.000000,0.000000,0.000000,0.000000,0.000000,0.000000,0.000000,0.000000,0.000000,0.000000,,,,,,,,,,,,,,,,,,,,,,,,,,,,,,,,,,,,,,,,,,,,,,,,,,,,,,,,,,,,,,,,,,,,,,,,,,,,,,,,,,,,,,,,,,,,,,,,,,,,,,,,,,,,,,,,,,,,,,,,,,,,,,,,,
1738755394.723023,1738755394.723340,84.000000,0.000000,4320.384766,4352.563965,4254.871582,4302.563965,4355.641113,4361.666504,4367.820313,4549.358887,4537.307617,4559.358887,4495.512695,5663.589844,4307.051270,4254.230957,0.000000,3.000000,74.000000,,,,0.000000,0.000000,0.000000,0.000000,0.000000,0.000000,0.000000,0.000000,0.000000,0.000000,0.000000,0.000000,0.000000,0.000000,0.000000,0.000000,,,,,,,,,,,,,,,,,21.000000,0.000000,0.785033,-0.615906,-0.061096,0.025513,0.062508,-0.974240,0.228544,4.159975,-14.954242,22.572590,,,,,,,,,,,,,,,,,,,,,,,,,,,,,,,,,,,,,,,,,,,,,,,,,,,,,,,,,,,,,,,,,,,,,,,,,,,,,,,,,,,,,,,,,,,,,,,,,,,,,
1738755394.730831,1738755394.731148,85.000000,0.000000,4321.153809,4351.538574,4253.846191,4303.077148,4354.871582,4363.205078,4370.000000,4550.000000,4537.179688,4561.538574,4498.589844,5664.102539,4305.769043,4253.461426,0.000000,3.000000,74.000000,,,,0.000000,0.000000,0.000000,0.000000,0.000000,0.000000,0.000000,0.000000,0.000000,0.000000,0.000000,0.000000,0.000000,0.000000,0.000000,0.000000,,,,,,,,,,,,,,,,,,,,,,,,,,,,,,,,,,,,,,,,,,,,,,,,,,,,,,,,,,,,,,,,,,,,,,,,,,,,,,,,,,,,,,,,,,,,,,,,,,,,,,,,,,,,,,,,,,,,,,,,,,,,,,,,,
1738755394.738639,1738755394.739056,86.000000,0.000000,4321.025879,4349.871582,4253.077148,4303.589844,4351.666504,4358.846191,4365.769043,4551.282227,4539.615234,4559.871582,4497.307617,5663.846191,4310.641113,4255.384766,0.000000,3.000000,74.000000,,,,0.000000,0.000000,0.000000,0.000000,0.000000,0.000000,0.000000,0.000000,0.000000,0.000000,0.000000,0.000000,0.000000,0.000000,0.000000,0.000000,,,,,,,,,,,,,,,,,,,,,,,,,,,,,,,,,,,,,,,,,,,,,,,,,,,,,,,,,,,,,,,,,,,,,,,,,,,,,,,,,,,,,,,,,,,,,,,,,,,,,,,,,,,,,,,,,,,,,,,,,,,,,,,,,
1738755394.746447,1738755394.746864,87.000000,0.000000,4321.922852,4351.282227,4256.410156,4306.282227,4352.051270,4360.256348,4363.589844,4552.179688,4540.000000,4558.205078,4494.743652,5665.256348,4308.846191,4251.922852,0.000000,3.000000,74.000000,,,,0.000000,0.000000,0.000000,0.000000,0.000000,0.000000,0.000000,0.000000,0.000000,0.000000,0.000000,0.000000,0.000000,0.000000,0.000000,0.000000,,,,,,,,,,,,,,,,,,,,,,,,,,,,,,,,,,,,,,,,,,,,,,,,,,,,,,,,,,,,,,,,,,,,,,,,,,,,,,,,,,,,,,,,,,,,,,,,,,,,,,,,,,,,,,,,,,,,,,,,,,,,,,,,,
1738755394.754255,1738755394.754772,88.000000,0.000000,4322.307617,4351.794922,4257.820313,4305.897461,4353.077148,4363.461426,4366.666504,4551.922852,4539.230957,4560.384766,4498.333496,5664.358887,4308.333496,4253.589844,0.000000,3.000000,74.000000,,,,0.000000,0.000000,0.000000,0.000000,0.000000,0.000000,0.000000,0.000000,0.000000,0.000000,0.000000,0.000000,0.000000,0.000000,0.000000,0.000000,,,,,,,,,,,,,,,,,22.000000,0.000000,0.785033,-0.615906,-0.061096,0.025513,0.057136,-0.978147,0.243682,4.277310,-15.042150,22.565332,,,,,,,,,,,,,,,,,,,,,,,,,,,,,,,,,,,,,,,,,,,,,,,,,,,,,,,,,,,,,,,,,,,,,,,,,,,,,,,,,,,,,,,,,,,,,,,,,,,,,
1738755394.762063,1738755394.762581,89.000000,0.000000,4321.153809,4350.512695,4257.179688,4301.922852,4352.692383,4361.922852,4367.948730,4551.282227,4539.615234,4559.358887,4497.563965,5665.128418,4307.820313,4256.922852,0.000000,3.000000,74.000000,,,,0.000000,0.000000,0.000000,0.000000,0.000000,0.000000,0.000000,0.000000,0.000000,0.000000,0.000000,0.000000,0.000000,0.000000,0.000000,0.000000,,,,,,,,,,,,,,,,,,,,,,,,,,,,,,,,,,,,,,,,,,,,,,,,,,,,,,,,,,,,,,,,,,,,,,,,,,,,,,,,,,,,,,,,,,,,,,,,,,,,,,,,,,,,,,,,,,,,,,,,,,,,,,,,,
1738755394.769871,1738755394.770489,90.000000,0.000000,4319.487305,4350.641113,4257.563965,4299.102539,4353.333496,4358.974121,4364.358887,4550.256348,4542.436035,4559.487305,4494.102539,5666.282227,4310.384766,4255.897461,0.000000,3.000000,74.000000,,,,0.000000,0.000000,0.000000,0.000000,0.000000,0.000000,0.000000,0.000000,0.000000,0.000000,0.000000,0.000000,0.000000,0.000000,0.000000,0.000000,,,,,,,,,,,,,,,,,,,,,,,,,,,,,,,,,,,,,,,,,,,,,,,,,,,,,,,,,,,,,,,,,,,,,,,,,,,,,,,,,,,,,,,,,,,,,,,,,,,,,,,,,,,,,,,,,,,,,,,,,,,,,,,,,
1738755394.777679,1738755394.778297,91.000000,0.000000,4318.333496,4350.000000,4256.282227,4301.025879,4354.871582,4359.871582,4364.871582,4549.230957,4544.743652,4561.538574,4497.820313,5662.692383,4315.000000,4256.538574,0.000000,3.000000,74.000000,,,,0.000000,0.000000,0.000000,0.000000,0.000000,0.000000,0.000000,0.000000,0.000000,0.000000,0.000000,0.000000,0.000000,0.000000,0.000000,0.000000,,,,,,,,,,,,,,,,,,,,,,,,,,,,,,,,,,,,,,,,,,,,,,,,,,,,,,,,,,,,,,,,,,,,,,,,,,,,,,,,,,,,,,,,,,,,,,,,,,,,,,,,,,,,,,,,,,,,,,,,,,,,,,,,,
1738755394.785488,1738755394.786205,92.000000,0.000000,4321.538574,4348.589844,4254.102539,4302.692383,4354.358887,4362.307617,4369.358887,4548.717773,4541.666504,4559.487305,4500.897461,5662.051270,4310.000000,4254.743652,0.000000,3.000000,74.000000,,,,0.000000,0.000000,0.000000,0.000000,0.000000,0.000000,0.000000,0.000000,0.000000,0.000000,0.000000,0.000000,0.000000,0.000000,0.000000,0.000000,,,,,,,,,,,,,,,,,23.000000,0.000000,0.785038,-0.615906,-0.061035,0.025513,0.072274,-0.987425,0.236845,4.282913,-15.137936,22.492132,,,,,,,,,,,,,,,,,,,,,,,,,,,,,,,,,,,,,,,,,,,,,,,,,,,,,,,,,,,,,,,,,,,,,,,,,,,,,,,,,,,,,,,,,,,,,,,,,,,,,
1738755394.793296,1738755394.794013,93.000000,0.000000,4323.589844,4350.769043,4253.077148,4301.794922,4352.692383,4361.922852,4368.589844,4548.205078,4537.948730,4557.820313,4498.333496,5662.436035,4308.589844,4252.179688,0.000000,3.000000,74.000000,,,,0.000000,0.000000,0.000000,0.000000,0.000000,0.000000,0.000000,0.000000,0.000000,0.000000,0.000000,0.000000,0.000000,0.000000,0.000000,0.000000,,,,,,,,,,,,,,,,,,,,,,,,,,,,,,,,,,,,,,,,,,,,,,,,,,,,,,,,,,,,,,,,,,,,,,,,,,,,,,,,,,,,,,,,,,,,,,,,,,,,,,,,,,,,,,,,,,,,,,,,,,,,,,,,,
1738755394.801104,1738755394.801921,94.000000,0.000000,4321.666504,4352.692383,4254.358887,4302.307617,4351.538574,4360.512695,4365.897461,4550.128418,4538.461426,4559.487305,4496.538574,5664.102539,4310.897461,4254.615234,0.000000,3.000000,74.000000,,,,0.000000,0.000000,0.000000,0.000000,0.000000,0.000000,0.000000,0.000000,0.000000,0.000000,0.000000,0.000000,0.000000,0.000000,0.000000,0.000000,1.000000,0.000000,0.000000,0.000000,0.000000,0.000000,0.000000,0.000000,0.000000,0.000000,0.000000,0.000000,0.000000,0.000000,0.000000,0.000000,,,,,,,,,,,,,,,,,,,,,,,,,,,,,,,,,,,,,,,,,,,,0.009574,0.024177,0.025523,0.021713,0.028176,0.019926,0.016060,0.027400,0.020423,0.026411,0.005732,0.029781,0.035939,0.028306,0.021340,0.031019,0.013187,0.025977,0.010892,0.027337,0.024524,0.018994,0.014854,0.020340,0.017233,0.035291,0.024633,0.018768,0.024808,0.025367,0.032629,0.020507,0.041310,0.029086,0.026894,0.024334,0.018381,0.009864,0.029887,0.020779,0.032164,0.075081,0.019587,0.027752,0.031347,0.031904,0.025406,0.021030,0.016884,0.016084,0.018106,0.017077,0.048259,0.023825,0.017490,0.030084,0.027169,0.034576,0.019689,0.029615,0.065630,0.030428,0.076328,0.023053,0.027937,0.032311,0.043475,0.042299,0.028126,0.019984
1738755394.808912,1738755394.809730,95.000000,0.000000,4321.922852,4349.743652,4253.717773,4302.948730,4351.794922,4361.025879,4365.897461,4550.256348,4541.922852,4560.897461,4498.846191,5667.692383,4309.615234,4257.948730,0.000000,3.000000,74.000000,,,,0.000000,0.000000,0.000000,0.000000,0.000000,0.000000,0.000000,0.000000,0.000000,0.000000,0.000000,0.000000,0.000000,0.000000,0.000000,0.000000,,,,,,,,,,,,,,,,,,,,,,,,,,,,,,,,,,,,,,,,,,,,,,,,,,,,,,,,,,,,,,,,,,,,,,,,,,,,,,,,,,,,,,,,,,,,,,,,,,,,,,,,,,,,,,,,,,,,,,,,,,,,,,,,,
1738755394.816720,1738755394.817638,96.000000,0.000000,4324.230957,4349.871582,4251.922852,4302.948730,4353.077148,4362.307617,4367.436035,4548.846191,4542.307617,4561.282227,4500.128418,5664.743652,4306.538574,4254.230957,0.000000,3.000000,74.000000,,,,0.000000,0.000000,0.000000,0.000000,0.000000,0.000000,0.000000,0.000000,0.000000,0.000000,0.000000,0.000000,0.000000,0.000000,0.000000,0.000000,,,,,,,,,,,,,,,,,24.000000,0.000000,0.784941,-0.616028,-0.061096,0.025391,0.064949,-0.979612,0.242217,4.204621,-15.040809,22.509584,,,,,,,,,,,,,,,,,,,,,,,,,,,,,,,,,,,,,,,,,,,,,,,,,,,,,,,,,,,,,,,,,,,,,,,,,,,,,,,,,,,,,,,,,,,,,,,,,,,,,
1738755394.824528,1738755394.825446,97.000000,0.000000,4322.436035,4352.948730,4253.333496,4303.589844,4353.589844,4361.922852,4367.948730,4551.153809,4538.589844,4562.948730,4497.307617,5663.077148,4307.692383,4252.307617,0.000000,3.000000,74.000000,,,,0.000000,0.000000,0.000000,0.000000,0.000000,0.000000,0.000000,0.000000,0.000000,0.000000,0.000000,0.000000,0.000000,0.000000,0.000000,0.000000,,,,,,,,,,,,,,,,,,,,,,,,,,,,,,,,,,,,,,,,,,,,,,,,,,,,,,,,,,,,,,,,,,,,,,,,,,,,,,,,,,,,,,,,,,,,,,,,,,,,,,,,,,,,,,,,,,,,,,,,,,,,,,,,,
1738755394.832336,1738755394.833354,98.000000,0.000000,4320.641113,4352.692383,4253.589844,4302.692383,4352.820313,4360.128418,4365.512695,4554.230957,4539.358887,4562.307617,4496.794922,5666.666504,4313.974121,4260.384766,0.000000,3.000000,74.000000,,,,0.000000,0.000000,0.000000,0.000000,0.000000,0.000000,0.000000,0.000000,0.000000,0.000000,0.000000,0.000000,0.000000,0.000000,0.000000,0.000000,,,,,,,,,,,,,,,,,,,,,,,,,,,,,,,,,,,,,,,,,,,,,,,,,,,,,,,,,,,,,,,,,,,,,,,,,,,,,,,,,,,,,,,,,,,,,,,,,,,,,,,,,,,,,,,,,,,,,,,,,,,,,,,,,
1738755394.840144,1738755394.841162,99.000000,0.000000,4324.358887,4349.487305,4254.102539,4300.769043,4349.871582,4360.384766,4367.051270,4554.615234,4540.384766,4559.102539,4498.461426,5667.692383,4311.153809,4260.641113,0.000000,3.000000,74.000000,,,,0.000000,0.000000,0.000000,0.000000,0.000000,0.000000,0.000000,0.000000,0.000000,0.000000,0.000000,0.000000,0.000000,0.000000,0.000000,0.000000,,,,,,,,,,,,,,,,,,,,,,,,,,,,,,,,,,,,,,,,,,,,,,,,,,,,,,,,,,,,,,,,,,,,,,,,,,,,,,,,,,,,,,,,,,,,,,,,,,,,,,,,,,,,,,,,,,,,,,,,,,,,,,,,,
1738755394.847952,1738755394.848871,100.000000,0.000000,4323.077148,4348.589844,4255.769043,4301.025879,4350.512695,4362.179688,4369.358887,4551.410156,4538.077148,4558.717773,4497.436035,5664.102539,4310.256348,4255.512695,0.000000,3.000000,74.000000,,,,0.000000,0.000000,0.000000,0.000000,0.000000,0.000000,0.000000,0.000000,0.000000,0.000000,0.000000,0.000000,0.000000,0.000000,0.000000,0.000000,,,,,,,,,,,,,,,,,25.000000,0.000000,0.784987,-0.615967,-0.061096,0.025452,0.074228,-0.983518,0.235380,4.317492,-15.020061,22.625294,,,,,,,,,,,,,,,,,,,,,,,,,,,,,,,,,,,,,,,,,,,,,,,,,,,,,,,,,,,,,,,,,,,,,,,,,,,,,,,,,,,,,,,,,,,,,,,,,,,,,
1738755394.855760,1738755394.856679,101.000000,0.000000,4316.666504,4348.205078,4255.256348,4303.461426,4356.153809,4361.282227,4365.256348,4548.077148,4541.153809,4559.743652,4495.769043,5659.743652,4316.794922,4256.410156,0.000000,3.000000,74.000000,,,,0.000000,0.000000,0.000000,0.000000,0.000000,0.000000,0.000000,0.000000,0.000000,0.000000,0.000000,0.000000,0.000000,0.000000,0.000000,0.000000,,,,,,,,,,,,,,,,,,,,,,,,,,,,,,,,,,,,,,,,,,,,,,,,,,,,,,,,,,,,,,,,,,,,,,,,,,,,,,,,,,,,,,,,,,,,,,,,,,,,,,,,,,,,,,,,,,,,,,,,,,,,,,,,,
1738755394.863568,1738755394.864387,102.000000,0.000000,4317.307617,4346.538574,4253.461426,4303.974121,4355.256348,4359.871582,4364.102539,4551.666504,4543.077148,4559.230957,4494.230957,5662.436035,4313.589844,4255.000000,0.000000,3.000000,74.000000,,,,0.000000,0.000000,0.000000,0.000000,0.000000,0.000000,0.000000,0.000000,0.000000,0.000000,0.000000,0.000000,0.000000,0.000000,0.000000,0.000000,,,,,,,,,,,,,,,,,,,,,,,,,,,,,,,,,,,,,,,,,,,,,,,,,,,,,,,,,,,,,,,,,,,,,,,,,,,,,,,,,,,,,,,,,,,,,,,,,,,,,,,,,,,,,,,,,,,,,,,,,,,,,,,,,
1738755394.871377,1738755394.872195,103.000000,0.000000,4321.025879,4347.692383,4252.307617,4301.410156,4351.025879,4361.538574,4366.922852,4552.307617,4539.358887,4558.974121,4495.512695,5663.974121,4311.282227,4252.948730,0.000000,3.000000,74.000000,,,,0.000000,0.000000,0.000000,0.000000,0.000000,0.000000,0.000000,0.000000,0.000000,0.000000,0.000000,0.000000,0.000000,0.000000,0.000000,0.000000,,,,,,,,,,,,,,,,,,,,,,,,,,,,,,,,,,,,,,,,,,,,,,,,,,,,,,,,,,,,,,,,,,,,,,,,,,,,,,,,,,,,,,,,,,,,,,,,,,,,,,,,,,,,,,,,,,,,,,,,,,,,,,,,,
1738755394.879185,1738755394.879903,104.000000,0.000000,4321.794922,4349.487305,4253.205078,4301.282227,4353.589844,4361.666504,4367.051270,4550.128418,4538.974121,4559.743652,4497.692383,5661.922852,4310.512695,4253.333496,0.000000,3.000000,74.000000,,,,0.000000,0.000000,0.000000,0.000000,0.000000,0.000000,0.000000,0.000000,0.000000,0.000000,0.000000,0.000000,0.000000,0.000000,0.000000,0.000000,,,,,,,,,,,,,,,,,26.000000,0.000000,0.785035,-0.615906,-0.061096,0.025452,0.055183,-0.974728,0.249054,4.285743,-15.118055,22.546097,,,,,,,,,,,,,,,,,,,,,,,,,,,,,,,,,,,,,,,,,,,,,,,,,,,,,,,,,,,,,,,,,,,,,,,,,,,,,,,,,,,,,,,,,,,,,,,,,,,,,
1738755394.886993,1738755394.887711,105.000000,0.000000,4321.282227,4349.358887,4255.256348,4305.641113,4354.487305,4359.358887,4364.230957,4552.820313,4541.666504,4559.487305,4495.384766,5660.897461,4307.436035,4255.256348,0.000000,3.000000,74.000000,,,,0.000000,0.000000,0.000000,0.000000,0.000000,0.000000,0.000000,0.000000,0.000000,0.000000,0.000000,0.000000,0.000000,0.000000,0.000000,0.000000,,,,,,,,,,,,,,,,,,,,,,,,,,,,,,,,,,,,,,,,,,,,,,,,,,,,,,,,,,,,,,,,,,,,,,,,,,,,,,,,,,,,,,,,,,,,,,,,,,,,,,,,,,,,,,,,,,,,,,,,,,,,,,,,,
1738755394.894801,1738755394.895419,106.000000,0.000000,4322.051270,4350.512695,4255.897461,4305.384766,4351.025879,4360.897461,4362.820313,4552.948730,4539.743652,4559.230957,4494.871582,5661.538574,4311.538574,4257.820313,0.000000,3.000000,74.000000,,,,0.000000,0.000000,0.000000,0.000000,0.000000,0.000000,0.000000,0.000000,0.000000,0.000000,0.000000,0.000000,0.000000,0.000000,0.000000,0.000000,,,,,,,,,,,,,,,,,,,,,,,,,,,,,,,,,,,,,,,,,,,,,,,,,,,,,,,,,,,,,,,,,,,,,,,,,,,,,,,,,,,,,,,,,,,,,,,,,,,,,,,,,,,,,,,,,,,,,,,,,,,,,,,,,
1738755394.902609,1738755394.903227,107.000000,0.000000,4323.717773,4351.794922,4254.871582,4302.436035,4351.922852,4363.077148,4366.282227,4551.282227,4536.538574,4559.487305,4497.948730,5662.436035,4313.974121,4256.666504,0.000000,3.000000,74.000000,,,,0.000000,0.000000,0.000000,0.000000,0.000000,0.000000,0.000000,0.000000,0.000000,0.000000,0.000000,0.000000,0.000000,0.000000,0.000000,0.000000,,,,,,,,,,,,,,,,,,,,,,,,,,,,,,,,,,,,,,,,,,,,,,,,,,,,,,,,,,,,,,,,,,,,,,,,,,,,,,,,,,,,,,,,,,,,,,,,,,,,,,,,,,,,,,,,,,,,,,,,,,,,,,,,,
1738755394.910417,1738755394.910935,108.000000,0.000000,4323.461426,4351.025879,4254.487305,4301.538574,4353.333496,4361.282227,4368.333496,4553.717773,4539.358887,4558.717773,4499.102539,5659.615234,4311.794922,4256.666504,0.000000,3.000000,74.000000,,,,0.000000,0.000000,0.000000,0.000000,0.000000,0.000000,0.000000,0.000000,0.000000,0.000000,0.000000,0.000000,0.000000,0.000000,0.000000,0.000000,,,,,,,,,,,,,,,,,27.000000,0.000000,0.785032,-0.615906,-0.061157,0.025391,0.071298,-0.969357,0.245147,4.373836,-15.122916,22.474821,,,,,,,,,,,,,,,,,,,,,,,,,,,,,,,,,,,,,,,,,,,,,,,,,,,,,,,,,,,,,,,,,,,,,,,,,,,,,,,,,,,,,,,,,,,,,,,,,,,,,
1738755394.918225,1738755394.918743,109.000000,0.000000,4321.282227,4350.384766,4254.871582,4300.769043,4350.769043,4361.410156,4368.974121,4554.487305,4540.128418,4558.077148,4497.307617,5661.282227,4310.512695,4258.333496,0.000000,3.000000,74.000000,,,,0.000000,0.000000,0.000000,0.000000,0.000000,0.000000,0.000000,0.000000,0.000000,0.000000,0.000000,0.000000,0.000000,0.000000,0.000000,0.000000,,,,,,,,,,,,,,,,,,,,,,,,,,,,,,,,,,,,,,,,,,,,,,,,,,,,,,,,,,,,,,,,,,,,,,,,,,,,,,,,,,,,,,,,,,,,,,,,,,,,,,,,,,,,,,,,,,,,,,,,,,,,,,,,,
1738755394.926033,1738755394.926451,110.000000,0.000000,4321.666504,4349.230957,4254.487305,4301.922852,4349.871582,4363.974121,4367.179688,4550.256348,4537.436035,4560.000000,4497.179688,5665.256348,4309.871582,4257.307617,0.000000,3.000000,74.000000,,,,0.000000,0.000000,0.000000,0.000000,0.000000,0.000000,0.000000,0.000000,0.000000,0.000000,0.000000,0.000000,0.000000,0.000000,0.000000,0.000000,,,,,,,,,,,,,,,,,,,,,,,,,,,,,,,,,,,,,,,,,,,,,,,,,,,,,,,,,,,,0.009353,0.027367,0.026937,0.027533,0.025687,0.019132,0.016898,0.026947,0.018474,0.025539,0.005466,0.027774,0.032970,0.027017,0.021883,0.029174,0.015561,0.027267,0.009350,0.024864,0.022243,0.012974,0.011457,0.016199,0.017179,0.035098,0.024189,0.020581,0.028008,0.024050,0.031401,0.022976,0.050929,0.033096,0.027032,0.022414,0.017207,0.008247,0.026962,0.022039,0.033576,0.079133,0.019984,0.024017,0.032377,0.032002,0.025295,0.019504,0.015557,0.016998,0.020990,0.018000,0.051050,0.026853,0.018506,0.032114,0.032767,0.031314,0.020828,0.028449,0.065000,0.031039,0.086133,0.022971,0.025157,0.033758,0.038601,0.038256,0.022142,0.019453
1738755394.933841,1738755394.934259,111.000000,0.000000,4325.000000,4346.153809,4254.358887,4300.384766,4353.205078,4362.692383,4360.641113,4547.179688,4539.358887,4561.538574,4498.333496,5662.436035,4311.410156,4256.794922,0.000000,3.000000,74.000000,,,,0.000000,0.000000,0.000000,0.000000,0.000000,0.000000,0.000000,0.000000,0.000000,0.000000,0.000000,0.000000,0.000000,0.000000,0.000000,0.000000,,,,,,,,,,,,,,,,,,,,,,,,,,,,,,,,,,,,,,,,,,,,,,,,,,,,,,,,,,,,,,,,,,,,,,,,,,,,,,,,,,,,,,,,,,,,,,,,,,,,,,,,,,,,,,,,,,,,,,,,,,,,,,,,,
1738755394.941650,1738755394.941968,112.000000,0.000000,4326.538574,4346.153809,4254.743652,4301.282227,4354.487305,4360.512695,4363.846191,4548.717773,4538.589844,4560.000000,4497.436035,5664.102539,4308.205078,4256.666504,0.000000,3.000000,74.000000,,,,0.000000,0.000000,0.000000,0.000000,0.000000,0.000000,0.000000,0.000000,0.000000,0.000000,0.000000,0.000000,0.000000,0.000000,0.000000,0.000000,,,,,,,,,,,,,,,,,28.000000,0.000000,0.784994,-0.615967,-0.061035,0.025391,0.063484,-0.974728,0.237822,4.419785,-15.127292,22.410673,,,,,,,,,,,,,,,,,,,,,,,,,,,,,,,,,,,,,,,,,,,,,,,,,,,,,,,,,,,,,,,,,,,,,,,,,,,,,,,,,,,,,,,,,,,,,,,,,,,,,
1738755394.949458,1738755394.949776,113.000000,0.000000,4322.692383,4349.102539,4255.128418,4304.230957,4352.307617,4362.436035,4368.974121,4549.230957,4535.512695,4560.769043,4497.948730,5665.641113,4308.589844,4256.025879,0.000000,3.000000,74.000000,,,,0.000000,0.000000,0.000000,0.000000,0.000000,0.000000,0.000000,0.000000,0.000000,0.000000,0.000000,0.000000,0.000000,0.000000,0.000000,0.000000,,,,,,,,,,,,,,,,,,,,,,,,,,,,,,,,,,,,,,,,,,,,,,,,,,,,,,,,,,,,,,,,,,,,,,,,,,,,,,,,,,,,,,,,,,,,,,,,,,,,,,,,,,,,,,,,,,,,,,,,,,,,,,,,,
1738755394.957266,1738755394.957484,114.000000,0.000000,4321.410156,4351.025879,4255.000000,4302.692383,4352.051270,4362.692383,4366.153809,4551.153809,4537.820313,4561.794922,4496.922852,5661.794922,4312.179688,4252.948730,0.000000,3.000000,74.000000,,,,0.000000,0.000000,0.000000,0.000000,0.000000,0.000000,0.000000,0.000000,0.000000,0.000000,0.000000,0.000000,0.000000,0.000000,0.000000,0.000000,,,,,,,,,,,,,,,,,,,,,,,,,,,,,,,,,,,,,,,,,,,,,,,,,,,,,,,,,,,,,,,,,,,,,,,,,,,,,,,,,,,,,,,,,,,,,,,,,,,,,,,,,,,,,,,,,,,,,,,,,,,,,,,,,
1738755394.965074,1738755394.965392,115.000000,0.000000,4323.461426,4351.538574,4254.102539,4302.051270,4354.358887,4360.128418,4366.025879,4554.230957,4540.000000,4559.102539,4493.461426,5663.846191,4306.282227,4249.743652,0.000000,3.000000,74.000000,,,,0.000000,0.000000,0.000000,0.000000,0.000000,0.000000,0.000000,0.000000,0.000000,0.000000,0.000000,0.000000,0.000000,0.000000,0.000000,0.000000,,,,,,,,,,,,,,,,,,,,,,,,,,,,,,,,,,,,,,,,,,,,,,,,,,,,,,,,,,,,,,,,,,,,,,,,,,,,,,,,,,,,,,,,,,,,,,,,,,,,,,,,,,,,,,,,,,,,,,,,,,,,,,,,,
1738755394.972882,1738755394.973200,116.000000,0.000000,4322.436035,4351.666504,4253.717773,4301.922852,4353.589844,4357.436035,4366.153809,4551.153809,4540.128418,4558.461426,4495.897461,5665.256348,4306.282227,4253.077148,0.000000,3.000000,74.000000,,,,0.000000,0.000000,0.000000,0.000000,0.000000,0.000000,0.000000,0.000000,0.000000,0.000000,0.000000,0.000000,0.000000,0.000000,0.000000,0.000000,,,,,,,,,,,,,,,,,29.000000,0.000000,0.785035,-0.615906,-0.061096,0.025452,0.071786,-0.989379,0.235380,4.477807,-15.014563,22.419605,,,,,,,,,,,,,,,,,,,,,,,,,,,,,,,,,,,,,,,,,,,,,,,,,,,,,,,,,,,,,,,,,,,,,,,,,,,,,,,,,,,,,,,,,,,,,,,,,,,,,
1738755394.980690,1738755394.981108,117.000000,0.000000,4322.820313,4352.436035,4255.256348,4301.666504,4351.666504,4356.666504,4364.871582,4549.358887,4541.153809,4561.025879,4499.358887,5663.589844,4310.256348,4254.871582,0.000000,3.000000,74.000000,,,,0.000000,0.000000,0.000000,0.000000,0.000000,0.000000,0.000000,0.000000,0.000000,0.000000,0.000000,0.000000,0.000000,0.000000,0.000000,0.000000,,,,,,,,,,,,,,,,,,,,,,,,,,,,,,,,,,,,,,,,,,,,,,,,,,,,,,,,,,,,,,,,,,,,,,,,,,,,,,,,,,,,,,,,,,,,,,,,,,,,,,,,,,,,,,,,,,,,,,,,,,,,,,,,,
1738755394.988498,1738755394.988916,118.000000,0.000000,4324.743652,4351.153809,4255.128418,4301.410156,4353.077148,4359.230957,4365.769043,4551.410156,4541.282227,4560.897461,4497.820313,5662.692383,4310.512695,4254.743652,0.000000,3.000000,74.000000,,,,0.000000,0.000000,0.000000,0.000000,0.000000,0.000000,0.000000,0.000000,0.000000,0.000000,0.000000,0.000000,0.000000,0.000000,0.000000,0.000000,,,,,,,,,,,,,,,,,,,,,,,,,,,,,,,,,,,,,,,,,,,,,,,,,,,,,,,,,,,,,,,,,,,,,,,,,,,,,,,,,,,,,,,,,,,,,,,,,,,,,,,,,,,,,,,,,,,,,,,,,,,,,,,,,
1738755394.996306,1738755394.996824,119.000000,0.000000,4323.717773,4348.846191,4253.974121,4300.897461,4353.846191,4359.358887,4366.025879,4550.000000,4539.102539,4560.384766,4496.282227,5662.820313,4308.589844,4258.077148,0.000000,3.000000,74.000000,,,,0.000000,0.000000,0.000000,0.000000,0.000000,0.000000,0.000000,0.000000,0.000000,0.000000,0.000000,0.000000,0.000000,0.000000,0.000000,0.000000,,,,,,,,,,,,,,,,,,,,,,,,,,,,,,,,,,,,,,,,,,,,,,,,,,,,,,,,,,,,,,,,,,,,,,,,,,,,,,,,,,,,,,,,,,,,,,,,,,,,,,,,,,,,,,,,,,,,,,,,,,,,,,,,,
1738755395.004114,1738755395.004633,120.000000,0.000000,4323.974121,4348.846191,4256.153809,4303.077148,4353.205078,4357.820313,4365.512695,4550.384766,4537.948730,4560.256348,4497.563965,5664.487305,4305.769043,4257.051270,0.000000,3.000000,74.000000,,,,0.000000,0.000000,0.000000,0.000000,0.000000,0.000000,0.000000,0.000000,0.000000,0.000000,0.000000,0.000000,0.000000,0.000000,0.000000,0.000000,,,,,,,,,,,,,,,,,30.000000,0.000000,0.785039,-0.615906,-0.061035,0.025452,0.068856,-0.966427,0.236845,4.363359,-15.096439,22.427645,,,,,,,,,,,,,,,,,,,,,,,,,,,,,,,,,,,,,,,,,,,,,,,,,,,,,,,,,,,,,,,,,,,,,,,,,,,,,,,,,,,,,,,,,,,,,,,,,,,,,
1738755395.011922,1738755395.012541,121.000000,0.000000,4324.230957,4349.615234,4255.641113,4303.461426,4352.563965,4360.384766,4365.256348,4552.948730,4538.717773,4559.871582,4496.666504,5664.487305,4309.487305,4255.384766,0.000000,3.000000,74.000000,,,,0.000000,0.000000,0.000000,0.000000,0.000000,0.000000,0.000000,0.000000,0.000000,0.000000,0.000000,0.000000,0.000000,0.000000,0.000000,0.000000,,,,,,,,,,,,,,,,,,,,,,,,,,,,,,,,,,,,,,,,,,,,,,,,,,,,,,,,,,,,,,,,,,,,,,,,,,,,,,,,,,,,,,,,,,,,,,,,,,,,,,,,,,,,,,,,,,,,,,,,,,,,,,,,,
1738755395.019730,1738755395.020349,122.000000,0.000000,4321.666504,4349.871582,4253.717773,4303.077148,4353.589844,4362.563965,4364.358887,4551.410156,4539.871582,4561.153809,4494.230957,5663.846191,4308.077148,4254.615234,0.000000,3.000000,74.000000,,,,0.000000,0.000000,0.000000,0.000000,0.000000,0.000000,0.000000,0.000000,0.000000,0.000000,0.000000,0.000000,0.000000,0.000000,0.000000,0.000000,,,,,,,,,,,,,,,,,,,,,,,,,,,,,,,,,,,,,,,,,,,,,,,,,,,,,,,,,,,,,,,,,,,,,,,,,,,,,,,,,,,,,,,,,,,,,,,,,,,,,,,,,,,,,,,,,,,,,,,,,,,,,,,,,
1738755395.027539,1738755395.028257,123.000000,0.000000,4320.384766,4349.743652,4256.282227,4302.563965,4354.102539,4359.615234,4364.487305,4550.256348,4541.282227,4561.538574,4495.128418,5663.974121,4307.179688,4255.128418,0.000000,3.000000,74.000000,,,,0.000000,0.000000,0.000000,0.000000,0.000000,0.000000,0.000000,0.000000,0.000000,0.000000,0.000000,0.000000,0.000000,0.000000,0.000000,0.000000,,,,,,,,,,,,,,,,,,,,,,,,,,,,,,,,,,,,,,,,,,,,,,,,,,,,,,,,,,,,,,,,,,,,,,,,,,,,,,,,,,,,,,,,,,,,,,,,,,,,,,,,,,,,,,,,,,,,,,,,,,,,,,,,,
1738755395.035347,1738755395.036065,124.000000,0.000000,4320.641113,4351.282227,4257.179688,4301.538574,4352.692383,4359.102539,4366.666504,4552.051270,4540.256348,4561.538574,4495.897461,5663.589844,4315.000000,4258.717773,0.000000,3.000000,74.000000,,,,0.000000,0.000000,0.000000,0.000000,0.000000,0.000000,0.000000,0.000000,0.000000,0.000000,0.000000,0.000000,0.000000,0.000000,0.000000,0.000000,,,,,,,,,,,,,,,,,31.000000,0.000000,0.785037,-0.615906,-0.061096,0.025391,0.061043,-0.978147,0.234404,4.443690,-15.236795,22.568213,,,,,,,,,,,,,,,,,,,,,,,,,,,,,,,,,,,,,,,,,,,,,,,,,,,,,,,,,,,,,,,,,,,,,,,,,,,,,,,,,,,,,,,,,,,,,,,,,,,,,
1738755395.043155,1738755395.043773,125.000000,0.000000,4321.410156,4352.307617,4253.077148,4303.077148,4352.307617,4362.820313,4365.641113,4550.897461,4535.512695,4560.769043,4495.384766,5662.820313,4312.307617,4257.692383,0.000000,3.000000,74.000000,,,,0.000000,0.000000,0.000000,0.000000,0.000000,0.000000,0.000000,0.000000,0.000000,0.000000,0.000000,0.000000,0.000000,0.000000,0.000000,0.000000,,,,,,,,,,,,,,,,,,,,,,,,,,,,,,,,,,,,,,,,,,,,,,,,,,,,,,,,,,,,,,,,,,,,,,,,,,,,,,,,,,,,,,,,,,,,,,,,,,,,,,,,,,,,,,,,,,,,,,,,,,,,,,,,,
1738755395.050963,1738755395.051582,126.000000,0.000000,4322.051270,4352.436035,4250.256348,4304.102539,4352.179688,4361.666504,4362.948730,4548.205078,4535.769043,4558.974121,4497.436035,5661.153809,4306.025879,4256.410156,0.000000,3.000000,74.000000,,,,0.000000,0.000000,0.000000,0.000000,0.000000,0.000000,0.000000,0.000000,0.000000,0.000000,0.000000,0.000000,0.000000,0.000000,0.000000,0.000000,,,,,,,,,,,,,,,,,,,,,,,,,,,,,,,,,,,,,,,,,,,,,,,,,,,,,,,,,,,,0.011119,0.032312,0.030137,0.032781,0.023708,0.019628,0.017749,0.025460,0.017300,0.023431,0.005815,0.027562,0.029910,0.024747,0.022813,0.028131,0.019350,0.032038,0.008614,0.023622,0.020789,0.009276,0.009649,0.012644,0.017046,0.032511,0.023889,0.021900,0.032025,0.024312,0.027822,0.025340,0.060833,0.036986,0.028572,0.023397,0.017580,0.007664,0.023469,0.024055,0.033143,0.076662,0.019624,0.020700,0.033242,0.030184,0.023695,0.018214,0.015126,0.018607,0.025918,0.019122,0.050056,0.028669,0.020305,0.033583,0.039113,0.028163,0.021785,0.027194,0.061773,0.033839,0.089563,0.022375,0.024062,0.034735,0.034462,0.033597,0.018238,0.019578
1738755395.058771,1738755395.059290,127.000000,0.000000,4322.179688,4350.769043,4252.948730,4303.077148,4351.666504,4358.333496,4363.717773,4551.410156,4537.820313,4558.846191,4498.461426,5663.205078,4308.974121,4256.410156,74.000000,3.000000,74.000000,,,,0.000000,0.000000,0.000000,0.000000,0.000000,0.000000,0.000000,0.000000,0.000000,0.000000,0.000000,0.000000,0.000000,0.000000,0.000000,0.000000,,,,,,,,,,,,,,,,,,,,,,,,,,,,,,,,,,,,,,,,,,,,,,,,,,,,,,,,,,,,,,,,,,,,,,,,,,,,,,,,,,,,,,,,,,,,,,,,,,,,,,,,,,,,,,,,,,,,,,,,,,,,,,,,,
1738755395.066579,1738755395.067098,0.000000,0.000000,4322.436035,4350.384766,4256.410156,4303.461426,4353.077148,4359.230957,4365.128418,4552.692383,4538.461426,4559.871582,4495.512695,5665.769043,4311.410156,4255.256348,0.000000,3.000000,74.000000,,,,0.000000,0.000000,0.000000,0.000000,0.000000,0.000000,0.000000,0.000000,0.000000,0.000000,0.000000,0.000000,0.000000,0.000000,0.000000,0.000000,,,,,,,,,,,,,,,,,0.000000,0.000000,0.785043,-0.615906,-0.061035,0.025330,0.059578,-0.972287,0.243682,4.532654,-15.196449,22.561392,,,,,,,,,,,,,,,,,,,,,,,,,,,,,,,,,,,,,,,,,,,,,,,,,,,,,,,,,,,,,,,,,,,,,,,,,,,,,,,,,,,,,,,,,,,,,,,,,,,,,
1738755395.074387,1738755395.074806,1.000000,0.000000,4321.794922,4353.077148,4256.282227,4302.948730,4353.589844,4362.179688,4365.384766,4548.974121,4541.794922,4559.102539,4493.974121,5662.051270,4309.743652,4255.897461,0.000000,3.000000,74.000000,,,,0.000000,0.000000,0.000000,0.000000,0.000000,0.000000,0.000000,0.000000,0.000000,0.000000,0.000000,0.000000,0.000000,0.000000,0.000000,0.000000,,,,,,,,,,,,,,,,,,,,,,,,,,,,,,,,,,,,,,,,,,,,,,,,,,,,,,,,,,,,,,,,,,,,,,,,,,,,,,,,,,,,,,,,,,,,,,,,,,,,,,,,,,,,,,,,,,,,,,,,,,,,,,,,,
1738755395.082195,1738755395.082614,2.000000,0.000000,4321.153809,4350.512695,4255.512695,4302.179688,4350.641113,4361.025879,4368.205078,4551.666504,4540.769043,4557.179688,4496.666504,5662.051270,4309.102539,4255.000000,0.000000,3.000000,74.000000,,,,0.000000,0.000000,0.000000,0.000000,0.000000,0.000000,0.000000,0.000000,0.000000,0.000000,0.000000,0.000000,0.000000,0.000000,0.000000,0.000000,,,,,,,,,,,,,,,,,,,,,,,,,,,,,,,,,,,,,,,,,,,,,,,,,,,,,,,,,,,,,,,,,,,,,,,,,,,,,,,,,,,,,,,,,,,,,,,,,,,,,,,,,,,,,,,,,,,,,,,,,,,,,,,,,
1738755395.090003,1738755395.090322,3.000000,0.000000,4319.358887,4348.846191,4256.794922,4302.307617,4351.153809,4358.974121,4365.000000,4555.000000,4540.128418,4558.717773,4498.205078,5664.102539,4311.538574,4254.102539,0.000000,3.000000,74.000000,,,,0.000000,0.000000,0.000000,0.000000,0.000000,0.000000,0.000000,0.000000,0.000000,0.000000,0.000000,0.000000,0.000000,0.000000,0.000000,0.000000,,,,,,,,,,,,,,,,,,,,,,,,,,,,,,,,,,,,,,,,,,,,,,,,,,,,,,,,,,,,,,,,,,,,,,,,,,,,,,,,,,,,,,,,,,,,,,,,,,,,,,,,,,,,,,,,,,,,,,,,,,,,,,,,,
1738755395.097812,1738755395.098130,4.000000,0.000000,4318.333496,4349.615234,4256.025879,4301.922852,4353.589844,4360.128418,4362.820313,4551.282227,4542.179688,4560.128418,4496.922852,5662.692383,4311.025879,4255.897461,0.000000,3.000000,74.000000,,,,0.000000,0.000000,0.000000,0.000000,0.000000,0.000000,0.000000,0.000000,0.000000,0.000000,0.000000,0.000000,0.000000,0.000000,0.000000,0.000000,,,,,,,,,,,,,,,,,1.000000,0.000000,0.785044,-0.615906,-0.060974,0.025452,0.075693,-0.969845,0.230497,4.512722,-15.276804,22.655252,,,,,,,,,,,,,,,,,,,,,,,,,,,,,,,,,,,,,,,,,,,,,,,,,,,,,,,,,,,,,,,,,,,,,,,,,,,,,,,,,,,,,,,,,,,,,,,,,,,,,
1738755395.105620,1738755395.105838,5.000000,0.000000,4321.153809,4347.820313,4251.025879,4299.743652,4350.769043,4361.025879,4367.179688,4547.948730,4538.717773,4558.589844,4496.794922,5665.000000,4308.589844,4257.179688,0.000000,3.000000,74.000000,,,,0.000000,0.000000,0.000000,0.000000,0.000000,0.000000,0.000000,0.000000,0.000000,0.000000,0.000000,0.000000,0.000000,0.000000,0.000000,0.000000,,,,,,,,,,,,,,,,,,,,,,,,,,,,,,,,,,,,,,,,,,,,,,,,,,,,,,,,,,,,,,,,,,,,,,,,,,,,,,,,,,,,,,,,,,,,,,,,,,,,,,,,,,,,,,,,,,,,,,,,,,,,,,,,,
1738755395.113428,1738755395.113646,6.000000,0.000000,4323.717773,4348.846191,4252.436035,4301.538574,4347.820313,4360.512695,4364.871582,4547.820313,4538.077148,4557.563965,4496.794922,5666.282227,4309.487305,4255.384766,0.000000,3.000000,74.000000,,,,0.000000,0.000000,0.000000,0.000000,0.000000,0.000000,0.000000,0.000000,0.000000,0.000000,0.000000,0.000000,0.000000,0.000000,0.000000,0.000000,,,,,,,,,,,,,,,,,,,,,,,,,,,,,,,,,,,,,,,,,,,,,,,,,,,,,,,,,,,,,,,,,,,,,,,,,,,,,,,,,,,,,,,,,,,,,,,,,,,,,,,,,,,,,,,,,,,,,,,,,,,,,,,,,
1738755395.121236,1738755395.121354,7.000000,0.000000,4322.179688,4351.025879,4254.743652,4307.307617,4350.128418,4361.538574,4364.102539,4551.410156,4541.538574,4558.205078,4495.512695,5664.487305,4307.692383,4253.974121,0.000000,3.000000,74.000000,,,,0.000000,0.000000,0.000000,0.000000,0.000000,0.000000,0.000000,0.000000,0.000000,0.000000,0.000000,0.000000,0.000000,0.000000,0.000000,0.000000,,,,,,,,,,,,,,,,,,,,,,,,,,,,,,,,,,,,,,,,,,,,,,,,,,,,,,,,,,,,,,,,,,,,,,,,,,,,,,,,,,,,,,,,,,,,,,,,,,,,,,,,,,,,,,,,,,,,,,,,,,,,,,,,,
1738755395.129044,1738755395.129262,8.000000,0.000000,4319.871582,4350.512695,4251.666504,4304.358887,4351.025879,4363.589844,4367.436035,4552.307617,4540.256348,4558.846191,4496.538574,5660.769043,4310.897461,4256.025879,0.000000,3.000000,74.000000,,,,0.000000,0.000000,0.000000,0.000000,0.000000,0.000000,0.000000,0.000000,0.000000,0.000000,0.000000,0.000000,0.000000,0.000000,0.000000,0.000000,,,,,,,,,,,,,,,,,2.000000,0.000000,0.785097,-0.615845,-0.060913,0.025452,0.052252,-0.980100,0.229032,4.428117,-15.282457,22.723061,,,,,,,,,,,,,,,,,,,,,,,,,,,,,,,,,,,,,,,,,,,,,,,,,,,,,,,,,,,,,,,,,,,,,,,,,,,,,,,,,,,,,,,,,,,,,,,,,,,,,
1738755395.136852,1738755395.137070,9.000000,0.000000,4321.666504,4348.589844,4253.205078,4299.487305,4350.256348,4363.077148,4364.871582,4549.487305,4539.102539,4557.692383,4496.538574,5660.384766,4315.000000,4255.641113,0.000000,3.000000,74.000000,,,,0.000000,0.000000,0.000000,0.000000,0.000000,0.000000,0.000000,0.000000,0.000000,0.000000,0.000000,0.000000,0.000000,0.000000,0.000000,0.000000,,,,,,,,,,,,,,,,,,,,,,,,,,,,,,,,,,,,,,,,,,,,,,,,,,,,,,,,,,,,,,,,,,,,,,,,,,,,,,,,,,,,,,,,,,,,,,,,,,,,,,,,,,,,,,,,,,,,,,,,,,,,,,,,,
1738755395.144660,1738755395.144878,10.000000,0.000000,4322.948730,4347.948730,4255.769043,4304.871582,4352.436035,4359.487305,4361.538574,4551.153809,4541.922852,4557.179688,4494.615234,5664.743652,4310.256348,4252.436035,0.000000,3.000000,74.000000,,,,0.000000,0.000000,0.000000,0.000000,0.000000,0.000000,0.000000,0.000000,0.000000,0.000000,0.000000,0.000000,0.000000,0.000000,0.000000,0.000000,,,,,,,,,,,,,,,,,,,,,,,,,,,,,,,,,,,,,,,,,,,,,,,,,,,,,,,,,,,,,,,,,,,,,,,,,,,,,,,,,,,,,,,,,,,,,,,,,,,,,,,,,,,,,,,,,,,,,,,,,,,,,,,,,
1738755395.152468,1738755395.152587,11.000000,0.000000,4319.743652,4350.128418,4252.179688,4307.307617,4353.205078,4359.487305,4362.436035,4552.051270,4540.512695,4560.000000,4495.769043,5663.205078,4311.282227,4254.871582,0.000000,3.000000,74.000000,,,,0.000000,0.000000,0.000000,0.000000,0.000000,0.000000,0.000000,0.000000,0.000000,0.000000,0.000000,0.000000,0.000000,0.000000,0.000000,0.000000,,,,,,,,,,,,,,,,,,,,,,,,,,,,,,,,,,,,,,,,,,,,,,,,,,,,,,,,,,,,,,,,,,,,,,,,,,,,,,,,,,,,,,,,,,,,,,,,,,,,,,,,,,,,,,,,,,,,,,,,,,,,,,,,,
1738755395.160276,1738755395.160495,12.000000,0.000000,4321.282227,4351.666504,4254.102539,4305.641113,4350.512695,4362.179688,4366.153809,4549.615234,4536.666504,4561.153809,4495.000000,5662.179688,4309.871582,4256.153809,0.000000,3.000000,74.000000,,,,0.000000,0.000000,0.000000,0.000000,0.000000,0.000000,0.000000,0.000000,0.000000,0.000000,0.000000,0.000000,0.000000,0.000000,0.000000,0.000000,,,,,,,,,,,,,,,,,3.000000,0.000000,0.785099,-0.615845,-0.060913,0.025391,0.063973,-0.974728,0.231474,4.385305,-15.487545,22.717421,,,,,,,,,,,,,,,,,,,,,,,,,,,,,,,,,,,,,,,,,,,,,,,,,,,,,,,,,,,,,,,,,,,,,,,,,,,,,,,,,,,,,,,,,,,,,,,,,,,,,
1738755395.168085,1738755395.168303,13.000000,0.000000,4324.358887,4350.897461,4259.230957,4302.563965,4351.025879,4359.871582,4367.051270,4549.102539,4539.743652,4559.615234,4495.384766,5664.230957,4305.000000,4254.743652,0.000000,3.000000,74.000000,,,,0.000000,0.000000,0.000000,0.000000,0.000000,0.000000,0.000000,0.000000,0.000000,0.000000,0.000000,0.000000,0.000000,0.000000,0.000000,0.000000,,,,,,,,,,,,,,,,,,,,,,,,,,,,,,,,,,,,,,,,,,,,,,,,,,,,,,,,,,,,,,,,,,,,,,,,,,,,,,,,,,,,,,,,,,,,,,,,,,,,,,,,,,,,,,,,,,,,,,,,,,,,,,,,,
1738755395.175892,1738755395.176211,14.000000,0.000000,4321.538574,4350.256348,4255.641113,4298.589844,4353.717773,4358.077148,4365.128418,4549.230957,4543.333496,4559.358887,4498.461426,5663.461426,4311.794922,4257.563965,0.000000,3.000000,74.000000,,,,0.000000,0.000000,0.000000,0.000000,0.000000,0.000000,0.000000,0.000000,0.000000,0.000000,0.000000,0.000000,0.000000,0.000000,0.000000,0.000000,,,,,,,,,,,,,,,,,,,,,,,,,,,,,,,,,,,,,,,,,,,,,,,,,,,,,,,,,,,,0.014777,0.038826,0.033822,0.036315,0.022055,0.021230,0.018849,0.024598,0.016509,0.020960,0.006673,0.029703,0.027083,0.022594,0.023703,0.027749,0.023520,0.040123,0.009107,0.023666,0.019440,0.007431,0.009901,0.010319,0.016739,0.027707,0.023487,0.022224,0.035930,0.025836,0.023142,0.026729,0.068067,0.039784,0.031318,0.027174,0.018658,0.008960,0.020834,0.027278,0.030905,0.068504,0.018942,0.018319,0.033762,0.027360,0.021110,0.017221,0.015574,0.020856,0.031536,0.020246,0.046255,0.028724,0.022951,0.033925,0.043755,0.026477,0.022551,0.026557,0.056930,0.038385,0.086205,0.021272,0.025027,0.034765,0.032671,0.030161,0.016368,0.020667
1738755395.183701,1738755395.184019,15.000000,0.000000,4319.102539,4350.384766,4252.948730,4301.538574,4352.307617,4362.051270,4363.589844,4549.487305,4538.717773,4559.487305,4496.666504,5664.615234,4309.743652,4256.410156,0.000000,3.000000,74.000000,,,,0.000000,0.000000,0.000000,0.000000,0.000000,0.000000,0.000000,0.000000,0.000000,0.000000,0.000000,0.000000,0.000000,0.000000,0.000000,0.000000,,,,,,,,,,,,,,,,,,,,,,,,,,,,,,,,,,,,,,,,,,,,,,,,,,,,,,,,,,,,,,,,,,,,,,,,,,,,,,,,,,,,,,,,,,,,,,,,,,,,,,,,,,,,,,,,,,,,,,,,,,,,,,,,,
1738755395.191509,1738755395.191927,16.000000,0.000000,4320.641113,4351.666504,4256.282227,4303.461426,4349.230957,4361.922852,4364.102539,4550.512695,4535.128418,4559.358887,4495.641113,5664.487305,4305.256348,4253.461426,0.000000,3.000000,74.000000,,,,0.000000,0.000000,0.000000,0.000000,0.000000,0.000000,0.000000,0.000000,0.000000,0.000000,0.000000,0.000000,0.000000,0.000000,0.000000,0.000000,,,,,,,,,,,,,,,,,4.000000,0.000000,0.785094,-0.615845,-0.060974,0.025391,0.061531,-0.980100,0.229032,4.363441,-15.422124,22.779013,,,,,,,,,,,,,,,,,,,,,,,,,,,,,,,,,,,,,,,,,,,,,,,,,,,,,,,,,,,,,,,,,,,,,,,,,,,,,,,,,,,,,,,,,,,,,,,,,,,,,
1738755395.199317,1738755395.199735,17.000000,0.000000,4323.846191,4349.871582,4256.666504,4300.897461,4351.410156,4359.487305,4365.897461,4552.948730,4540.128418,4560.384766,4497.307617,5663.974121,4309.102539,4255.641113,0.000000,3.000000,74.000000,,,,0.000000,0.000000,0.000000,0.000000,0.000000,0.000000,0.000000,0.000000,0.000000,0.000000,0.000000,0.000000,0.000000,0.000000,0.000000,0.000000,,,,,,,,,,,,,,,,,,,,,,,,,,,,,,,,,,,,,,,,,,,,,,,,,,,,,,,,,,,,,,,,,,,,,,,,,,,,,,,,,,,,,,,,,,,,,,,,,,,,,,,,,,,,,,,,,,,,,,,,,,,,,,,,,
1738755395.207125,1738755395.207644,18.000000,0.000000,4323.077148,4347.307617,4252.179688,4300.128418,4353.333496,4361.410156,4366.153809,4551.922852,4542.692383,4561.153809,4495.897461,5663.461426,4308.333496,4257.820313,0.000000,3.000000,74.000000,,,,0.000000,0.000000,0.000000,0.000000,0.000000,0.000000,0.000000,0.000000,0.000000,0.000000,0.000000,0.000000,0.000000,0.000000,0.000000,0.000000,,,,,,,,,,,,,,,,,,,,,,,,,,,,,,,,,,,,,,,,,,,,,,,,,,,,,,,,,,,,,,,,,,,,,,,,,,,,,,,,,,,,,,,,,,,,,,,,,,,,,,,,,,,,,,,,,,,,,,,,,,,,,,,,,
1738755395.214933,1738755395.215452,19.000000,0.000000,4320.897461,4349.230957,4251.025879,4300.897461,4350.897461,4360.512695,4364.615234,4550.384766,4539.102539,4560.256348,4496.794922,5661.794922,4309.871582,4257.051270,0.000000,3.000000,74.000000,,,,0.000000,0.000000,0.000000,0.000000,0.000000,0.000000,0.000000,0.000000,0.000000,0.000000,0.000000,0.000000,0.000000,0.000000,0.000000,0.000000,,,,,,,,,,,,,,,,,,,,,,,,,,,,,,,,,,,,,,,,,,,,,,,,,,,,,,,,,,,,,,,,,,,,,,,,,,,,,,,,,,,,,,,,,,,,,,,,,,,,,,,,,,,,,,,,,,,,,,,,,,,,,,,,,
1738755395.222741,1738755395.223360,20.000000,0.000000,4324.743652,4351.025879,4256.666504,4303.205078,4349.871582,4358.974121,4366.410156,4551.922852,4538.717773,4559.615234,4499.743652,5662.820313,4312.563965,4255.641113,0.000000,3.000000,74.000000,,,,0.000000,0.000000,0.000000,0.000000,0.000000,0.000000,0.000000,0.000000,0.000000,0.000000,0.000000,0.000000,0.000000,0.000000,0.000000,0.000000,,,,,,,,,,,,,,,,,5.000000,0.000000,0.785089,-0.615845,-0.061035,0.025391,0.064461,-0.966915,0.238310,4.227097,-15.263245,22.801111,,,,,,,,,,,,,,,,,,,,,,,,,,,,,,,,,,,,,,,,,,,,,,,,,,,,,,,,,,,,,,,,,,,,,,,,,,,,,,,,,,,,,,,,,,,,,,,,,,,,,
1738755395.230549,1738755395.231168,21.000000,0.000000,4325.769043,4349.358887,4257.179688,4303.846191,4351.025879,4358.974121,4368.974121,4550.256348,4540.000000,4560.641113,4498.717773,5662.563965,4311.025879,4258.717773,0.000000,3.000000,74.000000,,,,0.000000,0.000000,0.000000,0.000000,0.000000,0.000000,0.000000,0.000000,0.000000,0.000000,0.000000,0.000000,0.000000,0.000000,0.000000,0.000000,,,,,,,,,,,,,,,,,,,,,,,,,,,,,,,,,,,,,,,,,,,,,,,,,,,,,,,,,,,,,,,,,,,,,,,,,,,,,,,,,,,,,,,,,,,,,,,,,,,,,,,,,,,,,,,,,,,,,,,,,,,,,,,,,
1738755395.238357,1738755395.238876,22.000000,0.000000,4322.051270,4349.230957,4253.205078,4303.461426,4350.769043,4357.948730,4368.077148,4549.871582,4538.846191,4558.717773,4497.051270,5660.256348,4307.179688,4258.589844,0.000000,3.000000,74.000000,,,,0.000000,0.000000,0.000000,0.000000,0.000000,0.000000,0.000000,0.000000,0.000000,0.000000,0.000000,0.000000,0.000000,0.000000,0.000000,0.000000,,,,,,,,,,,,,,,,,,,,,,,,,,,,,,,,,,,,,,,,,,,,,,,,,,,,,,,,,,,,,,,,,,,,,,,,,,,,,,,,,,,,,,,,,,,,,,,,,,,,,,,,,,,,,,,,,,,,,,,,,,,,,,,,,
1738755395.246165,1738755395.246685,23.000000,0.000000,4322.307617,4352.051270,4254.487305,4302.692383,4351.666504,4361.153809,4366.282227,4552.436035,4539.230957,4556.666504,4497.563965,5662.436035,4309.230957,4254.743652,0.000000,3.000000,74.000000,,,,0.000000,0.000000,0.000000,0.000000,0.000000,0.000000,0.000000,0.000000,0.000000,0.000000,0.000000,0.000000,0.000000,0.000000,0.000000,0.000000,,,,,,,,,,,,,,,,,,,,,,,,,,,,,,,,,,,,,,,,,,,,,,,,,,,,,,,,,,,,,,,,,,,,,,,,,,,,,,,,,,,,,,,,,,,,,,,,,,,,,,,,,,,,,,,,,,,,,,,,,,,,,,,,,
1738755395.253974,1738755395.254393,24.000000,0.000000,4324.358887,4351.666504,4258.461426,4302.436035,4353.333496,4362.692383,4365.000000,4551.794922,4540.512695,4559.358887,4497.307617,5665.128418,4315.641113,4257.820313,0.000000,3.000000,74.000000,,,,0.000000,0.000000,0.000000,0.000000,0.000000,0.000000,0.000000,0.000000,0.000000,0.000000,0.000000,0.000000,0.000000,0.000000,0.000000,0.000000,,,,,,,,,,,,,,,,,6.000000,0.000000,0.785089,-0.615845,-0.061035,0.025391,0.061043,-0.976193,0.236357,4.254387,-15.220254,22.854334,,,,,,,,,,,,,,,,,,,,,,,,,,,,,,,,,,,,,,,,,,,,,,,,,,,,,,,,,,,,,,,,,,,,,,,,,,,,,,,,,,,,,,,,,,,,,,,,,,,,,
1738755395.261782,1738755395.262201,25.000000,0.000000,4323.846191,4349.230957,4256.153809,4302.436035,4352.051270,4357.820313,4365.512695,4548.846191,4537.179688,4562.179688,4495.384766,5664.230957,4313.589844,4260.256348,0.000000,3.000000,74.000000,,,,0.000000,0.000000,0.000000,0.000000,0.000000,0.000000,0.000000,0.000000,0.000000,0.000000,0.000000,0.000000,0.000000,0.000000,0.000000,0.000000,,,,,,,,,,,,,,,,,,,,,,,,,,,,,,,,,,,,,,,,,,,,,,,,,,,,,,,,,,,,,,,,,,,,,,,,,,,,,,,,,,,,,,,,,,,,,,,,,,,,,,,,,,,,,,,,,,,,,,,,,,,,,,,,,
1738755395.269590,1738755395.269909,26.000000,0.000000,4323.333496,4350.128418,4249.743652,4303.333496,4350.128418,4357.436035,4364.358887,4547.820313,4537.307617,4560.769043,4497.436035,5662.307617,4311.794922,4258.077148,0.000000,3.000000,74.000000,,,,0.000000,0.000000,0.000000,0.000000,0.000000,0.000000,0.000000,0.000000,0.000000,0.000000,0.000000,0.000000,0.000000,0.000000,0.000000,0.000000,,,,,,,,,,,,,,,,,,,,,,,,,,,,,,,,,,,,,,,,,,,,,,,,,,,,,,,,,,,,,,,,,,,,,,,,,,,,,,,,,,,,,,,,,,,,,,,,,,,,,,,,,,,,,,,,,,,,,,,,,,,,,,,,,
1738755395.277398,1738755395.277817,27.000000,0.000000,4322.436035,4350.512695,4251.794922,4305.769043,4350.897461,4361.538574,4364.102539,4549.487305,4542.948730,4558.974121,4500.000000,5663.205078,4311.153809,4257.307617,0.000000,3.000000,74.000000,,,,0.000000,0.000000,0.000000,0.000000,0.000000,0.000000,0.000000,0.000000,0.000000,0.000000,0.000000,0.000000,0.000000,0.000000,0.000000,0.000000,,,,,,,,,,,,,,,,,,,,,,,,,,,,,,,,,,,,,,,,,,,,,,,,,,,,,,,,,,,,,,,,,,,,,,,,,,,,,,,,,,,,,,,,,,,,,,,,,,,,,,,,,,,,,,,,,,,,,,,,,,,,,,,,,
1738755395.285206,1738755395.285625,28.000000,0.000000,4322.436035,4349.871582,4258.205078,4305.512695,4351.410156,4360.384766,4364.358887,4553.717773,4542.436035,4559.871582,4495.384766,5667.563965,4310.769043,4256.538574,0.000000,3.000000,74.000000,,,,0.000000,0.000000,0.000000,0.000000,0.000000,0.000000,0.000000,0.000000,0.000000,0.000000,0.000000,0.000000,0.000000,0.000000,0.000000,0.000000,,,,,,,,,,,,,,,,,7.000000,0.000000,0.785192,-0.615723,-0.060974,0.025330,0.060554,-0.979123,0.240752,4.245615,-15.364895,22.768900,,,,,,,,,,,,,,,,,,,,,,,,,,,,,,,,,,,,,,,,,,,,,,,,,,,,,,,,,,,,,,,,,,,,,,,,,,,,,,,,,,,,,,,,,,,,,,,,,,,,,
1738755395.293014,1738755395.293533,29.000000,0.000000,4322.948730,4351.153809,4256.794922,4300.897461,4350.512695,4360.128418,4361.794922,4554.615234,4538.333496,4561.538574,4492.820313,5665.512695,4314.102539,4257.820313,0.000000,3.000000,74.000000,,,,0.000000,0.000000,0.000000,0.000000,0.000000,0.000000,0.000000,0.000000,0.000000,0.000000,0.000000,0.000000,0.000000,0.000000,0.000000,0.000000,,,,,,,,,,,,,,,,,,,,,,,,,,,,,,,,,,,,,,,,,,,,,,,,,,,,,,,,,,,,,,,,,,,,,,,,,,,,,,,,,,,,,,,,,,,,,,,,,,,,,,,,,,,,,,,,,,,,,,,,,,,,,,,,,
1738755395.300822,1738755395.301341,30.000000,0.000000,4322.179688,4351.538574,4253.461426,4301.282227,4351.538574,4362.820313,4366.282227,4551.666504,4536.666504,4560.384766,4496.794922,5663.333496,4310.512695,4258.205078,0.000000,3.000000,74.000000,,,,0.000000,0.000000,0.000000,0.000000,0.000000,0.000000,0.000000,0.000000,0.000000,0.000000,0.000000,0.000000,0.000000,0.000000,0.000000,0.000000,1.000000,0.000000,0.000000,0.000000,0.000000,0.000000,0.000000,0.000000,0.000000,0.000000,0.000000,0.000000,0.000000,0.000000,0.000000,0.000000,,,,,,,,,,,,,,,,,,,,,,,,,,,,,,,,,,,,,,,,,,,,0.019669,0.045729,0.036339,0.037783,0.020707,0.022951,0.020521,0.026375,0.015624,0.018907,0.007859,0.034018,0.024655,0.021342,0.024014,0.027567,0.026902,0.050043,0.010880,0.024436,0.017787,0.006644,0.011803,0.009363,0.016292,0.021998,0.023223,0.021231,0.038343,0.027924,0.018552,0.026324,0.070055,0.041078,0.034645,0.032787,0.019603,0.012831,0.020287,0.031602,0.027296,0.057507,0.018281,0.017252,0.033930,0.024614,0.018278,0.016461,0.016483,0.023189,0.035965,0.021246,0.041076,0.026926,0.026209,0.033268,0.045042,0.026866,0.022952,0.026823,0.051398,0.042862,0.077855,0.020237,0.027739,0.034106,0.033785,0.029854,0.015907,0.022586
1738755395.308630,1738755395.309249,31.000000,0.000000,4322.179688,4350.384766,4254.487305,4303.461426,4353.205078,4361.538574,4372.179688,4549.358887,4538.461426,4559.615234,4500.641113,5666.025879,4310.512695,4256.410156,0.000000,3.000000,74.000000,,,,0.000000,0.000000,0.000000,0.000000,0.000000,0.000000,0.000000,0.000000,0.000000,0.000000,0.000000,0.000000,0.000000,0.000000,0.000000,0.000000,,,,,,,,,,,,,,,,,,,,,,,,,,,,,,,,,,,,,,,,,,,,,,,,,,,,,,,,,,,,,,,,,,,,,,,,,,,,,,,,,,,,,,,,,,,,,,,,,,,,,,,,,,,,,,,,,,,,,,,,,,,,,,,,,
1738755395.316438,1738755395.317058,32.000000,0.000000,4324.230957,4350.512695,4256.538574,4300.769043,4354.358887,4362.436035,4369.615234,4549.615234,4540.897461,4561.410156,4500.128418,5664.230957,4311.282227,4255.128418,0.000000,3.000000,74.000000,,,,0.000000,0.000000,0.000000,0.000000,0.000000,0.000000,0.000000,0.000000,0.000000,0.000000,0.000000,0.000000,0.000000,0.000000,0.000000,0.000000,,,,,,,,,,,,,,,,,8.000000,0.000000,0.785188,-0.615723,-0.060974,0.025452,0.053229,-0.971798,0.240264,4.087720,-15.345072,22.758677,,,,,,,,,,,,,,,,,,,,,,,,,,,,,,,,,,,,,,,,,,,,,,,,,,,,,,,,,,,,,,,,,,,,,,,,,,,,,,,,,,,,,,,,,,,,,,,,,,,,,
1738755395.324247,1738755395.324866,33.000000,0.000000,4325.897461,4351.153809,4256.282227,4300.769043,4356.025879,4362.948730,4367.820313,4552.948730,4538.589844,4559.358887,4498.974121,5661.282227,4305.512695,4254.358887,0.000000,3.000000,74.000000,,,,0.000000,0.000000,0.000000,0.000000,0.000000,0.000000,0.000000,0.000000,0.000000,0.000000,0.000000,0.000000,0.000000,0.000000,0.000000,0.000000,,,,,,,,,,,,,,,,,,,,,,,,,,,,,,,,,,,,,,,,,,,,,,,,,,,,,,,,,,,,,,,,,,,,,,,,,,,,,,,,,,,,,,,,,,,,,,,,,,,,,,,,,,,,,,,,,,,,,,,,,,,,,,,,,
1738755395.332055,1738755395.332574,34.000000,0.000000,4323.846191,4351.153809,4254.487305,4301.538574,4354.615234,4360.000000,4368.205078,4553.077148,4539.358887,4558.205078,4499.743652,5661.282227,4310.512695,4257.820313,0.000000,3.000000,74.000000,,,,0.000000,0.000000,0.000000,0.000000,0.000000,0.000000,0.000000,0.000000,0.000000,0.000000,0.000000,0.000000,0.000000,0.000000,0.000000,0.000000,,,,,,,,,,,,,,,,,,,,,,,,,,,,,,,,,,,,,,,,,,,,,,,,,,,,,,,,,,,,,,,,,,,,,,,,,,,,,,,,,,,,,,,,,,,,,,,,,,,,,,,,,,,,,,,,,,,,,,,,,,,,,,,,,
1738755395.339863,1738755395.340482,35.000000,0.000000,4320.512695,4350.256348,4254.487305,4300.256348,4353.589844,4360.256348,4367.820313,4552.307617,4541.538574,4561.282227,4499.230957,5666.282227,4313.846191,4259.743652,0.000000,3.000000,74.000000,,,,0.000000,0.000000,0.000000,0.000000,0.000000,0.000000,0.000000,0.000000,0.000000,0.000000,0.000000,0.000000,0.000000,0.000000,0.000000,0.000000,,,,,,,,,,,,,,,,,,,,,,,,,,,,,,,,,,,,,,,,,,,,,,,,,,,,,,,,,,,,,,,,,,,,,,,,,,,,,,,,,,,,,,,,,,,,,,,,,,,,,,,,,,,,,,,,,,,,,,,,,,,,,,,,,
1738755395.347671,1738755395.348290,36.000000,0.000000,4321.410156,4350.256348,4255.512695,4300.128418,4355.000000,4361.410156,4369.358887,4553.974121,4539.102539,4562.179688,4496.794922,5666.282227,4309.102539,4258.717773,0.000000,3.000000,74.000000,,,,0.000000,0.000000,0.000000,0.000000,0.000000,0.000000,0.000000,0.000000,0.000000,0.000000,0.000000,0.000000,0.000000,0.000000,0.000000,0.000000,,,,,,,,,,,,,,,,,9.000000,0.000000,0.785236,-0.615662,-0.060974,0.025452,0.058113,-0.977658,0.232939,4.095615,-15.260565,22.732809,,,,,,,,,,,,,,,,,,,,,,,,,,,,,,,,,,,,,,,,,,,,,,,,,,,,,,,,,,,,,,,,,,,,,,,,,,,,,,,,,,,,,,,,,,,,,,,,,,,,,
1738755395.355479,1738755395.356198,37.000000,0.000000,4323.846191,4350.512695,4254.743652,4300.769043,4353.974121,4360.384766,4369.487305,4553.205078,4538.205078,4559.615234,4497.307617,5662.436035,4312.436035,4257.051270,0.000000,3.000000,74.000000,,,,0.000000,0.000000,0.000000,0.000000,0.000000,0.000000,0.000000,0.000000,0.000000,0.000000,0.000000,0.000000,0.000000,0.000000,0.000000,0.000000,,,,,,,,,,,,,,,,,,,,,,,,,,,,,,,,,,,,,,,,,,,,,,,,,,,,,,,,,,,,,,,,,,,,,,,,,,,,,,,,,,,,,,,,,,,,,,,,,,,,,,,,,,,,,,,,,,,,,,,,,,,,,,,,,
1738755395.363287,1738755395.364007,38.000000,0.000000,4322.820313,4348.205078,4255.641113,4302.436035,4351.666504,4361.538574,4367.820313,4552.563965,4539.102539,4559.743652,4498.717773,5666.794922,4313.077148,4254.487305,0.000000,3.000000,74.000000,,,,0.000000,0.000000,0.000000,0.000000,0.000000,0.000000,0.000000,0.000000,0.000000,0.000000,0.000000,0.000000,0.000000,0.000000,0.000000,0.000000,,,,,,,,,,,,,,,,,,,,,,,,,,,,,,,,,,,,,,,,,,,,,,,,,,,,,,,,,,,,,,,,,,,,,,,,,,,,,,,,,,,,,,,,,,,,,,,,,,,,,,,,,,,,,,,,,,,,,,,,,,,,,,,,,
1738755395.371095,1738755395.371915,39.000000,0.000000,4319.358887,4348.589844,4256.538574,4299.743652,4350.256348,4362.051270,4366.025879,4552.051270,4540.769043,4561.153809,4496.922852,5667.179688,4311.153809,4256.538574,0.000000,3.000000,74.000000,,,,0.000000,0.000000,0.000000,0.000000,0.000000,0.000000,0.000000,0.000000,0.000000,0.000000,0.000000,0.000000,0.000000,0.000000,0.000000,0.000000,,,,,,,,,,,,,,,,,,,,,,,,,,,,,,,,,,,,,,,,,,,,,,,,,,,,,,,,,,,,,,,,,,,,,,,,,,,,,,,,,,,,,,,,,,,,,,,,,,,,,,,,,,,,,,,,,,,,,,,,,,,,,,,,,
1738755395.378903,1738755395.379723,40.000000,0.000000,4320.256348,4351.794922,4256.538574,4299.358887,4350.000000,4360.256348,4367.436035,4551.025879,4541.922852,4559.743652,4496.666504,5664.871582,4311.538574,4257.820313,0.000000,3.000000,74.000000,,,,0.000000,0.000000,0.000000,0.000000,0.000000,0.000000,0.000000,0.000000,0.000000,0.000000,0.000000,0.000000,0.000000,0.000000,0.000000,0.000000,,,,,,,,,,,,,,,,,10.000000,0.000000,0.785234,-0.615662,-0.060974,0.025513,0.048834,-0.971310,0.235869,4.119387,-15.284509,22.809528,,,,,,,,,,,,,,,,,,,,,,,,,,,,,,,,,,,,,,,,,,,,,,,,,,,,,,,,,,,,,,,,,,,,,,,,,,,,,,,,,,,,,,,,,,,,,,,,,,,,,
1738755395.386711,1738755395.387631,41.000000,0.000000,4322.436035,4349.743652,4255.512695,4303.077148,4351.410156,4363.717773,4370.256348,4551.025879,4540.128418,4558.589844,4499.615234,5668.205078,4311.538574,4255.512695,0.000000,3.000000,74.000000,,,,0.000000,0.000000,0.000000,0.000000,0.000000,0.000000,0.000000,0.000000,0.000000,0.000000,0.000000,0.000000,0.000000,0.000000,0.000000,0.000000,,,,,,,,,,,,,,,,,,,,,,,,,,,,,,,,,,,,,,,,,,,,,,,,,,,,,,,,,,,,,,,,,,,,,,,,,,,,,,,,,,,,,,,,,,,,,,,,,,,,,,,,,,,,,,,,,,,,,,,,,,,,,,,,,
1738755395.394519,1738755395.395439,42.000000,0.000000,4322.820313,4348.589844,4253.077148,4301.538574,4353.589844,4367.051270,4369.487305,4550.128418,4538.846191,4558.974121,4500.256348,5666.538574,4314.615234,4256.282227,0.000000,3.000000,74.000000,,,,0.000000,0.000000,0.000000,0.000000,0.000000,0.000000,0.000000,0.000000,0.000000,0.000000,0.000000,0.000000,0.000000,0.000000,0.000000,0.000000,,,,,,,,,,,,,,,,,,,,,,,,,,,,,,,,,,,,,,,,,,,,,,,,,,,,,,,,,,,,,,,,,,,,,,,,,,,,,,,,,,,,,,,,,,,,,,,,,,,,,,,,,,,,,,,,,,,,,,,,,,,,,,,,,
1738755395.402327,1738755395.403247,43.000000,0.000000,4325.384766,4352.179688,4253.717773,4302.179688,4352.436035,4363.077148,4367.179688,4552.307617,4538.846191,4559.102539,4496.282227,5663.461426,4312.179688,4256.282227,0.000000,3.000000,74.000000,,,,0.000000,0.000000,0.000000,0.000000,0.000000,0.000000,0.000000,0.000000,0.000000,0.000000,0.000000,0.000000,0.000000,0.000000,0.000000,0.000000,,,,,,,,,,,,,,,,,,,,,,,,,,,,,,,,,,,,,,,,,,,,,,,,,,,,,,,,,,,,,,,,,,,,,,,,,,,,,,,,,,,,,,,,,,,,,,,,,,,,,,,,,,,,,,,,,,,,,,,,,,,,,,,,,
1738755395.410136,1738755395.411156,44.000000,0.000000,4323.846191,4354.102539,4255.128418,4304.871582,4350.256348,4358.717773,4364.230957,4551.666504,4538.974121,4560.128418,4495.897461,5664.487305,4308.717773,4255.384766,0.000000,3.000000,74.000000,,,,0.000000,0.000000,0.000000,0.000000,0.000000,0.000000,0.000000,0.000000,0.000000,0.000000,0.000000,0.000000,0.000000,0.000000,0.000000,0.000000,,,,,,,,,,,,,,,,,11.000000,0.000000,0.785236,-0.615662,-0.060974,0.025452,0.061043,-0.981077,0.239775,4.307448,-15.306058,22.745241,,,,,,,,,,,,,,,,,,,,,,,,,,,,,,,,,,,,,,,,,,,,,,,,,,,,,,,,,,,,,,,,,,,,,,,,,,,,,,,,,,,,,,,,,,,,,,,,,,,,,
1738755395.417944,1738755395.418964,45.000000,0.000000,4320.769043,4352.692383,4254.615234,4303.974121,4350.128418,4358.974121,4364.358887,4547.692383,4537.692383,4560.000000,4498.333496,5665.641113,4308.846191,4256.282227,0.000000,3.000000,74.000000,,,,0.000000,0.000000,0.000000,0.000000,0.000000,0.000000,0.000000,0.000000,0.000000,0.000000,0.000000,0.000000,0.000000,0.000000,0.000000,0.000000,,,,,,,,,,,,,,,,,,,,,,,,,,,,,,,,,,,,,,,,,,,,,,,,,,,,,,,,,,,,,,,,,,,,,,,,,,,,,,,,,,,,,,,,,,,,,,,,,,,,,,,,,,,,,,,,,,,,,,,,,,,,,,,,,
1738755395.425752,1738755395.426772,46.000000,0.000000,4323.846191,4351.794922,4256.794922,4303.077148,4351.410156,4360.384766,4364.871582,4550.128418,4536.538574,4559.230957,4497.051270,5666.410156,4308.333496,4258.205078,0.000000,3.000000,74.000000,,,,0.000000,0.000000,0.000000,0.000000,0.000000,0.000000,0.000000,0.000000,0.000000,0.000000,0.000000,0.000000,0.000000,0.000000,0.000000,0.000000,,,,,,,,,,,,,,,,,,,,,,,,,,,,,,,,,,,,,,,,,,,,,,,,,,,,,,,,,,,,0.024737,0.051044,0.036311,0.037416,0.019913,0.023659,0.023017,0.031846,0.014447,0.017635,0.009248,0.039297,0.023126,0.021146,0.023629,0.027324,0.028773,0.058950,0.013397,0.025204,0.015830,0.006276,0.014306,0.009506,0.015964,0.017236,0.023471,0.019013,0.038098,0.029782,0.014896,0.023662,0.065660,0.041039,0.037678,0.038270,0.019895,0.019372,0.022138,0.036200,0.023182,0.047093,0.017602,0.017642,0.033880,0.022749,0.015801,0.015841,0.017201,0.024758,0.037838,0.021999,0.035873,0.023760,0.029369,0.031876,0.042872,0.028848,0.022808,0.027744,0.045828,0.044992,0.067313,0.020012,0.031556,0.033324,0.037272,0.033375,0.016245,0.024742
1738755395.433560,1738755395.434480,47.000000,0.000000,4326.794922,4350.769043,4258.589844,4302.179688,4352.563965,4360.769043,4361.538574,4551.153809,4536.794922,4561.538574,4496.538574,5664.358887,4311.410156,4259.615234,0.000000,3.000000,74.000000,,,,0.000000,0.000000,0.000000,0.000000,0.000000,0.000000,0.000000,0.000000,0.000000,0.000000,0.000000,0.000000,0.000000,0.000000,0.000000,0.000000,,,,,,,,,,,,,,,,,,,,,,,,,,,,,,,,,,,,,,,,,,,,,,,,,,,,,,,,,,,,,,,,,,,,,,,,,,,,,,,,,,,,,,,,,,,,,,,,,,,,,,,,,,,,,,,,,,,,,,,,,,,,,,,,,
1738755395.441368,1738755395.442288,48.000000,0.000000,4324.230957,4348.077148,4255.512695,4300.769043,4352.820313,4361.538574,4364.871582,4548.717773,4538.077148,4559.615234,4495.128418,5661.794922,4311.410156,4256.025879,0.000000,3.000000,74.000000,,,,0.000000,0.000000,0.000000,0.000000,0.000000,0.000000,0.000000,0.000000,0.000000,0.000000,0.000000,0.000000,0.000000,0.000000,0.000000,0.000000,,,,,,,,,,,,,,,,,,,,,,,,,,,,,,,,,,,,,,,,,,,,,,,,,,,,,,,,,,,,,,,,,,,,,,,,,,,,,,,,,,,,,,,,,,,,,,,,,,,,,,,,,,,,,,,,,,,,,,,,,,,,,,,,,
