title:bread1, start timestamp:1738755562.105121, stop timestamp:1738755563.143598, headset type:EPOCX, headset serial:E50208A5, headset firmware:720, channels:168, sampling rate:eeg_128;mot_32;pm_0.1;pow_8, samples:134       , version:2.2, 
Timestamp,OriginalTimestamp,EEG.Counter,EEG.Interpolated,EEG.AF3,EEG.F7,EEG.F3,EEG.FC5,EEG.T7,EEG.P7,EEG.O1,EEG.O2,EEG.P8,EEG.T8,EEG.FC6,EEG.F4,EEG.F8,EEG.AF4,EEG.RawCq,EEG.Battery,EEG.BatteryPercent,MarkerIndex,MarkerType,MarkerValueInt,EEG.MarkerHardware,CQ.AF3,CQ.F7,CQ.F3,CQ.FC5,CQ.T7,CQ.P7,CQ.O1,CQ.O2,CQ.P8,CQ.T8,CQ.FC6,CQ.F4,CQ.F8,CQ.AF4,CQ.Overall,EQ.SampleRateQuality,EQ.OVERALL,EQ.AF3,EQ.F7,EQ.F3,EQ.FC5,EQ.T7,EQ.P7,EQ.O1,EQ.O2,EQ.P8,EQ.T8,EQ.FC6,EQ.F4,EQ.F8,EQ.AF4,MOT.CounterMems,MOT.InterpolatedMems,MOT.Q0,MOT.Q1,MOT.Q2,MOT.Q3,MOT.AccX,MOT.AccY,MOT.AccZ,MOT.MagX,MOT.MagY,MOT.MagZ,PM.Attention.IsActive,PM.Attention.Scaled,PM.Attention.Raw,PM.Attention.Min,PM.Attention.Max,PM.Engagement.IsActive,PM.Engagement.Scaled,PM.Engagement.Raw,PM.Engagement.Min,PM.Engagement.Max,PM.Excitement.IsActive,PM.Excitement.Scaled,PM.Excitement.Raw,PM.Excitement.Min,PM.Excitement.Max,PM.LongTermExcitement,PM.Stress.IsActive,PM.Stress.Scaled,PM.Stress.Raw,PM.Stress.Min,PM.Stress.Max,PM.Relaxation.IsActive,PM.Relaxation.Scaled,PM.Relaxation.Raw,PM.Relaxation.Min,PM.Relaxation.Max,PM.Interest.IsActive,PM.Interest.Scaled,PM.Interest.Raw,PM.Interest.Min,PM.Interest.Max,POW.AF3.Theta,POW.AF3.Alpha,POW.AF3.BetaL,POW.AF3.BetaH,POW.AF3.Gamma,POW.F7.Theta,POW.F7.Alpha,POW.F7.BetaL,POW.F7.BetaH,POW.F7.Gamma,POW.F3.Theta,POW.F3.Alpha,POW.F3.BetaL,POW.F3.BetaH,POW.F3.Gamma,POW.FC5.Theta,POW.FC5.Alpha,POW.FC5.BetaL,POW.FC5.BetaH,POW.FC5.Gamma,POW.T7.Theta,POW.T7.Alpha,POW.T7.BetaL,POW.T7.BetaH,POW.T7.Gamma,POW.P7.Theta,POW.P7.Alpha,POW.P7.BetaL,POW.P7.BetaH,POW.P7.Gamma,POW.O1.Theta,POW.O1.Alpha,POW.O1.BetaL,POW.O1.BetaH,POW.O1.Gamma,POW.O2.Theta,POW.O2.Alpha,POW.O2.BetaL,POW.O2.BetaH,POW.O2.Gamma,POW.P8.Theta,POW.P8.Alpha,POW.P8.BetaL,POW.P8.BetaH,POW.P8.Gamma,POW.T8.Theta,POW.T8.Alpha,POW.T8.BetaL,POW.T8.BetaH,POW.T8.Gamma,POW.FC6.Theta,POW.FC6.Alpha,POW.FC6.BetaL,POW.FC6.BetaH,POW.FC6.Gamma,POW.F4.Theta,POW.F4.Alpha,POW.F4.BetaL,POW.F4.BetaH,POW.F4.Gamma,POW.F8.Theta,POW.F8.Alpha,POW.F8.BetaL,POW.F8.BetaH,POW.F8.Gamma,POW.AF4.Theta,POW.AF4.Alpha,POW.AF4.BetaL,POW.AF4.BetaH,POW.AF4.Gamma
1738755562.105121,1738755562.106251,17.000000,0.000000,4321.410156,4347.563965,4255.512695,4302.563965,4350.641113,4362.563965,4366.538574,4554.358887,4538.333496,4560.769043,4495.000000,5668.205078,4308.205078,4250.128418,0.000000,3.000000,74.000000,,,,0.000000,0.000000,0.000000,0.000000,0.000000,0.000000,0.000000,0.000000,0.000000,0.000000,0.000000,0.000000,0.000000,0.000000,0.000000,0.000000,,,,,,,,,,,,,,,,,,,,,,,,,,,,,,,,,,,,,,,,,,,,,,,,,,,,,,,,,,,,,,,,,,,,,,,,,,,,,,,,,,,,,,,,,,,,,,,,,,,,,,,,,,,,,,,,,,,,,,,,,,,,,,,,,
1738755562.112929,1738755562.113959,18.000000,0.000000,4320.512695,4346.025879,4254.102539,4301.922852,4353.077148,4359.743652,4365.897461,4550.512695,4540.256348,4560.512695,4496.153809,5663.461426,4312.948730,4254.358887,0.000000,3.000000,74.000000,,,,0.000000,0.000000,0.000000,0.000000,0.000000,0.000000,0.000000,0.000000,0.000000,0.000000,0.000000,0.000000,0.000000,0.000000,0.000000,0.000000,,,,,,,,,,,,,,,,,,,,,,,,,,,,,,,,,,,,,,,,,,,,,,,,,,,,,,,,,,,,,,,,,,,,,,,,,,,,,,,,,,,,,,,,,,,,,,,,,,,,,,,,,,,,,,,,,,,,,,,,,,,,,,,,,
1738755562.120737,1738755562.121767,19.000000,0.000000,4325.256348,4348.205078,4253.205078,4306.153809,4350.384766,4359.230957,4370.128418,4549.358887,4536.538574,4559.102539,4496.282227,5664.102539,4311.153809,4253.589844,0.000000,3.000000,74.000000,,,,0.000000,0.000000,0.000000,0.000000,0.000000,0.000000,0.000000,0.000000,0.000000,0.000000,0.000000,0.000000,0.000000,0.000000,0.000000,0.000000,,,,,,,,,,,,,,,,,,,,,,,,,,,,,,,,,,,,,,,,,,,,,,,,,,,,,,,,,,,,,,,,,,,,,,,,,,,,,,,,,,,,,,,,,,,,,,,,,,,,,,,,,,,,,,,,,,,,,,,,,,,,,,,,,
1738755562.128545,1738755562.129475,20.000000,0.000000,4323.589844,4349.615234,4254.487305,4301.410156,4351.282227,4361.794922,4367.307617,4551.538574,4536.538574,4559.743652,4497.179688,5664.743652,4312.820313,4256.410156,0.000000,3.000000,74.000000,,,,0.000000,0.000000,0.000000,0.000000,0.000000,0.000000,0.000000,0.000000,0.000000,0.000000,0.000000,0.000000,0.000000,0.000000,0.000000,0.000000,,,,,,,,,,,,,,,,,5.000000,0.000000,0.785400,-0.615662,-0.059204,0.024536,0.070321,-0.974728,0.234404,4.168910,-15.015028,22.556164,,,,,,,,,,,,,,,,,,,,,,,,,,,,,,,,,,,,,,,,,,,,,,,,,,,,,,,,,,,,,,,,,,,,,,,,,,,,,,,,,,,,,,,,,,,,,,,,,,,,,
1738755562.136353,1738755562.137284,21.000000,0.000000,4319.871582,4351.025879,4255.769043,4300.512695,4356.153809,4363.077148,4363.333496,4552.820313,4542.436035,4562.051270,4496.538574,5662.179688,4310.769043,4257.820313,0.000000,3.000000,74.000000,,,,0.000000,0.000000,0.000000,0.000000,0.000000,0.000000,0.000000,0.000000,0.000000,0.000000,0.000000,0.000000,0.000000,0.000000,0.000000,0.000000,,,,,,,,,,,,,,,,,,,,,,,,,,,,,,,,,,,,,,,,,,,,,,,,,,,,,,,,,,,,,,,,,,,,,,,,,,,,,,,,,,,,,,,,,,,,,,,,,,,,,,,,,,,,,,,,,,,,,,,,,,,,,,,,,
1738755562.144161,1738755562.144992,22.000000,0.000000,4323.333496,4352.692383,4253.461426,4305.128418,4356.538574,4360.512695,4365.128418,4550.512695,4541.922852,4562.307617,4497.563965,5660.769043,4307.948730,4255.128418,0.000000,3.000000,74.000000,,,,0.000000,0.000000,0.000000,0.000000,0.000000,0.000000,0.000000,0.000000,0.000000,0.000000,0.000000,0.000000,0.000000,0.000000,0.000000,0.000000,,,,,,,,,,,,,,,,,,,,,,,,,,,,,,,,,,,,,,,,,,,,,,,,,,,,,,,,,,,,,,,,,,,,,,,,,,,,,,,,,,,,,,,,,,,,,,,,,,,,,,,,,,,,,,,,,,,,,,,,,,,,,,,,,
1738755562.151969,1738755562.152800,23.000000,0.000000,4323.717773,4352.307617,4253.077148,4303.077148,4352.692383,4358.589844,4363.205078,4550.512695,4539.743652,4559.102539,4497.563965,5659.743652,4313.846191,4258.077148,0.000000,3.000000,74.000000,,,,0.000000,0.000000,0.000000,0.000000,0.000000,0.000000,0.000000,0.000000,0.000000,0.000000,0.000000,0.000000,0.000000,0.000000,0.000000,0.000000,,,,,,,,,,,,,,,,,,,,,,,,,,,,,,,,,,,,,,,,,,,,,,,,,,,,,,,,,,,,,,,,,,,,,,,,,,,,,,,,,,,,,,,,,,,,,,,,,,,,,,,,,,,,,,,,,,,,,,,,,,,,,,,,,
1738755562.159777,1738755562.160508,24.000000,0.000000,4320.769043,4349.230957,4257.820313,4303.333496,4349.615234,4360.512695,4363.974121,4556.922852,4541.153809,4558.717773,4493.461426,5663.589844,4306.666504,4258.333496,0.000000,3.000000,74.000000,,,,0.000000,0.000000,0.000000,0.000000,0.000000,0.000000,0.000000,0.000000,0.000000,0.000000,0.000000,0.000000,0.000000,0.000000,0.000000,0.000000,,,,,,,,,,,,,,,,,6.000000,0.000000,0.785352,-0.615723,-0.059204,0.024536,0.073251,-0.968868,0.234404,4.185352,-14.980192,22.683882,,,,,,,,,,,,,,,,,,,,,,,,,,,,,,,,,,,,,,,,,,,,,,,,,,,,,,,,,,,,,,,,,,,,,,,,,,,,,,,,,,,,,,,,,,,,,,,,,,,,,
1738755562.167585,1738755562.168316,25.000000,0.000000,4320.384766,4350.256348,4258.333496,4302.563965,4349.615234,4360.641113,4365.641113,4553.205078,4544.230957,4561.794922,4497.179688,5662.179688,4306.025879,4257.948730,0.000000,3.000000,74.000000,,,,0.000000,0.000000,0.000000,0.000000,0.000000,0.000000,0.000000,0.000000,0.000000,0.000000,0.000000,0.000000,0.000000,0.000000,0.000000,0.000000,,,,,,,,,,,,,,,,,,,,,,,,,,,,,,,,,,,,,,,,,,,,,,,,,,,,,,,,,,,,,,,,,,,,,,,,,,,,,,,,,,,,,,,,,,,,,,,,,,,,,,,,,,,,,,,,,,,,,,,,,,,,,,,,,
1738755562.175393,1738755562.176024,26.000000,0.000000,4321.666504,4352.692383,4255.128418,4300.128418,4351.666504,4358.461426,4364.871582,4548.974121,4541.666504,4561.410156,4501.282227,5662.179688,4312.692383,4258.077148,0.000000,3.000000,74.000000,,,,0.000000,0.000000,0.000000,0.000000,0.000000,0.000000,0.000000,0.000000,0.000000,0.000000,0.000000,0.000000,0.000000,0.000000,0.000000,0.000000,,,,,,,,,,,,,,,,,,,,,,,,,,,,,,,,,,,,,,,,,,,,,,,,,,,,,,,,,,,,,,,,,,,,,,,,,,,,,,,,,,,,,,,,,,,,,,,,,,,,,,,,,,,,,,,,,,,,,,,,,,,,,,,,,
1738755562.183201,1738755562.183832,27.000000,0.000000,4323.717773,4349.615234,4253.974121,4302.563965,4352.692383,4359.615234,4364.487305,4552.436035,4538.205078,4559.358887,4500.000000,5667.692383,4311.922852,4258.461426,0.000000,3.000000,74.000000,,,,0.000000,0.000000,0.000000,0.000000,0.000000,0.000000,0.000000,0.000000,0.000000,0.000000,0.000000,0.000000,0.000000,0.000000,0.000000,0.000000,,,,,,,,,,,,,,,,,,,,,,,,,,,,,,,,,,,,,,,,,,,,,,,,,,,,,,,,,,,,,,,,,,,,,,,,,,,,,,,,,,,,,,,,,,,,,,,,,,,,,,,,,,,,,,,,,,,,,,,,,,,,,,,,,
1738755562.191010,1738755562.191540,28.000000,0.000000,4323.205078,4347.820313,4252.692383,4301.666504,4349.358887,4360.769043,4363.333496,4550.384766,4541.153809,4561.666504,4499.230957,5664.358887,4315.256348,4260.256348,0.000000,3.000000,74.000000,,,,0.000000,0.000000,0.000000,0.000000,0.000000,0.000000,0.000000,0.000000,0.000000,0.000000,0.000000,0.000000,0.000000,0.000000,0.000000,0.000000,,,,,,,,,,,,,,,,,7.000000,0.000000,0.785352,-0.615723,-0.059204,0.024536,0.071786,-0.979123,0.233915,4.166817,-15.248839,22.715492,,,,,,,,,,,,,,,,,,,,,,,,,,,,,,,,,,,,,,,,,,,,,,,,,,,,,,,,,,,,,,,,,,,,,,,,,,,,,,,,,,,,,,,,,,,,,,,,,,,,,
1738755562.198818,1738755562.199348,29.000000,0.000000,4323.461426,4350.384766,4251.538574,4301.025879,4349.871582,4360.641113,4367.948730,4549.615234,4541.153809,4562.820313,4497.307617,5662.307617,4312.179688,4255.384766,0.000000,3.000000,74.000000,,,,0.000000,0.000000,0.000000,0.000000,0.000000,0.000000,0.000000,0.000000,0.000000,0.000000,0.000000,0.000000,0.000000,0.000000,0.000000,0.000000,,,,,,,,,,,,,,,,,,,,,,,,,,,,,,,,,,,,,,,,,,,,,,,,,,,,,,,,,,,,,,,,,,,,,,,,,,,,,,,,,,,,,,,,,,,,,,,,,,,,,,,,,,,,,,,,,,,,,,,,,,,,,,,,,
1738755562.206626,1738755562.207056,30.000000,0.000000,4325.256348,4351.025879,4251.794922,4300.769043,4354.487305,4360.128418,4368.974121,4551.153809,4538.974121,4559.871582,4496.153809,5665.128418,4311.666504,4254.358887,0.000000,3.000000,74.000000,,,,0.000000,0.000000,0.000000,0.000000,0.000000,0.000000,0.000000,0.000000,0.000000,0.000000,0.000000,0.000000,0.000000,0.000000,0.000000,0.000000,1.000000,0.000000,0.000000,0.000000,0.000000,0.000000,0.000000,0.000000,0.000000,0.000000,0.000000,0.000000,0.000000,0.000000,0.000000,0.000000,,,,,,,,,,,,,,,,,,,,,,,,,,,,,,,,,,,,,,,,,,,,0.010379,0.030296,0.025892,0.024136,0.035391,0.034921,0.044543,0.022411,0.026745,0.020196,0.025305,0.014626,0.026838,0.031588,0.029999,0.011920,0.047676,0.042652,0.025190,0.018223,0.035915,0.065081,0.032349,0.020839,0.045339,0.018931,0.022008,0.031326,0.015583,0.022521,0.059189,0.021833,0.055537,0.029291,0.023102,0.091570,0.030396,0.018263,0.024108,0.019769,0.041979,0.034713,0.009904,0.030206,0.038504,0.033960,0.036028,0.015915,0.026352,0.031723,0.024707,0.021870,0.018380,0.013262,0.022063,0.029287,0.015130,0.019740,0.027483,0.025507,0.039235,0.047715,0.039674,0.025759,0.034403,0.040995,0.020845,0.016579,0.034716,0.033405
1738755562.214434,1738755562.214864,31.000000,0.000000,4325.384766,4348.974121,4256.025879,4301.153809,4353.974121,4358.974121,4364.871582,4551.282227,4539.102539,4559.230957,4496.410156,5665.769043,4311.410156,4258.717773,0.000000,3.000000,74.000000,,,,0.000000,0.000000,0.000000,0.000000,0.000000,0.000000,0.000000,0.000000,0.000000,0.000000,0.000000,0.000000,0.000000,0.000000,0.000000,0.000000,,,,,,,,,,,,,,,,,,,,,,,,,,,,,,,,,,,,,,,,,,,,,,,,,,,,,,,,,,,,,,,,,,,,,,,,,,,,,,,,,,,,,,,,,,,,,,,,,,,,,,,,,,,,,,,,,,,,,,,,,,,,,,,,,
1738755562.222242,1738755562.222572,32.000000,0.000000,4323.205078,4350.512695,4259.871582,4303.461426,4351.538574,4358.205078,4365.128418,4553.333496,4538.589844,4561.025879,4497.692383,5665.512695,4305.641113,4257.692383,0.000000,3.000000,74.000000,,,,0.000000,0.000000,0.000000,0.000000,0.000000,0.000000,0.000000,0.000000,0.000000,0.000000,0.000000,0.000000,0.000000,0.000000,0.000000,0.000000,,,,,,,,,,,,,,,,,8.000000,0.000000,0.785348,-0.615723,-0.059265,0.024536,0.075693,-0.972287,0.240752,4.150135,-15.140622,22.577276,,,,,,,,,,,,,,,,,,,,,,,,,,,,,,,,,,,,,,,,,,,,,,,,,,,,,,,,,,,,,,,,,,,,,,,,,,,,,,,,,,,,,,,,,,,,,,,,,,,,,
1738755562.230050,1738755562.230480,33.000000,0.000000,4320.128418,4353.077148,4256.666504,4301.410156,4350.256348,4359.230957,4366.025879,4551.538574,4540.000000,4562.179688,4498.461426,5662.692383,4314.230957,4259.102539,0.000000,3.000000,74.000000,,,,0.000000,0.000000,0.000000,0.000000,0.000000,0.000000,0.000000,0.000000,0.000000,0.000000,0.000000,0.000000,0.000000,0.000000,0.000000,0.000000,,,,,,,,,,,,,,,,,,,,,,,,,,,,,,,,,,,,,,,,,,,,,,,,,,,,,,,,,,,,,,,,,,,,,,,,,,,,,,,,,,,,,,,,,,,,,,,,,,,,,,,,,,,,,,,,,,,,,,,,,,,,,,,,,
1738755562.237858,1738755562.238288,34.000000,0.000000,4320.000000,4349.871582,4254.102539,4301.538574,4350.897461,4362.051270,4368.846191,4550.384766,4537.692383,4560.512695,4493.846191,5664.487305,4314.102539,4256.922852,0.000000,3.000000,74.000000,,,,0.000000,0.000000,0.000000,0.000000,0.000000,0.000000,0.000000,0.000000,0.000000,0.000000,0.000000,0.000000,0.000000,0.000000,0.000000,0.000000,,,,,,,,,,,,,,,,,,,,,,,,,,,,,,,,,,,,,,,,,,,,,,,,,,,,,,,,,,,,,,,,,,,,,,,,,,,,,,,,,,,,,,,,,,,,,,,,,,,,,,,,,,,,,,,,,,,,,,,,,,,,,,,,,
1738755562.245666,1738755562.246196,35.000000,0.000000,4321.794922,4347.692383,4256.410156,4303.461426,4350.897461,4360.512695,4365.641113,4549.743652,4536.153809,4561.282227,4491.282227,5664.487305,4309.743652,4253.589844,0.000000,3.000000,74.000000,,,,0.000000,0.000000,0.000000,0.000000,0.000000,0.000000,0.000000,0.000000,0.000000,0.000000,0.000000,0.000000,0.000000,0.000000,0.000000,0.000000,,,,,,,,,,,,,,,,,,,,,,,,,,,,,,,,,,,,,,,,,,,,,,,,,,,,,,,,,,,,,,,,,,,,,,,,,,,,,,,,,,,,,,,,,,,,,,,,,,,,,,,,,,,,,,,,,,,,,,,,,,,,,,,,,
1738755562.253474,1738755562.254005,36.000000,0.000000,4322.563965,4349.871582,4258.589844,4302.563965,4349.487305,4359.102539,4360.512695,4548.205078,4540.384766,4562.820313,4495.512695,5660.897461,4312.820313,4256.922852,0.000000,3.000000,74.000000,,,,0.000000,0.000000,0.000000,0.000000,0.000000,0.000000,0.000000,0.000000,0.000000,0.000000,0.000000,0.000000,0.000000,0.000000,0.000000,0.000000,,,,,,,,,,,,,,,,,9.000000,0.000000,0.785348,-0.615723,-0.059265,0.024536,0.069344,-0.985472,0.232450,4.235122,-15.026560,22.736216,,,,,,,,,,,,,,,,,,,,,,,,,,,,,,,,,,,,,,,,,,,,,,,,,,,,,,,,,,,,,,,,,,,,,,,,,,,,,,,,,,,,,,,,,,,,,,,,,,,,,
1738755562.261283,1738755562.261913,37.000000,0.000000,4322.307617,4349.743652,4254.615234,4303.333496,4350.384766,4362.820313,4365.384766,4549.358887,4539.871582,4560.384766,4496.794922,5663.846191,4308.589844,4256.153809,0.000000,3.000000,74.000000,,,,0.000000,0.000000,0.000000,0.000000,0.000000,0.000000,0.000000,0.000000,0.000000,0.000000,0.000000,0.000000,0.000000,0.000000,0.000000,0.000000,,,,,,,,,,,,,,,,,,,,,,,,,,,,,,,,,,,,,,,,,,,,,,,,,,,,,,,,,,,,,,,,,,,,,,,,,,,,,,,,,,,,,,,,,,,,,,,,,,,,,,,,,,,,,,,,,,,,,,,,,,,,,,,,,
1738755562.269091,1738755562.269721,38.000000,0.000000,4322.051270,4349.230957,4250.769043,4302.051270,4351.666504,4362.436035,4367.692383,4550.897461,4538.717773,4559.871582,4497.820313,5661.538574,4312.692383,4256.282227,0.000000,3.000000,74.000000,,,,0.000000,0.000000,0.000000,0.000000,0.000000,0.000000,0.000000,0.000000,0.000000,0.000000,0.000000,0.000000,0.000000,0.000000,0.000000,0.000000,,,,,,,,,,,,,,,,,,,,,,,,,,,,,,,,,,,,,,,,,,,,,,,,,,,,,,,,,,,,,,,,,,,,,,,,,,,,,,,,,,,,,,,,,,,,,,,,,,,,,,,,,,,,,,,,,,,,,,,,,,,,,,,,,
1738755562.276899,1738755562.277629,39.000000,0.000000,4326.153809,4349.743652,4255.128418,4301.410156,4351.538574,4358.077148,4365.128418,4554.102539,4538.077148,4560.512695,4496.922852,5661.282227,4312.051270,4254.871582,0.000000,3.000000,74.000000,,,,0.000000,0.000000,0.000000,0.000000,0.000000,0.000000,0.000000,0.000000,0.000000,0.000000,0.000000,0.000000,0.000000,0.000000,0.000000,0.000000,,,,,,,,,,,,,,,,,,,,,,,,,,,,,,,,,,,,,,,,,,,,,,,,,,,,,,,,,,,,,,,,,,,,,,,,,,,,,,,,,,,,,,,,,,,,,,,,,,,,,,,,,,,,,,,,,,,,,,,,,,,,,,,,,
1738755562.284707,1738755562.285437,40.000000,0.000000,4326.153809,4351.282227,4256.153809,4304.615234,4350.512695,4357.563965,4364.102539,4551.282227,4536.282227,4561.153809,4493.589844,5664.487305,4306.282227,4253.333496,0.000000,3.000000,74.000000,,,,0.000000,0.000000,0.000000,0.000000,0.000000,0.000000,0.000000,0.000000,0.000000,0.000000,0.000000,0.000000,0.000000,0.000000,0.000000,0.000000,,,,,,,,,,,,,,,,,10.000000,0.000000,0.785295,-0.615784,-0.059326,0.024536,0.056648,-0.979123,0.232450,4.344943,-14.923903,22.745928,,,,,,,,,,,,,,,,,,,,,,,,,,,,,,,,,,,,,,,,,,,,,,,,,,,,,,,,,,,,,,,,,,,,,,,,,,,,,,,,,,,,,,,,,,,,,,,,,,,,,
1738755562.292515,1738755562.293345,41.000000,0.000000,4322.307617,4351.538574,4253.077148,4305.641113,4350.512695,4360.256348,4366.153809,4544.871582,4535.512695,4562.307617,4496.153809,5659.871582,4310.000000,4257.436035,0.000000,3.000000,74.000000,,,,0.000000,0.000000,0.000000,0.000000,0.000000,0.000000,0.000000,0.000000,0.000000,0.000000,0.000000,0.000000,0.000000,0.000000,0.000000,0.000000,,,,,,,,,,,,,,,,,,,,,,,,,,,,,,,,,,,,,,,,,,,,,,,,,,,,,,,,,,,,,,,,,,,,,,,,,,,,,,,,,,,,,,,,,,,,,,,,,,,,,,,,,,,,,,,,,,,,,,,,,,,,,,,,,
1738755562.300323,1738755562.301153,42.000000,0.000000,4324.487305,4349.743652,4254.358887,4303.461426,4349.615234,4360.769043,4369.230957,4549.358887,4536.538574,4560.512695,4495.256348,5660.128418,4307.051270,4255.641113,0.000000,3.000000,74.000000,,,,0.000000,0.000000,0.000000,0.000000,0.000000,0.000000,0.000000,0.000000,0.000000,0.000000,0.000000,0.000000,0.000000,0.000000,0.000000,0.000000,,,,,,,,,,,,,,,,,,,,,,,,,,,,,,,,,,,,,,,,,,,,,,,,,,,,,,,,,,,,,,,,,,,,,,,,,,,,,,,,,,,,,,,,,,,,,,,,,,,,,,,,,,,,,,,,,,,,,,,,,,,,,,,,,
1738755562.308131,1738755562.308862,43.000000,0.000000,4323.333496,4350.384766,4254.230957,4300.128418,4348.589844,4359.358887,4363.461426,4550.384766,4543.717773,4559.358887,4493.205078,5659.615234,4309.102539,4252.436035,0.000000,3.000000,74.000000,,,,0.000000,0.000000,0.000000,0.000000,0.000000,0.000000,0.000000,0.000000,0.000000,0.000000,0.000000,0.000000,0.000000,0.000000,0.000000,0.000000,,,,,,,,,,,,,,,,,,,,,,,,,,,,,,,,,,,,,,,,,,,,,,,,,,,,,,,,,,,,,,,,,,,,,,,,,,,,,,,,,,,,,,,,,,,,,,,,,,,,,,,,,,,,,,,,,,,,,,,,,,,,,,,,,
1738755562.315939,1738755562.316670,44.000000,0.000000,4321.282227,4349.102539,4255.000000,4303.333496,4350.384766,4359.871582,4358.846191,4546.666504,4543.974121,4560.256348,4496.153809,5661.025879,4311.922852,4251.025879,0.000000,3.000000,74.000000,,,,0.000000,0.000000,0.000000,0.000000,0.000000,0.000000,0.000000,0.000000,0.000000,0.000000,0.000000,0.000000,0.000000,0.000000,0.000000,0.000000,,,,,,,,,,,,,,,,,11.000000,0.000000,0.785343,-0.615723,-0.059326,0.024536,0.062508,-0.974728,0.232939,4.327115,-14.964847,22.838001,,,,,,,,,,,,,,,,,,,,,,,,,,,,,,,,,,,,,,,,,,,,,,,,,,,,,,,,,,,,,,,,,,,,,,,,,,,,,,,,,,,,,,,,,,,,,,,,,,,,,
1738755562.323747,1738755562.324378,45.000000,0.000000,4322.820313,4346.666504,4257.179688,4305.641113,4352.563965,4360.641113,4362.436035,4549.358887,4537.051270,4561.153809,4497.051270,5666.282227,4311.153809,4255.000000,0.000000,3.000000,74.000000,,,,0.000000,0.000000,0.000000,0.000000,0.000000,0.000000,0.000000,0.000000,0.000000,0.000000,0.000000,0.000000,0.000000,0.000000,0.000000,0.000000,,,,,,,,,,,,,,,,,,,,,,,,,,,,,,,,,,,,,,,,,,,,,,,,,,,,,,,,,,,,,,,,,,,,,,,,,,,,,,,,,,,,,,,,,,,,,,,,,,,,,,,,,,,,,,,,,,,,,,,,,,,,,,,,,
1738755562.331555,1738755562.332186,46.000000,0.000000,4321.922852,4350.512695,4254.102539,4300.256348,4352.692383,4361.153809,4362.179688,4550.769043,4539.615234,4562.179688,4497.692383,5662.051270,4313.717773,4260.512695,0.000000,3.000000,74.000000,,,,0.000000,0.000000,0.000000,0.000000,0.000000,0.000000,0.000000,0.000000,0.000000,0.000000,0.000000,0.000000,0.000000,0.000000,0.000000,0.000000,,,,,,,,,,,,,,,,,,,,,,,,,,,,,,,,,,,,,,,,,,,,,,,,,,,,,,,,,,,,0.013082,0.029427,0.024852,0.022232,0.040857,0.045715,0.041540,0.024214,0.025620,0.020461,0.017243,0.011935,0.034178,0.029493,0.032394,0.009464,0.049090,0.038465,0.025258,0.019062,0.036402,0.062922,0.028760,0.023007,0.043889,0.021268,0.021098,0.034148,0.016262,0.024224,0.053200,0.022402,0.053368,0.027689,0.023884,0.084925,0.033698,0.019450,0.023380,0.022084,0.041139,0.029389,0.011784,0.032722,0.034992,0.038037,0.038610,0.012839,0.027490,0.032435,0.024651,0.022589,0.016230,0.011981,0.020518,0.025342,0.016607,0.021169,0.029101,0.024937,0.041034,0.044646,0.037882,0.025350,0.034619,0.030771,0.027475,0.018790,0.037257,0.033617
1738755562.339363,1738755562.339894,47.000000,0.000000,4321.666504,4350.897461,4252.179688,4300.897461,4352.051270,4361.538574,4361.666504,4547.692383,4541.282227,4560.128418,4497.436035,5662.820313,4307.051270,4255.512695,0.000000,3.000000,74.000000,,,,0.000000,0.000000,0.000000,0.000000,0.000000,0.000000,0.000000,0.000000,0.000000,0.000000,0.000000,0.000000,0.000000,0.000000,0.000000,0.000000,,,,,,,,,,,,,,,,,,,,,,,,,,,,,,,,,,,,,,,,,,,,,,,,,,,,,,,,,,,,,,,,,,,,,,,,,,,,,,,,,,,,,,,,,,,,,,,,,,,,,,,,,,,,,,,,,,,,,,,,,,,,,,,,,
1738755562.347172,1738755562.347702,48.000000,0.000000,4320.512695,4346.153809,4256.410156,4303.717773,4351.282227,4360.256348,4361.794922,4546.153809,4538.205078,4561.666504,4495.897461,5662.820313,4307.051270,4255.128418,0.000000,3.000000,74.000000,,,,0.000000,0.000000,0.000000,0.000000,0.000000,0.000000,0.000000,0.000000,0.000000,0.000000,0.000000,0.000000,0.000000,0.000000,0.000000,0.000000,,,,,,,,,,,,,,,,,12.000000,0.000000,0.785293,-0.615784,-0.059387,0.024475,0.060554,-0.972287,0.242217,4.427737,-15.001696,22.887535,,,,,,,,,,,,,,,,,,,,,,,,,,,,,,,,,,,,,,,,,,,,,,,,,,,,,,,,,,,,,,,,,,,,,,,,,,,,,,,,,,,,,,,,,,,,,,,,,,,,,
1738755562.354980,1738755562.355410,49.000000,0.000000,4318.717773,4347.051270,4257.051270,4303.333496,4350.769043,4359.871582,4363.846191,4550.897461,4538.846191,4564.871582,4493.974121,5660.128418,4308.717773,4257.179688,0.000000,3.000000,74.000000,,,,0.000000,0.000000,0.000000,0.000000,0.000000,0.000000,0.000000,0.000000,0.000000,0.000000,0.000000,0.000000,0.000000,0.000000,0.000000,0.000000,,,,,,,,,,,,,,,,,,,,,,,,,,,,,,,,,,,,,,,,,,,,,,,,,,,,,,,,,,,,,,,,,,,,,,,,,,,,,,,,,,,,,,,,,,,,,,,,,,,,,,,,,,,,,,,,,,,,,,,,,,,,,,,,,
1738755562.362788,1738755562.363218,50.000000,0.000000,4319.871582,4351.282227,4255.128418,4303.461426,4351.666504,4360.256348,4365.384766,4553.846191,4541.025879,4563.589844,4493.589844,5662.563965,4304.487305,4253.333496,0.000000,3.000000,74.000000,,,,0.000000,0.000000,0.000000,0.000000,0.000000,0.000000,0.000000,0.000000,0.000000,0.000000,0.000000,0.000000,0.000000,0.000000,0.000000,0.000000,,,,,,,,,,,,,,,,,,,,,,,,,,,,,,,,,,,,,,,,,,,,,,,,,,,,,,,,,,,,,,,,,,,,,,,,,,,,,,,,,,,,,,,,,,,,,,,,,,,,,,,,,,,,,,,,,,,,,,,,,,,,,,,,,
1738755562.370596,1738755562.370926,51.000000,0.000000,4321.153809,4354.102539,4257.948730,4301.025879,4353.974121,4357.948730,4361.922852,4548.333496,4541.153809,4563.077148,4495.256348,5661.666504,4310.256348,4255.641113,0.000000,3.000000,74.000000,,,,0.000000,0.000000,0.000000,0.000000,0.000000,0.000000,0.000000,0.000000,0.000000,0.000000,0.000000,0.000000,0.000000,0.000000,0.000000,0.000000,,,,,,,,,,,,,,,,,,,,,,,,,,,,,,,,,,,,,,,,,,,,,,,,,,,,,,,,,,,,,,,,,,,,,,,,,,,,,,,,,,,,,,,,,,,,,,,,,,,,,,,,,,,,,,,,,,,,,,,,,,,,,,,,,
1738755562.378404,1738755562.378734,52.000000,0.000000,4322.051270,4349.871582,4258.846191,4302.820313,4352.692383,4356.794922,4363.846191,4549.102539,4539.487305,4561.922852,4494.743652,5665.128418,4307.948730,4256.538574,0.000000,3.000000,74.000000,,,,0.000000,0.000000,0.000000,0.000000,0.000000,0.000000,0.000000,0.000000,0.000000,0.000000,0.000000,0.000000,0.000000,0.000000,0.000000,0.000000,,,,,,,,,,,,,,,,,13.000000,0.000000,0.785284,-0.615784,-0.059448,0.024597,0.066903,-0.968868,0.236845,4.484963,-14.984859,22.765448,,,,,,,,,,,,,,,,,,,,,,,,,,,,,,,,,,,,,,,,,,,,,,,,,,,,,,,,,,,,,,,,,,,,,,,,,,,,,,,,,,,,,,,,,,,,,,,,,,,,,
1738755562.386212,1738755562.386442,53.000000,0.000000,4322.179688,4347.948730,4256.538574,4302.820313,4348.333496,4360.128418,4366.538574,4552.692383,4542.436035,4560.384766,4495.128418,5665.897461,4307.563965,4254.230957,0.000000,3.000000,74.000000,,,,0.000000,0.000000,0.000000,0.000000,0.000000,0.000000,0.000000,0.000000,0.000000,0.000000,0.000000,0.000000,0.000000,0.000000,0.000000,0.000000,,,,,,,,,,,,,,,,,,,,,,,,,,,,,,,,,,,,,,,,,,,,,,,,,,,,,,,,,,,,,,,,,,,,,,,,,,,,,,,,,,,,,,,,,,,,,,,,,,,,,,,,,,,,,,,,,,,,,,,,,,,,,,,,,
1738755562.394020,1738755562.394350,54.000000,0.000000,4324.487305,4352.307617,4256.538574,4299.487305,4347.051270,4361.794922,4368.077148,4550.512695,4543.077148,4560.897461,4497.692383,5661.794922,4312.436035,4254.615234,0.000000,3.000000,74.000000,,,,0.000000,0.000000,0.000000,0.000000,0.000000,0.000000,0.000000,0.000000,0.000000,0.000000,0.000000,0.000000,0.000000,0.000000,0.000000,0.000000,,,,,,,,,,,,,,,,,,,,,,,,,,,,,,,,,,,,,,,,,,,,,,,,,,,,,,,,,,,,,,,,,,,,,,,,,,,,,,,,,,,,,,,,,,,,,,,,,,,,,,,,,,,,,,,,,,,,,,,,,,,,,,,,,
1738755562.401828,1738755562.402159,55.000000,0.000000,4326.282227,4352.436035,4256.282227,4303.077148,4347.436035,4358.974121,4368.717773,4550.384766,4538.205078,4560.512695,4498.205078,5663.205078,4306.666504,4254.871582,0.000000,3.000000,74.000000,,,,0.000000,0.000000,0.000000,0.000000,0.000000,0.000000,0.000000,0.000000,0.000000,0.000000,0.000000,0.000000,0.000000,0.000000,0.000000,0.000000,,,,,,,,,,,,,,,,,,,,,,,,,,,,,,,,,,,,,,,,,,,,,,,,,,,,,,,,,,,,,,,,,,,,,,,,,,,,,,,,,,,,,,,,,,,,,,,,,,,,,,,,,,,,,,,,,,,,,,,,,,,,,,,,,
1738755562.409636,1738755562.410067,56.000000,0.000000,4323.205078,4350.897461,4255.641113,4304.743652,4349.615234,4358.205078,4364.487305,4549.871582,4539.487305,4559.871582,4496.922852,5662.820313,4310.897461,4257.436035,0.000000,3.000000,74.000000,,,,0.000000,0.000000,0.000000,0.000000,0.000000,0.000000,0.000000,0.000000,0.000000,0.000000,0.000000,0.000000,0.000000,0.000000,0.000000,0.000000,,,,,,,,,,,,,,,,,14.000000,0.000000,0.785330,-0.615723,-0.059448,0.024658,0.066414,-0.974728,0.232450,4.553133,-15.169706,22.755569,,,,,,,,,,,,,,,,,,,,,,,,,,,,,,,,,,,,,,,,,,,,,,,,,,,,,,,,,,,,,,,,,,,,,,,,,,,,,,,,,,,,,,,,,,,,,,,,,,,,,
1738755562.417445,1738755562.417875,57.000000,0.000000,4323.205078,4350.897461,4256.538574,4303.589844,4356.153809,4361.538574,4367.692383,4550.769043,4542.948730,4559.358887,4494.487305,5662.051270,4308.974121,4257.051270,0.000000,3.000000,74.000000,,,,0.000000,0.000000,0.000000,0.000000,0.000000,0.000000,0.000000,0.000000,0.000000,0.000000,0.000000,0.000000,0.000000,0.000000,0.000000,0.000000,,,,,,,,,,,,,,,,,,,,,,,,,,,,,,,,,,,,,,,,,,,,,,,,,,,,,,,,,,,,,,,,,,,,,,,,,,,,,,,,,,,,,,,,,,,,,,,,,,,,,,,,,,,,,,,,,,,,,,,,,,,,,,,,,
1738755562.425253,1738755562.425783,58.000000,0.000000,4323.974121,4353.461426,4254.871582,4303.846191,4357.436035,4362.307617,4367.948730,4551.922852,4540.769043,4558.205078,4497.179688,5663.846191,4304.871582,4255.512695,0.000000,3.000000,74.000000,,,,0.000000,0.000000,0.000000,0.000000,0.000000,0.000000,0.000000,0.000000,0.000000,0.000000,0.000000,0.000000,0.000000,0.000000,0.000000,0.000000,,,,,,,,,,,,,,,,,,,,,,,,,,,,,,,,,,,,,,,,,,,,,,,,,,,,,,,,,,,,,,,,,,,,,,,,,,,,,,,,,,,,,,,,,,,,,,,,,,,,,,,,,,,,,,,,,,,,,,,,,,,,,,,,,
1738755562.433061,1738755562.433591,59.000000,0.000000,4322.307617,4353.461426,4253.333496,4303.333496,4352.948730,4359.743652,4362.179688,4548.974121,4538.077148,4559.102539,4498.974121,5662.692383,4311.794922,4256.794922,0.000000,3.000000,74.000000,,,,0.000000,0.000000,0.000000,0.000000,0.000000,0.000000,0.000000,0.000000,0.000000,0.000000,0.000000,0.000000,0.000000,0.000000,0.000000,0.000000,,,,,,,,,,,,,,,,,,,,,,,,,,,,,,,,,,,,,,,,,,,,,,,,,,,,,,,,,,,,,,,,,,,,,,,,,,,,,,,,,,,,,,,,,,,,,,,,,,,,,,,,,,,,,,,,,,,,,,,,,,,,,,,,,
1738755562.440869,1738755562.441499,60.000000,0.000000,4323.589844,4349.743652,4256.666504,4302.948730,4353.717773,4360.769043,4366.025879,4547.436035,4539.871582,4560.897461,4496.538574,5660.897461,4309.102539,4254.743652,0.000000,3.000000,74.000000,,,,0.000000,0.000000,0.000000,0.000000,0.000000,0.000000,0.000000,0.000000,0.000000,0.000000,0.000000,0.000000,0.000000,0.000000,0.000000,0.000000,,,,,,,,,,,,,,,,,15.000000,0.000000,0.785334,-0.615723,-0.059448,0.024536,0.063484,-0.971310,0.235869,4.547821,-15.102736,22.646679,,,,,,,,,,,,,,,,,,,,,,,,,,,,,,,,,,,,,,,,,,,,,,,,,,,,,,,,,,,,,,,,,,,,,,,,,,,,,,,,,,,,,,,,,,,,,,,,,,,,,
1738755562.448677,1738755562.449307,61.000000,0.000000,4321.922852,4350.384766,4257.179688,4300.641113,4355.512695,4362.051270,4368.333496,4547.948730,4543.333496,4558.974121,4497.692383,5659.102539,4310.256348,4257.948730,0.000000,3.000000,74.000000,,,,0.000000,0.000000,0.000000,0.000000,0.000000,0.000000,0.000000,0.000000,0.000000,0.000000,0.000000,0.000000,0.000000,0.000000,0.000000,0.000000,,,,,,,,,,,,,,,,,,,,,,,,,,,,,,,,,,,,,,,,,,,,,,,,,,,,,,,,,,,,,,,,,,,,,,,,,,,,,,,,,,,,,,,,,,,,,,,,,,,,,,,,,,,,,,,,,,,,,,,,,,,,,,,,,
1738755562.456485,1738755562.457216,62.000000,0.000000,4320.384766,4352.307617,4255.256348,4303.717773,4351.666504,4359.487305,4364.615234,4551.282227,4540.769043,4556.410156,4497.692383,5663.461426,4309.230957,4257.179688,0.000000,3.000000,74.000000,,,,0.000000,0.000000,0.000000,0.000000,0.000000,0.000000,0.000000,0.000000,0.000000,0.000000,0.000000,0.000000,0.000000,0.000000,0.000000,0.000000,,,,,,,,,,,,,,,,,,,,,,,,,,,,,,,,,,,,,,,,,,,,,,,,,,,,,,,,,,,,0.017571,0.028231,0.023788,0.019731,0.044791,0.054787,0.036157,0.024490,0.023672,0.021497,0.010732,0.010049,0.041617,0.027730,0.033443,0.007952,0.047900,0.032753,0.023449,0.019515,0.035663,0.057598,0.026167,0.024864,0.041146,0.021957,0.018632,0.035978,0.016881,0.024985,0.044591,0.021604,0.053977,0.028548,0.026593,0.073493,0.038430,0.020137,0.022302,0.024577,0.040387,0.024670,0.014142,0.033807,0.031231,0.040346,0.039770,0.011630,0.027972,0.031881,0.024924,0.023781,0.015159,0.011956,0.020213,0.023450,0.016718,0.024105,0.030932,0.024372,0.042456,0.043470,0.035743,0.024091,0.035167,0.021955,0.032557,0.021624,0.037909,0.033164
1738755562.464293,1738755562.465024,63.000000,0.000000,4323.717773,4352.436035,4255.384766,4305.128418,4350.384766,4358.461426,4364.230957,4551.794922,4536.282227,4560.128418,4498.589844,5665.769043,4307.051270,4252.820313,0.000000,3.000000,74.000000,,,,0.000000,0.000000,0.000000,0.000000,0.000000,0.000000,0.000000,0.000000,0.000000,0.000000,0.000000,0.000000,0.000000,0.000000,0.000000,0.000000,,,,,,,,,,,,,,,,,,,,,,,,,,,,,,,,,,,,,,,,,,,,,,,,,,,,,,,,,,,,,,,,,,,,,,,,,,,,,,,,,,,,,,,,,,,,,,,,,,,,,,,,,,,,,,,,,,,,,,,,,,,,,,,,,
1738755562.472101,1738755562.472932,64.000000,0.000000,4323.846191,4350.641113,4256.153809,4303.077148,4353.205078,4360.128418,4366.538574,4548.974121,4538.974121,4564.358887,4499.743652,5660.769043,4313.717773,4255.384766,0.000000,3.000000,74.000000,,,,0.000000,0.000000,0.000000,0.000000,0.000000,0.000000,0.000000,0.000000,0.000000,0.000000,0.000000,0.000000,0.000000,0.000000,0.000000,0.000000,,,,,,,,,,,,,,,,,16.000000,0.000000,0.785385,-0.615662,-0.059387,0.024597,0.068368,-0.973752,0.233427,4.609705,-15.059129,22.732012,,,,,,,,,,,,,,,,,,,,,,,,,,,,,,,,,,,,,,,,,,,,,,,,,,,,,,,,,,,,,,,,,,,,,,,,,,,,,,,,,,,,,,,,,,,,,,,,,,,,,
1738755562.479909,1738755562.480740,65.000000,0.000000,4322.948730,4348.333496,4256.153809,4303.077148,4351.794922,4360.384766,4367.692383,4551.153809,4540.000000,4562.307617,4497.563965,5663.333496,4312.692383,4254.871582,0.000000,3.000000,74.000000,,,,0.000000,0.000000,0.000000,0.000000,0.000000,0.000000,0.000000,0.000000,0.000000,0.000000,0.000000,0.000000,0.000000,0.000000,0.000000,0.000000,,,,,,,,,,,,,,,,,,,,,,,,,,,,,,,,,,,,,,,,,,,,,,,,,,,,,,,,,,,,,,,,,,,,,,,,,,,,,,,,,,,,,,,,,,,,,,,,,,,,,,,,,,,,,,,,,,,,,,,,,,,,,,,,,
1738755562.487717,1738755562.488448,66.000000,0.000000,4322.563965,4349.230957,4254.615234,4301.666504,4347.436035,4358.589844,4362.820313,4551.025879,4537.820313,4560.512695,4499.102539,5664.871582,4313.589844,4256.794922,0.000000,3.000000,74.000000,,,,0.000000,0.000000,0.000000,0.000000,0.000000,0.000000,0.000000,0.000000,0.000000,0.000000,0.000000,0.000000,0.000000,0.000000,0.000000,0.000000,,,,,,,,,,,,,,,,,,,,,,,,,,,,,,,,,,,,,,,,,,,,,,,,,,,,,,,,,,,,,,,,,,,,,,,,,,,,,,,,,,,,,,,,,,,,,,,,,,,,,,,,,,,,,,,,,,,,,,,,,,,,,,,,,
1738755562.495525,1738755562.496357,67.000000,0.000000,4322.436035,4351.666504,4254.358887,4305.128418,4348.717773,4359.358887,4362.820313,4549.615234,4537.948730,4560.128418,4499.615234,5664.230957,4310.128418,4257.948730,0.000000,3.000000,74.000000,,,,0.000000,0.000000,0.000000,0.000000,0.000000,0.000000,0.000000,0.000000,0.000000,0.000000,0.000000,0.000000,0.000000,0.000000,0.000000,0.000000,,,,,,,,,,,,,,,,,,,,,,,,,,,,,,,,,,,,,,,,,,,,,,,,,,,,,,,,,,,,,,,,,,,,,,,,,,,,,,,,,,,,,,,,,,,,,,,,,,,,,,,,,,,,,,,,,,,,,,,,,,,,,,,,,
1738755562.503334,1738755562.504165,68.000000,0.000000,4324.102539,4352.307617,4255.512695,4307.051270,4352.051270,4360.641113,4367.820313,4550.384766,4540.384766,4561.282227,4497.179688,5664.102539,4307.820313,4257.436035,0.000000,3.000000,74.000000,,,,0.000000,0.000000,0.000000,0.000000,0.000000,0.000000,0.000000,0.000000,0.000000,0.000000,0.000000,0.000000,0.000000,0.000000,0.000000,0.000000,,,,,,,,,,,,,,,,,17.000000,0.000000,0.785385,-0.615662,-0.059387,0.024597,0.061531,-0.979612,0.234404,4.548735,-15.019883,22.508810,,,,,,,,,,,,,,,,,,,,,,,,,,,,,,,,,,,,,,,,,,,,,,,,,,,,,,,,,,,,,,,,,,,,,,,,,,,,,,,,,,,,,,,,,,,,,,,,,,,,,
1738755562.511142,1738755562.511973,69.000000,0.000000,4325.512695,4351.025879,4256.538574,4301.282227,4350.512695,4358.589844,4367.563965,4548.077148,4543.717773,4562.820313,4497.948730,5660.000000,4315.641113,4259.102539,0.000000,3.000000,74.000000,,,,0.000000,0.000000,0.000000,0.000000,0.000000,0.000000,0.000000,0.000000,0.000000,0.000000,0.000000,0.000000,0.000000,0.000000,0.000000,0.000000,,,,,,,,,,,,,,,,,,,,,,,,,,,,,,,,,,,,,,,,,,,,,,,,,,,,,,,,,,,,,,,,,,,,,,,,,,,,,,,,,,,,,,,,,,,,,,,,,,,,,,,,,,,,,,,,,,,,,,,,,,,,,,,,,
1738755562.518950,1738755562.519681,70.000000,0.000000,4324.358887,4349.358887,4256.025879,4302.820313,4349.487305,4359.230957,4366.666504,4549.615234,4542.563965,4559.743652,4497.563965,5665.000000,4309.358887,4256.410156,0.000000,3.000000,74.000000,,,,0.000000,0.000000,0.000000,0.000000,0.000000,0.000000,0.000000,0.000000,0.000000,0.000000,0.000000,0.000000,0.000000,0.000000,0.000000,0.000000,,,,,,,,,,,,,,,,,,,,,,,,,,,,,,,,,,,,,,,,,,,,,,,,,,,,,,,,,,,,,,,,,,,,,,,,,,,,,,,,,,,,,,,,,,,,,,,,,,,,,,,,,,,,,,,,,,,,,,,,,,,,,,,,,
1738755562.526758,1738755562.527489,71.000000,0.000000,4321.153809,4351.282227,4253.717773,4303.077148,4352.692383,4361.410156,4363.717773,4551.025879,4540.641113,4557.820313,4496.025879,5666.794922,4308.589844,4258.461426,0.000000,3.000000,74.000000,,,,0.000000,0.000000,0.000000,0.000000,0.000000,0.000000,0.000000,0.000000,0.000000,0.000000,0.000000,0.000000,0.000000,0.000000,0.000000,0.000000,,,,,,,,,,,,,,,,,,,,,,,,,,,,,,,,,,,,,,,,,,,,,,,,,,,,,,,,,,,,,,,,,,,,,,,,,,,,,,,,,,,,,,,,,,,,,,,,,,,,,,,,,,,,,,,,,,,,,,,,,,,,,,,,,
1738755562.534566,1738755562.535197,72.000000,0.000000,4321.538574,4352.820313,4253.461426,4299.743652,4353.589844,4359.487305,4363.333496,4550.256348,4537.820313,4558.846191,4497.948730,5662.179688,4312.307617,4258.974121,0.000000,3.000000,74.000000,,,,0.000000,0.000000,0.000000,0.000000,0.000000,0.000000,0.000000,0.000000,0.000000,0.000000,0.000000,0.000000,0.000000,0.000000,0.000000,0.000000,,,,,,,,,,,,,,,,,18.000000,0.000000,0.785335,-0.615723,-0.059387,0.024658,0.060554,-0.967892,0.235380,4.610528,-15.034561,22.607929,,,,,,,,,,,,,,,,,,,,,,,,,,,,,,,,,,,,,,,,,,,,,,,,,,,,,,,,,,,,,,,,,,,,,,,,,,,,,,,,,,,,,,,,,,,,,,,,,,,,,
1738755562.542374,1738755562.543105,73.000000,0.000000,4325.000000,4350.384766,4253.205078,4302.948730,4350.769043,4358.077148,4368.205078,4551.025879,4537.179688,4558.461426,4498.717773,5663.717773,4305.641113,4254.871582,0.000000,3.000000,74.000000,,,,0.000000,0.000000,0.000000,0.000000,0.000000,0.000000,0.000000,0.000000,0.000000,0.000000,0.000000,0.000000,0.000000,0.000000,0.000000,0.000000,,,,,,,,,,,,,,,,,,,,,,,,,,,,,,,,,,,,,,,,,,,,,,,,,,,,,,,,,,,,,,,,,,,,,,,,,,,,,,,,,,,,,,,,,,,,,,,,,,,,,,,,,,,,,,,,,,,,,,,,,,,,,,,,,
1738755562.550182,1738755562.550913,74.000000,0.000000,4325.641113,4350.512695,4252.179688,4302.692383,4349.487305,4359.615234,4365.641113,4549.871582,4541.410156,4560.384766,4497.307617,5663.974121,4308.589844,4256.922852,0.000000,3.000000,74.000000,,,,0.000000,0.000000,0.000000,0.000000,0.000000,0.000000,0.000000,0.000000,0.000000,0.000000,0.000000,0.000000,0.000000,0.000000,0.000000,0.000000,,,,,,,,,,,,,,,,,,,,,,,,,,,,,,,,,,,,,,,,,,,,,,,,,,,,,,,,,,,,,,,,,,,,,,,,,,,,,,,,,,,,,,,,,,,,,,,,,,,,,,,,,,,,,,,,,,,,,,,,,,,,,,,,,
1738755562.557990,1738755562.558722,75.000000,0.000000,4323.974121,4352.563965,4254.743652,4302.563965,4351.666504,4360.512695,4361.922852,4552.179688,4537.820313,4560.897461,4497.563965,5665.128418,4310.256348,4257.179688,0.000000,3.000000,74.000000,,,,0.000000,0.000000,0.000000,0.000000,0.000000,0.000000,0.000000,0.000000,0.000000,0.000000,0.000000,0.000000,0.000000,0.000000,0.000000,0.000000,,,,,,,,,,,,,,,,,,,,,,,,,,,,,,,,,,,,,,,,,,,,,,,,,,,,,,,,,,,,,,,,,,,,,,,,,,,,,,,,,,,,,,,,,,,,,,,,,,,,,,,,,,,,,,,,,,,,,,,,,,,,,,,,,
1738755562.565798,1738755562.566430,76.000000,0.000000,4319.743652,4351.794922,4255.897461,4302.820313,4352.692383,4360.512695,4362.307617,4552.307617,4536.153809,4559.102539,4499.230957,5663.974121,4311.025879,4257.436035,0.000000,3.000000,74.000000,,,,0.000000,0.000000,0.000000,0.000000,0.000000,0.000000,0.000000,0.000000,0.000000,0.000000,0.000000,0.000000,0.000000,0.000000,0.000000,0.000000,,,,,,,,,,,,,,,,,19.000000,0.000000,0.785338,-0.615723,-0.059326,0.024719,0.061531,-0.969357,0.230009,4.499475,-14.997772,22.563803,,,,,,,,,,,,,,,,,,,,,,,,,,,,,,,,,,,,,,,,,,,,,,,,,,,,,,,,,,,,,,,,,,,,,,,,,,,,,,,,,,,,,,,,,,,,,,,,,,,,,
1738755562.573606,1738755562.574238,77.000000,0.000000,4318.974121,4351.282227,4253.205078,4300.512695,4351.410156,4362.948730,4366.282227,4548.333496,4541.922852,4559.358887,4498.205078,5661.153809,4310.641113,4258.461426,0.000000,3.000000,74.000000,,,,0.000000,0.000000,0.000000,0.000000,0.000000,0.000000,0.000000,0.000000,0.000000,0.000000,0.000000,0.000000,0.000000,0.000000,0.000000,0.000000,,,,,,,,,,,,,,,,,,,,,,,,,,,,,,,,,,,,,,,,,,,,,,,,,,,,,,,,,,,,,,,,,,,,,,,,,,,,,,,,,,,,,,,,,,,,,,,,,,,,,,,,,,,,,,,,,,,,,,,,,,,,,,,,,
1738755562.581415,1738755562.581946,78.000000,0.000000,4323.589844,4352.692383,4252.820313,4306.282227,4351.666504,4362.692383,4370.641113,4550.128418,4542.051270,4557.692383,4496.153809,5664.358887,4304.230957,4255.000000,0.000000,3.000000,74.000000,,,,0.000000,0.000000,0.000000,0.000000,0.000000,0.000000,0.000000,0.000000,0.000000,0.000000,0.000000,0.000000,0.000000,0.000000,0.000000,0.000000,,,,,,,,,,,,,,,,,,,,,,,,,,,,,,,,,,,,,,,,,,,,,,,,,,,,,,,,,,,,0.023131,0.027796,0.022743,0.016819,0.046138,0.059299,0.030113,0.023993,0.021179,0.023167,0.006971,0.009182,0.047258,0.026535,0.033136,0.007093,0.043637,0.026995,0.020419,0.019608,0.033582,0.050134,0.025993,0.026102,0.038087,0.020694,0.015097,0.036501,0.017192,0.024846,0.036869,0.020028,0.059615,0.031263,0.030293,0.060432,0.043562,0.020396,0.021665,0.027054,0.040713,0.021437,0.016408,0.033336,0.027962,0.039885,0.038807,0.012058,0.027421,0.030127,0.026395,0.024291,0.015862,0.013488,0.021389,0.023247,0.015423,0.027093,0.032295,0.024242,0.041792,0.043169,0.034312,0.023103,0.035588,0.017333,0.035366,0.024423,0.036624,0.032256
1738755562.589223,1738755562.589854,79.000000,0.000000,4324.102539,4352.436035,4255.256348,4306.410156,4353.461426,4358.589844,4366.153809,4552.307617,4541.538574,4557.307617,4496.794922,5665.512695,4311.794922,4258.846191,0.000000,3.000000,74.000000,,,,0.000000,0.000000,0.000000,0.000000,0.000000,0.000000,0.000000,0.000000,0.000000,0.000000,0.000000,0.000000,0.000000,0.000000,0.000000,0.000000,,,,,,,,,,,,,,,,,,,,,,,,,,,,,,,,,,,,,,,,,,,,,,,,,,,,,,,,,,,,,,,,,,,,,,,,,,,,,,,,,,,,,,,,,,,,,,,,,,,,,,,,,,,,,,,,,,,,,,,,,,,,,,,,,
1738755562.597031,1738755562.597662,80.000000,0.000000,4321.922852,4350.512695,4256.025879,4302.179688,4353.974121,4358.333496,4366.282227,4549.871582,4540.000000,4560.128418,4495.641113,5667.179688,4311.794922,4260.128418,0.000000,3.000000,74.000000,,,,0.000000,0.000000,0.000000,0.000000,0.000000,0.000000,0.000000,0.000000,0.000000,0.000000,0.000000,0.000000,0.000000,0.000000,0.000000,0.000000,,,,,,,,,,,,,,,,,20.000000,0.000000,0.785345,-0.615723,-0.059204,0.024780,0.057136,-0.969357,0.237822,4.449527,-15.014661,22.574089,,,,,,,,,,,,,,,,,,,,,,,,,,,,,,,,,,,,,,,,,,,,,,,,,,,,,,,,,,,,,,,,,,,,,,,,,,,,,,,,,,,,,,,,,,,,,,,,,,,,,
1738755562.604839,1738755562.605570,81.000000,0.000000,4321.538574,4352.179688,4251.922852,4303.717773,4352.307617,4360.769043,4369.487305,4546.922852,4537.179688,4560.256348,4497.051270,5663.589844,4307.436035,4255.256348,0.000000,3.000000,74.000000,,,,0.000000,0.000000,0.000000,0.000000,0.000000,0.000000,0.000000,0.000000,0.000000,0.000000,0.000000,0.000000,0.000000,0.000000,0.000000,0.000000,,,,,,,,,,,,,,,,,,,,,,,,,,,,,,,,,,,,,,,,,,,,,,,,,,,,,,,,,,,,,,,,,,,,,,,,,,,,,,,,,,,,,,,,,,,,,,,,,,,,,,,,,,,,,,,,,,,,,,,,,,,,,,,,,
1738755562.612647,1738755562.613378,82.000000,0.000000,4323.461426,4352.179688,4251.410156,4303.846191,4352.563965,4359.230957,4365.641113,4551.282227,4537.563965,4557.307617,4499.743652,5658.589844,4316.282227,4255.641113,0.000000,3.000000,74.000000,,,,0.000000,0.000000,0.000000,0.000000,0.000000,0.000000,0.000000,0.000000,0.000000,0.000000,0.000000,0.000000,0.000000,0.000000,0.000000,0.000000,,,,,,,,,,,,,,,,,,,,,,,,,,,,,,,,,,,,,,,,,,,,,,,,,,,,,,,,,,,,,,,,,,,,,,,,,,,,,,,,,,,,,,,,,,,,,,,,,,,,,,,,,,,,,,,,,,,,,,,,,,,,,,,,,
1738755562.620455,1738755562.621286,83.000000,0.000000,4323.846191,4348.717773,4256.282227,4302.436035,4355.384766,4357.307617,4365.384766,4554.743652,4537.307617,4557.563965,4494.487305,5663.205078,4314.230957,4253.846191,0.000000,3.000000,74.000000,,,,0.000000,0.000000,0.000000,0.000000,0.000000,0.000000,0.000000,0.000000,0.000000,0.000000,0.000000,0.000000,0.000000,0.000000,0.000000,0.000000,,,,,,,,,,,,,,,,,,,,,,,,,,,,,,,,,,,,,,,,,,,,,,,,,,,,,,,,,,,,,,,,,,,,,,,,,,,,,,,,,,,,,,,,,,,,,,,,,,,,,,,,,,,,,,,,,,,,,,,,,,,,,,,,,
1738755562.628263,1738755562.629095,84.000000,0.000000,4320.256348,4351.025879,4255.769043,4302.051270,4353.589844,4359.871582,4366.153809,4548.077148,4538.974121,4560.128418,4493.846191,5662.179688,4310.384766,4252.820313,0.000000,3.000000,74.000000,,,,0.000000,0.000000,0.000000,0.000000,0.000000,0.000000,0.000000,0.000000,0.000000,0.000000,0.000000,0.000000,0.000000,0.000000,0.000000,0.000000,,,,,,,,,,,,,,,,,21.000000,0.000000,0.785342,-0.615723,-0.059265,0.024719,0.059578,-0.975217,0.239775,4.487908,-15.063195,22.533348,,,,,,,,,,,,,,,,,,,,,,,,,,,,,,,,,,,,,,,,,,,,,,,,,,,,,,,,,,,,,,,,,,,,,,,,,,,,,,,,,,,,,,,,,,,,,,,,,,,,,
1738755562.636071,1738755562.637003,85.000000,0.000000,4321.538574,4351.153809,4253.077148,4303.333496,4349.871582,4361.153809,4366.794922,4549.615234,4540.256348,4557.051270,4498.205078,5661.282227,4307.307617,4253.077148,0.000000,3.000000,74.000000,,,,0.000000,0.000000,0.000000,0.000000,0.000000,0.000000,0.000000,0.000000,0.000000,0.000000,0.000000,0.000000,0.000000,0.000000,0.000000,0.000000,,,,,,,,,,,,,,,,,,,,,,,,,,,,,,,,,,,,,,,,,,,,,,,,,,,,,,,,,,,,,,,,,,,,,,,,,,,,,,,,,,,,,,,,,,,,,,,,,,,,,,,,,,,,,,,,,,,,,,,,,,,,,,,,,
1738755562.643879,1738755562.644811,86.000000,0.000000,4322.436035,4345.128418,4254.615234,4300.897461,4349.358887,4359.487305,4364.487305,4553.717773,4538.846191,4555.641113,4496.794922,5664.871582,4306.666504,4253.974121,0.000000,3.000000,74.000000,,,,0.000000,0.000000,0.000000,0.000000,0.000000,0.000000,0.000000,0.000000,0.000000,0.000000,0.000000,0.000000,0.000000,0.000000,0.000000,0.000000,,,,,,,,,,,,,,,,,,,,,,,,,,,,,,,,,,,,,,,,,,,,,,,,,,,,,,,,,,,,,,,,,,,,,,,,,,,,,,,,,,,,,,,,,,,,,,,,,,,,,,,,,,,,,,,,,,,,,,,,,,,,,,,,,
1738755562.651688,1738755562.652719,87.000000,0.000000,4319.615234,4346.282227,4255.641113,4300.000000,4349.615234,4361.666504,4361.153809,4548.077148,4539.102539,4561.025879,4494.743652,5661.153809,4312.436035,4254.487305,0.000000,3.000000,74.000000,,,,0.000000,0.000000,0.000000,0.000000,0.000000,0.000000,0.000000,0.000000,0.000000,0.000000,0.000000,0.000000,0.000000,0.000000,0.000000,0.000000,,,,,,,,,,,,,,,,,,,,,,,,,,,,,,,,,,,,,,,,,,,,,,,,,,,,,,,,,,,,,,,,,,,,,,,,,,,,,,,,,,,,,,,,,,,,,,,,,,,,,,,,,,,,,,,,,,,,,,,,,,,,,,,,,
1738755562.659495,1738755562.660627,88.000000,0.000000,4321.153809,4349.487305,4251.794922,4305.769043,4351.922852,4362.307617,4364.358887,4550.128418,4538.077148,4562.051270,4492.820313,5664.358887,4307.051270,4251.410156,0.000000,3.000000,74.000000,,,,0.000000,0.000000,0.000000,0.000000,0.000000,0.000000,0.000000,0.000000,0.000000,0.000000,0.000000,0.000000,0.000000,0.000000,0.000000,0.000000,,,,,,,,,,,,,,,,,22.000000,0.000000,0.785351,-0.615723,-0.059143,0.024719,0.066903,-0.974240,0.229520,4.705784,-15.173542,22.613346,,,,,,,,,,,,,,,,,,,,,,,,,,,,,,,,,,,,,,,,,,,,,,,,,,,,,,,,,,,,,,,,,,,,,,,,,,,,,,,,,,,,,,,,,,,,,,,,,,,,,
1738755562.667304,1738755562.668435,89.000000,0.000000,4322.948730,4348.589844,4248.974121,4304.615234,4353.333496,4358.205078,4363.717773,4553.333496,4539.615234,4559.871582,4493.077148,5666.025879,4306.794922,4255.641113,0.000000,3.000000,74.000000,,,,0.000000,0.000000,0.000000,0.000000,0.000000,0.000000,0.000000,0.000000,0.000000,0.000000,0.000000,0.000000,0.000000,0.000000,0.000000,0.000000,,,,,,,,,,,,,,,,,,,,,,,,,,,,,,,,,,,,,,,,,,,,,,,,,,,,,,,,,,,,,,,,,,,,,,,,,,,,,,,,,,,,,,,,,,,,,,,,,,,,,,,,,,,,,,,,,,,,,,,,,,,,,,,,,
1738755562.675112,1738755562.676244,90.000000,0.000000,4323.205078,4349.230957,4254.358887,4301.538574,4350.384766,4359.102539,4363.461426,4550.512695,4541.282227,4562.051270,4495.128418,5663.333496,4309.615234,4256.794922,0.000000,3.000000,74.000000,,,,0.000000,0.000000,0.000000,0.000000,0.000000,0.000000,0.000000,0.000000,0.000000,0.000000,0.000000,0.000000,0.000000,0.000000,0.000000,0.000000,,,,,,,,,,,,,,,,,,,,,,,,,,,,,,,,,,,,,,,,,,,,,,,,,,,,,,,,,,,,,,,,,,,,,,,,,,,,,,,,,,,,,,,,,,,,,,,,,,,,,,,,,,,,,,,,,,,,,,,,,,,,,,,,,
1738755562.682920,1738755562.683952,91.000000,0.000000,4323.974121,4351.410156,4258.077148,4302.307617,4351.538574,4361.538574,4366.410156,4550.384766,4538.461426,4562.692383,4494.615234,5665.641113,4311.025879,4253.846191,0.000000,3.000000,74.000000,,,,0.000000,0.000000,0.000000,0.000000,0.000000,0.000000,0.000000,0.000000,0.000000,0.000000,0.000000,0.000000,0.000000,0.000000,0.000000,0.000000,,,,,,,,,,,,,,,,,,,,,,,,,,,,,,,,,,,,,,,,,,,,,,,,,,,,,,,,,,,,,,,,,,,,,,,,,,,,,,,,,,,,,,,,,,,,,,,,,,,,,,,,,,,,,,,,,,,,,,,,,,,,,,,,,
1738755562.690728,1738755562.691760,92.000000,0.000000,4323.205078,4351.666504,4253.589844,4301.922852,4355.000000,4359.871582,4365.128418,4550.128418,4539.358887,4560.256348,4494.102539,5662.563965,4313.077148,4257.563965,0.000000,3.000000,74.000000,,,,0.000000,0.000000,0.000000,0.000000,0.000000,0.000000,0.000000,0.000000,0.000000,0.000000,0.000000,0.000000,0.000000,0.000000,0.000000,0.000000,,,,,,,,,,,,,,,,,23.000000,0.000000,0.785297,-0.615784,-0.059204,0.024780,0.071298,-0.985960,0.241240,4.535205,-15.339521,22.702011,,,,,,,,,,,,,,,,,,,,,,,,,,,,,,,,,,,,,,,,,,,,,,,,,,,,,,,,,,,,,,,,,,,,,,,,,,,,,,,,,,,,,,,,,,,,,,,,,,,,,
1738755562.698536,1738755562.699468,93.000000,0.000000,4324.358887,4347.948730,4252.692383,4305.000000,4350.769043,4360.512695,4366.282227,4549.230957,4540.128418,4559.871582,4494.615234,5662.948730,4302.307617,4255.769043,0.000000,3.000000,74.000000,,,,0.000000,0.000000,0.000000,0.000000,0.000000,0.000000,0.000000,0.000000,0.000000,0.000000,0.000000,0.000000,0.000000,0.000000,0.000000,0.000000,,,,,,,,,,,,,,,,,,,,,,,,,,,,,,,,,,,,,,,,,,,,,,,,,,,,,,,,,,,,,,,,,,,,,,,,,,,,,,,,,,,,,,,,,,,,,,,,,,,,,,,,,,,,,,,,,,,,,,,,,,,,,,,,,
1738755562.706344,1738755562.707276,94.000000,0.000000,4324.230957,4350.641113,4253.846191,4304.358887,4346.666504,4361.153809,4364.871582,4548.589844,4539.102539,4561.282227,4497.820313,5664.615234,4307.820313,4254.871582,0.000000,3.000000,74.000000,,,,0.000000,0.000000,0.000000,0.000000,0.000000,0.000000,0.000000,0.000000,0.000000,0.000000,0.000000,0.000000,0.000000,0.000000,0.000000,0.000000,1.000000,0.000000,0.000000,0.000000,0.000000,0.000000,0.000000,0.000000,0.000000,0.000000,0.000000,0.000000,0.000000,0.000000,0.000000,0.000000,,,,,,,,,,,,,,,,,,,,,,,,,,,,,,,,,,,,,,,,,,,,0.028797,0.029573,0.022041,0.013881,0.044614,0.058524,0.025313,0.023832,0.018425,0.025270,0.005987,0.009216,0.050184,0.025596,0.031984,0.006807,0.036754,0.022304,0.017262,0.019589,0.030422,0.042664,0.028609,0.026842,0.035544,0.017950,0.011609,0.035645,0.016927,0.024207,0.032772,0.018909,0.069754,0.034422,0.033984,0.048207,0.047388,0.020459,0.022173,0.029472,0.042180,0.020298,0.018718,0.031983,0.026040,0.036995,0.035833,0.013328,0.025631,0.027732,0.029016,0.023346,0.018578,0.016373,0.023606,0.024047,0.013645,0.029177,0.032609,0.024627,0.039007,0.043186,0.035192,0.023590,0.035373,0.017338,0.036211,0.026356,0.034006,0.031279
1738755562.714152,1738755562.714984,95.000000,0.000000,4323.846191,4353.974121,4252.948730,4300.641113,4351.153809,4360.128418,4363.205078,4549.743652,4541.794922,4561.025879,4498.846191,5663.077148,4317.563965,4256.922852,0.000000,3.000000,74.000000,,,,0.000000,0.000000,0.000000,0.000000,0.000000,0.000000,0.000000,0.000000,0.000000,0.000000,0.000000,0.000000,0.000000,0.000000,0.000000,0.000000,,,,,,,,,,,,,,,,,,,,,,,,,,,,,,,,,,,,,,,,,,,,,,,,,,,,,,,,,,,,,,,,,,,,,,,,,,,,,,,,,,,,,,,,,,,,,,,,,,,,,,,,,,,,,,,,,,,,,,,,,,,,,,,,,
1738755562.721960,1738755562.722792,96.000000,0.000000,4325.384766,4352.051270,4255.512695,4302.179688,4353.974121,4361.538574,4365.512695,4552.948730,4541.794922,4560.128418,4495.000000,5664.487305,4307.820313,4253.717773,0.000000,3.000000,74.000000,,,,0.000000,0.000000,0.000000,0.000000,0.000000,0.000000,0.000000,0.000000,0.000000,0.000000,0.000000,0.000000,0.000000,0.000000,0.000000,0.000000,,,,,,,,,,,,,,,,,24.000000,0.000000,0.785295,-0.615784,-0.059204,0.024841,0.071786,-0.982053,0.237334,4.515018,-15.322236,22.698477,,,,,,,,,,,,,,,,,,,,,,,,,,,,,,,,,,,,,,,,,,,,,,,,,,,,,,,,,,,,,,,,,,,,,,,,,,,,,,,,,,,,,,,,,,,,,,,,,,,,,
1738755562.729768,1738755562.730500,97.000000,0.000000,4323.461426,4353.205078,4256.410156,4303.461426,4352.436035,4363.846191,4364.358887,4549.871582,4538.589844,4560.512695,4493.974121,5663.461426,4307.051270,4254.487305,0.000000,3.000000,74.000000,,,,0.000000,0.000000,0.000000,0.000000,0.000000,0.000000,0.000000,0.000000,0.000000,0.000000,0.000000,0.000000,0.000000,0.000000,0.000000,0.000000,,,,,,,,,,,,,,,,,,,,,,,,,,,,,,,,,,,,,,,,,,,,,,,,,,,,,,,,,,,,,,,,,,,,,,,,,,,,,,,,,,,,,,,,,,,,,,,,,,,,,,,,,,,,,,,,,,,,,,,,,,,,,,,,,
1738755562.737577,1738755562.738308,98.000000,0.000000,4322.179688,4352.436035,4253.846191,4304.102539,4353.589844,4361.538574,4364.615234,4548.333496,4538.077148,4560.256348,4496.153809,5663.205078,4308.333496,4253.589844,0.000000,3.000000,74.000000,,,,0.000000,0.000000,0.000000,0.000000,0.000000,0.000000,0.000000,0.000000,0.000000,0.000000,0.000000,0.000000,0.000000,0.000000,0.000000,0.000000,,,,,,,,,,,,,,,,,,,,,,,,,,,,,,,,,,,,,,,,,,,,,,,,,,,,,,,,,,,,,,,,,,,,,,,,,,,,,,,,,,,,,,,,,,,,,,,,,,,,,,,,,,,,,,,,,,,,,,,,,,,,,,,,,
1738755562.745385,1738755562.746016,99.000000,0.000000,4322.051270,4349.743652,4253.461426,4301.410156,4354.487305,4357.948730,4363.717773,4550.384766,4541.025879,4560.000000,4498.717773,5661.794922,4310.641113,4254.743652,0.000000,3.000000,74.000000,,,,0.000000,0.000000,0.000000,0.000000,0.000000,0.000000,0.000000,0.000000,0.000000,0.000000,0.000000,0.000000,0.000000,0.000000,0.000000,0.000000,,,,,,,,,,,,,,,,,,,,,,,,,,,,,,,,,,,,,,,,,,,,,,,,,,,,,,,,,,,,,,,,,,,,,,,,,,,,,,,,,,,,,,,,,,,,,,,,,,,,,,,,,,,,,,,,,,,,,,,,,,,,,,,,,
1738755562.753193,1738755562.753824,100.000000,0.000000,4322.436035,4350.512695,4254.102539,4300.000000,4352.692383,4358.589844,4363.974121,4548.717773,4540.897461,4558.846191,4497.179688,5662.307617,4312.051270,4259.487305,0.000000,3.000000,74.000000,,,,0.000000,0.000000,0.000000,0.000000,0.000000,0.000000,0.000000,0.000000,0.000000,0.000000,0.000000,0.000000,0.000000,0.000000,0.000000,0.000000,,,,,,,,,,,,,,,,,25.000000,0.000000,0.785300,-0.615784,-0.059143,0.024841,0.067391,-0.972287,0.230497,4.513516,-15.323345,22.845295,,,,,,,,,,,,,,,,,,,,,,,,,,,,,,,,,,,,,,,,,,,,,,,,,,,,,,,,,,,,,,,,,,,,,,,,,,,,,,,,,,,,,,,,,,,,,,,,,,,,,
1738755562.761001,1738755562.761532,101.000000,0.000000,4325.000000,4351.410156,4255.256348,4304.230957,4350.384766,4360.512695,4367.820313,4549.230957,4540.512695,4558.717773,4493.974121,5667.948730,4304.102539,4255.384766,0.000000,3.000000,74.000000,,,,0.000000,0.000000,0.000000,0.000000,0.000000,0.000000,0.000000,0.000000,0.000000,0.000000,0.000000,0.000000,0.000000,0.000000,0.000000,0.000000,,,,,,,,,,,,,,,,,,,,,,,,,,,,,,,,,,,,,,,,,,,,,,,,,,,,,,,,,,,,,,,,,,,,,,,,,,,,,,,,,,,,,,,,,,,,,,,,,,,,,,,,,,,,,,,,,,,,,,,,,,,,,,,,,
1738755562.768809,1738755562.769340,102.000000,0.000000,4323.205078,4350.512695,4254.487305,4303.846191,4348.974121,4359.487305,4365.512695,4550.000000,4544.102539,4562.820313,4497.051270,5665.256348,4311.794922,4253.846191,0.000000,3.000000,74.000000,,,,0.000000,0.000000,0.000000,0.000000,0.000000,0.000000,0.000000,0.000000,0.000000,0.000000,0.000000,0.000000,0.000000,0.000000,0.000000,0.000000,,,,,,,,,,,,,,,,,,,,,,,,,,,,,,,,,,,,,,,,,,,,,,,,,,,,,,,,,,,,,,,,,,,,,,,,,,,,,,,,,,,,,,,,,,,,,,,,,,,,,,,,,,,,,,,,,,,,,,,,,,,,,,,,,
1738755562.776617,1738755562.777048,103.000000,0.000000,4322.307617,4349.743652,4252.948730,4302.307617,4351.794922,4360.000000,4364.743652,4548.589844,4540.897461,4563.077148,4497.820313,5662.948730,4313.717773,4255.641113,0.000000,3.000000,74.000000,,,,0.000000,0.000000,0.000000,0.000000,0.000000,0.000000,0.000000,0.000000,0.000000,0.000000,0.000000,0.000000,0.000000,0.000000,0.000000,0.000000,,,,,,,,,,,,,,,,,,,,,,,,,,,,,,,,,,,,,,,,,,,,,,,,,,,,,,,,,,,,,,,,,,,,,,,,,,,,,,,,,,,,,,,,,,,,,,,,,,,,,,,,,,,,,,,,,,,,,,,,,,,,,,,,,
1738755562.784425,1738755562.784957,104.000000,0.000000,4324.743652,4352.692383,4253.205078,4302.692383,4354.871582,4361.538574,4367.820313,4547.307617,4538.461426,4559.743652,4493.846191,5664.102539,4306.025879,4256.666504,0.000000,3.000000,74.000000,,,,0.000000,0.000000,0.000000,0.000000,0.000000,0.000000,0.000000,0.000000,0.000000,0.000000,0.000000,0.000000,0.000000,0.000000,0.000000,0.000000,,,,,,,,,,,,,,,,,26.000000,0.000000,0.785300,-0.615784,-0.059143,0.024841,0.064461,-0.972287,0.233915,4.578832,-15.524344,22.827433,,,,,,,,,,,,,,,,,,,,,,,,,,,,,,,,,,,,,,,,,,,,,,,,,,,,,,,,,,,,,,,,,,,,,,,,,,,,,,,,,,,,,,,,,,,,,,,,,,,,,
1738755562.792233,1738755562.792765,105.000000,0.000000,4322.563965,4353.717773,4254.871582,4303.589844,4353.717773,4359.615234,4367.692383,4548.205078,4542.051270,4560.897461,4493.974121,5662.563965,4311.153809,4257.051270,0.000000,3.000000,74.000000,,,,0.000000,0.000000,0.000000,0.000000,0.000000,0.000000,0.000000,0.000000,0.000000,0.000000,0.000000,0.000000,0.000000,0.000000,0.000000,0.000000,,,,,,,,,,,,,,,,,,,,,,,,,,,,,,,,,,,,,,,,,,,,,,,,,,,,,,,,,,,,,,,,,,,,,,,,,,,,,,,,,,,,,,,,,,,,,,,,,,,,,,,,,,,,,,,,,,,,,,,,,,,,,,,,,
1738755562.800041,1738755562.800673,106.000000,0.000000,4319.487305,4348.589844,4254.102539,4303.717773,4351.666504,4357.692383,4365.384766,4551.794922,4542.051270,4561.794922,4494.358887,5665.128418,4308.846191,4254.487305,0.000000,3.000000,74.000000,,,,0.000000,0.000000,0.000000,0.000000,0.000000,0.000000,0.000000,0.000000,0.000000,0.000000,0.000000,0.000000,0.000000,0.000000,0.000000,0.000000,,,,,,,,,,,,,,,,,,,,,,,,,,,,,,,,,,,,,,,,,,,,,,,,,,,,,,,,,,,,,,,,,,,,,,,,,,,,,,,,,,,,,,,,,,,,,,,,,,,,,,,,,,,,,,,,,,,,,,,,,,,,,,,,,
1738755562.807850,1738755562.808481,107.000000,0.000000,4320.512695,4349.358887,4252.563965,4301.153809,4350.641113,4359.230957,4360.897461,4550.256348,4542.436035,4559.102539,4493.974121,5663.077148,4307.820313,4258.846191,0.000000,3.000000,74.000000,,,,0.000000,0.000000,0.000000,0.000000,0.000000,0.000000,0.000000,0.000000,0.000000,0.000000,0.000000,0.000000,0.000000,0.000000,0.000000,0.000000,,,,,,,,,,,,,,,,,,,,,,,,,,,,,,,,,,,,,,,,,,,,,,,,,,,,,,,,,,,,,,,,,,,,,,,,,,,,,,,,,,,,,,,,,,,,,,,,,,,,,,,,,,,,,,,,,,,,,,,,,,,,,,,,,
1738755562.815658,1738755562.816389,108.000000,0.000000,4322.820313,4355.000000,4254.743652,4303.077148,4352.307617,4363.077148,4364.358887,4549.487305,4541.666504,4559.487305,4495.000000,5665.000000,4309.230957,4259.487305,0.000000,3.000000,74.000000,,,,0.000000,0.000000,0.000000,0.000000,0.000000,0.000000,0.000000,0.000000,0.000000,0.000000,0.000000,0.000000,0.000000,0.000000,0.000000,0.000000,,,,,,,,,,,,,,,,,27.000000,0.000000,0.785380,-0.615662,-0.059326,0.024902,0.062019,-0.977170,0.239287,4.537615,-15.455243,22.711357,,,,,,,,,,,,,,,,,,,,,,,,,,,,,,,,,,,,,,,,,,,,,,,,,,,,,,,,,,,,,,,,,,,,,,,,,,,,,,,,,,,,,,,,,,,,,,,,,,,,,
1738755562.823466,1738755562.824197,109.000000,0.000000,4322.948730,4350.641113,4254.743652,4303.461426,4354.743652,4362.563965,4368.717773,4551.538574,4537.051270,4561.922852,4495.512695,5669.102539,4310.769043,4254.871582,0.000000,3.000000,74.000000,,,,0.000000,0.000000,0.000000,0.000000,0.000000,0.000000,0.000000,0.000000,0.000000,0.000000,0.000000,0.000000,0.000000,0.000000,0.000000,0.000000,,,,,,,,,,,,,,,,,,,,,,,,,,,,,,,,,,,,,,,,,,,,,,,,,,,,,,,,,,,,,,,,,,,,,,,,,,,,,,,,,,,,,,,,,,,,,,,,,,,,,,,,,,,,,,,,,,,,,,,,,,,,,,,,,
1738755562.831274,1738755562.832105,110.000000,0.000000,4322.820313,4346.794922,4252.179688,4298.846191,4352.692383,4357.820313,4364.102539,4550.256348,4538.717773,4562.179688,4493.846191,5661.922852,4316.153809,4258.846191,0.000000,3.000000,74.000000,,,,0.000000,0.000000,0.000000,0.000000,0.000000,0.000000,0.000000,0.000000,0.000000,0.000000,0.000000,0.000000,0.000000,0.000000,0.000000,0.000000,,,,,,,,,,,,,,,,,,,,,,,,,,,,,,,,,,,,,,,,,,,,,,,,,,,,,,,,,,,,0.033573,0.034410,0.022107,0.011349,0.040795,0.053592,0.022477,0.024524,0.015696,0.027500,0.006872,0.009935,0.050505,0.024369,0.030747,0.007109,0.028570,0.019044,0.014894,0.019747,0.027194,0.037707,0.033250,0.027618,0.033880,0.014597,0.009215,0.033712,0.015968,0.023514,0.033706,0.019328,0.080980,0.036511,0.037150,0.038239,0.048447,0.020591,0.023871,0.031804,0.043641,0.021248,0.022146,0.030685,0.026023,0.032828,0.031644,0.014479,0.022857,0.025460,0.031624,0.020655,0.022884,0.019990,0.025940,0.025485,0.012468,0.029951,0.031737,0.025326,0.035486,0.043931,0.039018,0.026283,0.034353,0.020854,0.036240,0.027122,0.030938,0.030525
1738755562.839082,1738755562.839914,111.000000,0.000000,4323.846191,4350.256348,4253.461426,4303.974121,4351.922852,4358.846191,4364.487305,4551.025879,4540.384766,4559.743652,4493.846191,5660.256348,4309.230957,4260.256348,0.000000,3.000000,74.000000,,,,0.000000,0.000000,0.000000,0.000000,0.000000,0.000000,0.000000,0.000000,0.000000,0.000000,0.000000,0.000000,0.000000,0.000000,0.000000,0.000000,,,,,,,,,,,,,,,,,,,,,,,,,,,,,,,,,,,,,,,,,,,,,,,,,,,,,,,,,,,,,,,,,,,,,,,,,,,,,,,,,,,,,,,,,,,,,,,,,,,,,,,,,,,,,,,,,,,,,,,,,,,,,,,,,
1738755562.846890,1738755562.847622,112.000000,0.000000,4322.051270,4351.922852,4254.358887,4306.025879,4355.641113,4361.025879,4365.769043,4551.153809,4537.563965,4558.717773,4497.436035,5662.179688,4309.615234,4258.077148,0.000000,3.000000,74.000000,,,,0.000000,0.000000,0.000000,0.000000,0.000000,0.000000,0.000000,0.000000,0.000000,0.000000,0.000000,0.000000,0.000000,0.000000,0.000000,0.000000,,,,,,,,,,,,,,,,,28.000000,0.000000,0.785380,-0.615662,-0.059326,0.024902,0.060554,-0.979612,0.236357,4.483853,-15.426386,22.623554,,,,,,,,,,,,,,,,,,,,,,,,,,,,,,,,,,,,,,,,,,,,,,,,,,,,,,,,,,,,,,,,,,,,,,,,,,,,,,,,,,,,,,,,,,,,,,,,,,,,,
1738755562.854698,1738755562.855430,113.000000,0.000000,4319.871582,4351.153809,4251.922852,4300.897461,4354.871582,4358.846191,4365.897461,4552.051270,4537.436035,4560.256348,4496.538574,5661.666504,4312.563965,4256.410156,0.000000,3.000000,74.000000,,,,0.000000,0.000000,0.000000,0.000000,0.000000,0.000000,0.000000,0.000000,0.000000,0.000000,0.000000,0.000000,0.000000,0.000000,0.000000,0.000000,,,,,,,,,,,,,,,,,,,,,,,,,,,,,,,,,,,,,,,,,,,,,,,,,,,,,,,,,,,,,,,,,,,,,,,,,,,,,,,,,,,,,,,,,,,,,,,,,,,,,,,,,,,,,,,,,,,,,,,,,,,,,,,,,
1738755562.862506,1738755562.863138,114.000000,0.000000,4322.436035,4351.666504,4252.692383,4302.692383,4351.666504,4358.717773,4368.077148,4554.230957,4541.538574,4560.512695,4497.051270,5662.563965,4307.820313,4256.794922,0.000000,3.000000,74.000000,,,,0.000000,0.000000,0.000000,0.000000,0.000000,0.000000,0.000000,0.000000,0.000000,0.000000,0.000000,0.000000,0.000000,0.000000,0.000000,0.000000,,,,,,,,,,,,,,,,,,,,,,,,,,,,,,,,,,,,,,,,,,,,,,,,,,,,,,,,,,,,,,,,,,,,,,,,,,,,,,,,,,,,,,,,,,,,,,,,,,,,,,,,,,,,,,,,,,,,,,,,,,,,,,,,,
1738755562.870314,1738755562.870947,115.000000,0.000000,4325.897461,4350.897461,4257.051270,4304.102539,4351.538574,4360.897461,4364.487305,4551.282227,4544.230957,4558.974121,4501.538574,5661.922852,4313.717773,4258.461426,0.000000,3.000000,74.000000,,,,0.000000,0.000000,0.000000,0.000000,0.000000,0.000000,0.000000,0.000000,0.000000,0.000000,0.000000,0.000000,0.000000,0.000000,0.000000,0.000000,,,,,,,,,,,,,,,,,,,,,,,,,,,,,,,,,,,,,,,,,,,,,,,,,,,,,,,,,,,,,,,,,,,,,,,,,,,,,,,,,,,,,,,,,,,,,,,,,,,,,,,,,,,,,,,,,,,,,,,,,,,,,,,,,
1738755562.878122,1738755562.878655,116.000000,0.000000,4324.230957,4349.230957,4256.410156,4302.051270,4353.589844,4360.897461,4363.846191,4551.666504,4540.897461,4558.717773,4500.128418,5663.846191,4312.948730,4254.102539,0.000000,3.000000,74.000000,,,,0.000000,0.000000,0.000000,0.000000,0.000000,0.000000,0.000000,0.000000,0.000000,0.000000,0.000000,0.000000,0.000000,0.000000,0.000000,0.000000,,,,,,,,,,,,,,,,,29.000000,0.000000,0.785327,-0.615723,-0.059387,0.024902,0.059578,-0.964962,0.230009,4.518802,-15.400414,22.577866,,,,,,,,,,,,,,,,,,,,,,,,,,,,,,,,,,,,,,,,,,,,,,,,,,,,,,,,,,,,,,,,,,,,,,,,,,,,,,,,,,,,,,,,,,,,,,,,,,,,,
1738755562.885930,1738755562.886463,117.000000,0.000000,4319.358887,4351.153809,4252.820313,4300.256348,4354.102539,4360.769043,4367.051270,4551.410156,4540.512695,4561.922852,4498.846191,5663.717773,4309.230957,4253.846191,0.000000,3.000000,74.000000,,,,0.000000,0.000000,0.000000,0.000000,0.000000,0.000000,0.000000,0.000000,0.000000,0.000000,0.000000,0.000000,0.000000,0.000000,0.000000,0.000000,,,,,,,,,,,,,,,,,,,,,,,,,,,,,,,,,,,,,,,,,,,,,,,,,,,,,,,,,,,,,,,,,,,,,,,,,,,,,,,,,,,,,,,,,,,,,,,,,,,,,,,,,,,,,,,,,,,,,,,,,,,,,,,,,
1738755562.893739,1738755562.894171,118.000000,0.000000,4321.153809,4352.436035,4254.743652,4302.179688,4353.846191,4360.897461,4367.563965,4548.589844,4543.333496,4562.051270,4498.205078,5662.563965,4309.487305,4257.051270,0.000000,3.000000,74.000000,,,,0.000000,0.000000,0.000000,0.000000,0.000000,0.000000,0.000000,0.000000,0.000000,0.000000,0.000000,0.000000,0.000000,0.000000,0.000000,0.000000,,,,,,,,,,,,,,,,,,,,,,,,,,,,,,,,,,,,,,,,,,,,,,,,,,,,,,,,,,,,,,,,,,,,,,,,,,,,,,,,,,,,,,,,,,,,,,,,,,,,,,,,,,,,,,,,,,,,,,,,,,,,,,,,,
1738755562.901547,1738755562.901979,119.000000,0.000000,4325.128418,4350.769043,4256.666504,4304.743652,4351.410156,4358.717773,4366.410156,4550.256348,4541.538574,4558.333496,4496.282227,5664.358887,4310.256348,4256.666504,0.000000,3.000000,74.000000,,,,0.000000,0.000000,0.000000,0.000000,0.000000,0.000000,0.000000,0.000000,0.000000,0.000000,0.000000,0.000000,0.000000,0.000000,0.000000,0.000000,,,,,,,,,,,,,,,,,,,,,,,,,,,,,,,,,,,,,,,,,,,,,,,,,,,,,,,,,,,,,,,,,,,,,,,,,,,,,,,,,,,,,,,,,,,,,,,,,,,,,,,,,,,,,,,,,,,,,,,,,,,,,,,,,
1738755562.909355,1738755562.909687,120.000000,0.000000,4321.794922,4350.128418,4254.871582,4300.769043,4348.333496,4358.333496,4364.743652,4551.153809,4539.102539,4560.128418,4498.333496,5661.410156,4314.487305,4258.717773,0.000000,3.000000,74.000000,,,,0.000000,0.000000,0.000000,0.000000,0.000000,0.000000,0.000000,0.000000,0.000000,0.000000,0.000000,0.000000,0.000000,0.000000,0.000000,0.000000,,,,,,,,,,,,,,,,,30.000000,0.000000,0.785277,-0.615784,-0.059448,0.024841,0.069833,-0.965450,0.232450,4.566921,-15.127039,22.770079,,,,,,,,,,,,,,,,,,,,,,,,,,,,,,,,,,,,,,,,,,,,,,,,,,,,,,,,,,,,,,,,,,,,,,,,,,,,,,,,,,,,,,,,,,,,,,,,,,,,,
1738755562.917163,1738755562.917495,121.000000,0.000000,4319.871582,4350.384766,4254.487305,4301.410156,4348.846191,4360.897461,4367.436035,4551.538574,4537.307617,4560.512695,4497.820313,5662.051270,4305.000000,4256.922852,0.000000,3.000000,74.000000,,,,0.000000,0.000000,0.000000,0.000000,0.000000,0.000000,0.000000,0.000000,0.000000,0.000000,0.000000,0.000000,0.000000,0.000000,0.000000,0.000000,,,,,,,,,,,,,,,,,,,,,,,,,,,,,,,,,,,,,,,,,,,,,,,,,,,,,,,,,,,,,,,,,,,,,,,,,,,,,,,,,,,,,,,,,,,,,,,,,,,,,,,,,,,,,,,,,,,,,,,,,,,,,,,,,
1738755562.924971,1738755562.925203,122.000000,0.000000,4322.692383,4352.179688,4256.538574,4302.436035,4351.794922,4359.743652,4367.563965,4551.538574,4540.769043,4559.230957,4497.179688,5663.077148,4305.256348,4255.897461,0.000000,3.000000,74.000000,,,,0.000000,0.000000,0.000000,0.000000,0.000000,0.000000,0.000000,0.000000,0.000000,0.000000,0.000000,0.000000,0.000000,0.000000,0.000000,0.000000,,,,,,,,,,,,,,,,,,,,,,,,,,,,,,,,,,,,,,,,,,,,,,,,,,,,,,,,,,,,,,,,,,,,,,,,,,,,,,,,,,,,,,,,,,,,,,,,,,,,,,,,,,,,,,,,,,,,,,,,,,,,,,,,,
1738755562.932779,1738755562.933111,123.000000,0.000000,4322.692383,4352.051270,4257.820313,4300.256348,4355.128418,4357.179688,4366.153809,4552.692383,4543.077148,4560.641113,4498.589844,5663.589844,4314.615234,4256.794922,0.000000,3.000000,74.000000,,,,0.000000,0.000000,0.000000,0.000000,0.000000,0.000000,0.000000,0.000000,0.000000,0.000000,0.000000,0.000000,0.000000,0.000000,0.000000,0.000000,,,,,,,,,,,,,,,,,,,,,,,,,,,,,,,,,,,,,,,,,,,,,,,,,,,,,,,,,,,,,,,,,,,,,,,,,,,,,,,,,,,,,,,,,,,,,,,,,,,,,,,,,,,,,,,,,,,,,,,,,,,,,,,,,
1738755562.940587,1738755562.940920,124.000000,0.000000,4322.820313,4347.563965,4256.794922,4302.436035,4354.230957,4359.743652,4367.948730,4553.077148,4539.615234,4561.025879,4496.538574,5668.974121,4304.615234,4253.717773,0.000000,3.000000,74.000000,,,,0.000000,0.000000,0.000000,0.000000,0.000000,0.000000,0.000000,0.000000,0.000000,0.000000,0.000000,0.000000,0.000000,0.000000,0.000000,0.000000,,,,,,,,,,,,,,,,,31.000000,0.000000,0.785277,-0.615784,-0.059448,0.024841,0.068368,-0.979123,0.240264,4.410229,-15.164335,22.793072,,,,,,,,,,,,,,,,,,,,,,,,,,,,,,,,,,,,,,,,,,,,,,,,,,,,,,,,,,,,,,,,,,,,,,,,,,,,,,,,,,,,,,,,,,,,,,,,,,,,,
1738755562.948395,1738755562.948728,125.000000,0.000000,4321.794922,4347.179688,4253.846191,4300.769043,4352.436035,4363.205078,4364.615234,4548.461426,4539.615234,4561.538574,4495.512695,5664.230957,4305.897461,4257.692383,0.000000,3.000000,74.000000,,,,0.000000,0.000000,0.000000,0.000000,0.000000,0.000000,0.000000,0.000000,0.000000,0.000000,0.000000,0.000000,0.000000,0.000000,0.000000,0.000000,,,,,,,,,,,,,,,,,,,,,,,,,,,,,,,,,,,,,,,,,,,,,,,,,,,,,,,,,,,,,,,,,,,,,,,,,,,,,,,,,,,,,,,,,,,,,,,,,,,,,,,,,,,,,,,,,,,,,,,,,,,,,,,,,
1738755562.956203,1738755562.956436,126.000000,0.000000,4320.384766,4349.358887,4254.615234,4298.974121,4355.641113,4361.794922,4365.128418,4548.974121,4540.641113,4560.897461,4494.358887,5660.641113,4310.641113,4259.871582,0.000000,3.000000,74.000000,,,,0.000000,0.000000,0.000000,0.000000,0.000000,0.000000,0.000000,0.000000,0.000000,0.000000,0.000000,0.000000,0.000000,0.000000,0.000000,0.000000,,,,,,,,,,,,,,,,,,,,,,,,,,,,,,,,,,,,,,,,,,,,,,,,,,,,,,,,,,,,0.036786,0.041405,0.023121,0.009726,0.035847,0.047282,0.021230,0.025641,0.013396,0.029510,0.008615,0.011115,0.048885,0.022620,0.030093,0.007997,0.021016,0.017167,0.013639,0.020362,0.025229,0.036858,0.038750,0.029051,0.033018,0.011606,0.008397,0.031402,0.014543,0.023077,0.038863,0.021838,0.088205,0.036618,0.039687,0.030615,0.045699,0.020841,0.026029,0.034011,0.043571,0.023607,0.027329,0.030076,0.027776,0.029169,0.027504,0.014868,0.019835,0.023894,0.033120,0.016634,0.027575,0.023468,0.027493,0.027231,0.012462,0.029206,0.029995,0.025953,0.032585,0.044989,0.044692,0.030846,0.033225,0.025700,0.036691,0.026943,0.027960,0.030074
1738755562.964012,1738755562.964344,127.000000,0.000000,4322.820313,4349.615234,4255.128418,4302.307617,4358.077148,4360.128418,4366.666504,4550.128418,4539.487305,4559.358887,4494.230957,5663.589844,4305.512695,4257.051270,74.000000,3.000000,74.000000,,,,0.000000,0.000000,0.000000,0.000000,0.000000,0.000000,0.000000,0.000000,0.000000,0.000000,0.000000,0.000000,0.000000,0.000000,0.000000,0.000000,,,,,,,,,,,,,,,,,,,,,,,,,,,,,,,,,,,,,,,,,,,,,,,,,,,,,,,,,,,,,,,,,,,,,,,,,,,,,,,,,,,,,,,,,,,,,,,,,,,,,,,,,,,,,,,,,,,,,,,,,,,,,,,,,
1738755562.971820,1738755562.972152,0.000000,0.000000,4324.615234,4350.512695,4254.102539,4304.743652,4354.358887,4361.922852,4363.205078,4550.256348,4540.769043,4559.487305,4497.820313,5661.538574,4305.512695,4258.077148,0.000000,3.000000,74.000000,,,,0.000000,0.000000,0.000000,0.000000,0.000000,0.000000,0.000000,0.000000,0.000000,0.000000,0.000000,0.000000,0.000000,0.000000,0.000000,0.000000,,,,,,,,,,,,,,,,,0.000000,0.000000,0.785278,-0.615784,-0.059448,0.024780,0.062019,-0.975217,0.235869,4.302540,-15.231235,22.847097,,,,,,,,,,,,,,,,,,,,,,,,,,,,,,,,,,,,,,,,,,,,,,,,,,,,,,,,,,,,,,,,,,,,,,,,,,,,,,,,,,,,,,,,,,,,,,,,,,,,,
1738755562.979628,1738755562.980060,1.000000,0.000000,4322.820313,4352.179688,4256.282227,4305.512695,4350.384766,4361.538574,4366.025879,4552.820313,4539.871582,4561.025879,4496.538574,5663.205078,4302.692383,4256.153809,0.000000,3.000000,74.000000,,,,0.000000,0.000000,0.000000,0.000000,0.000000,0.000000,0.000000,0.000000,0.000000,0.000000,0.000000,0.000000,0.000000,0.000000,0.000000,0.000000,,,,,,,,,,,,,,,,,,,,,,,,,,,,,,,,,,,,,,,,,,,,,,,,,,,,,,,,,,,,,,,,,,,,,,,,,,,,,,,,,,,,,,,,,,,,,,,,,,,,,,,,,,,,,,,,,,,,,,,,,,,,,,,,,
1738755562.987436,1738755562.987869,2.000000,0.000000,4320.512695,4353.077148,4256.025879,4303.461426,4351.025879,4359.102539,4368.077148,4548.717773,4539.615234,4562.179688,4494.487305,5663.717773,4306.538574,4256.794922,0.000000,3.000000,74.000000,,,,0.000000,0.000000,0.000000,0.000000,0.000000,0.000000,0.000000,0.000000,0.000000,0.000000,0.000000,0.000000,0.000000,0.000000,0.000000,0.000000,,,,,,,,,,,,,,,,,,,,,,,,,,,,,,,,,,,,,,,,,,,,,,,,,,,,,,,,,,,,,,,,,,,,,,,,,,,,,,,,,,,,,,,,,,,,,,,,,,,,,,,,,,,,,,,,,,,,,,,,,,,,,,,,,
1738755562.995244,1738755562.995777,3.000000,0.000000,4323.077148,4350.897461,4254.743652,4301.922852,4351.282227,4361.538574,4366.410156,4548.205078,4540.641113,4560.897461,4496.794922,5663.205078,4310.128418,4254.615234,0.000000,3.000000,74.000000,,,,0.000000,0.000000,0.000000,0.000000,0.000000,0.000000,0.000000,0.000000,0.000000,0.000000,0.000000,0.000000,0.000000,0.000000,0.000000,0.000000,,,,,,,,,,,,,,,,,,,,,,,,,,,,,,,,,,,,,,,,,,,,,,,,,,,,,,,,,,,,,,,,,,,,,,,,,,,,,,,,,,,,,,,,,,,,,,,,,,,,,,,,,,,,,,,,,,,,,,,,,,,,,,,,,
1738755563.003052,1738755563.003585,4.000000,0.000000,4323.846191,4349.871582,4255.769043,4301.282227,4350.897461,4362.820313,4366.666504,4553.205078,4540.000000,4559.487305,4495.512695,5664.743652,4307.051270,4249.230957,0.000000,3.000000,74.000000,,,,0.000000,0.000000,0.000000,0.000000,0.000000,0.000000,0.000000,0.000000,0.000000,0.000000,0.000000,0.000000,0.000000,0.000000,0.000000,0.000000,,,,,,,,,,,,,,,,,1.000000,0.000000,0.785231,-0.615845,-0.059448,0.024780,0.069833,-0.976193,0.243682,4.355619,-15.441444,22.695721,,,,,,,,,,,,,,,,,,,,,,,,,,,,,,,,,,,,,,,,,,,,,,,,,,,,,,,,,,,,,,,,,,,,,,,,,,,,,,,,,,,,,,,,,,,,,,,,,,,,,
1738755563.010860,1738755563.011493,5.000000,0.000000,4320.769043,4350.384766,4256.282227,4301.410156,4351.794922,4361.922852,4366.794922,4551.538574,4540.641113,4560.897461,4493.333496,5661.922852,4310.641113,4251.282227,0.000000,3.000000,74.000000,,,,0.000000,0.000000,0.000000,0.000000,0.000000,0.000000,0.000000,0.000000,0.000000,0.000000,0.000000,0.000000,0.000000,0.000000,0.000000,0.000000,,,,,,,,,,,,,,,,,,,,,,,,,,,,,,,,,,,,,,,,,,,,,,,,,,,,,,,,,,,,,,,,,,,,,,,,,,,,,,,,,,,,,,,,,,,,,,,,,,,,,,,,,,,,,,,,,,,,,,,,,,,,,,,,,
1738755563.018668,1738755563.019301,6.000000,0.000000,4321.538574,4349.743652,4256.410156,4303.205078,4352.307617,4362.948730,4367.179688,4550.512695,4536.538574,4562.307617,4493.846191,5664.871582,4309.871582,4253.717773,0.000000,3.000000,74.000000,,,,0.000000,0.000000,0.000000,0.000000,0.000000,0.000000,0.000000,0.000000,0.000000,0.000000,0.000000,0.000000,0.000000,0.000000,0.000000,0.000000,,,,,,,,,,,,,,,,,,,,,,,,,,,,,,,,,,,,,,,,,,,,,,,,,,,,,,,,,,,,,,,,,,,,,,,,,,,,,,,,,,,,,,,,,,,,,,,,,,,,,,,,,,,,,,,,,,,,,,,,,,,,,,,,,
1738755563.026476,1738755563.027209,7.000000,0.000000,4321.666504,4353.077148,4256.153809,4301.794922,4351.538574,4360.512695,4362.563965,4551.025879,4534.743652,4562.179688,4495.769043,5664.871582,4310.000000,4257.692383,0.000000,3.000000,74.000000,,,,0.000000,0.000000,0.000000,0.000000,0.000000,0.000000,0.000000,0.000000,0.000000,0.000000,0.000000,0.000000,0.000000,0.000000,0.000000,0.000000,,,,,,,,,,,,,,,,,,,,,,,,,,,,,,,,,,,,,,,,,,,,,,,,,,,,,,,,,,,,,,,,,,,,,,,,,,,,,,,,,,,,,,,,,,,,,,,,,,,,,,,,,,,,,,,,,,,,,,,,,,,,,,,,,
1738755563.034284,1738755563.035018,8.000000,0.000000,4323.077148,4356.025879,4255.000000,4302.307617,4352.179688,4357.051270,4362.692383,4550.384766,4539.358887,4561.025879,4493.717773,5662.948730,4307.436035,4257.563965,0.000000,3.000000,74.000000,,,,0.000000,0.000000,0.000000,0.000000,0.000000,0.000000,0.000000,0.000000,0.000000,0.000000,0.000000,0.000000,0.000000,0.000000,0.000000,0.000000,,,,,,,,,,,,,,,,,2.000000,0.000000,0.785278,-0.615784,-0.059448,0.024780,0.056648,-0.978147,0.233427,4.420057,-15.647301,22.626148,,,,,,,,,,,,,,,,,,,,,,,,,,,,,,,,,,,,,,,,,,,,,,,,,,,,,,,,,,,,,,,,,,,,,,,,,,,,,,,,,,,,,,,,,,,,,,,,,,,,,
1738755563.042092,1738755563.042926,9.000000,0.000000,4325.897461,4350.897461,4253.717773,4305.512695,4352.307617,4360.641113,4369.615234,4550.769043,4540.384766,4561.282227,4490.384766,5665.897461,4303.974121,4255.000000,0.000000,3.000000,74.000000,,,,0.000000,0.000000,0.000000,0.000000,0.000000,0.000000,0.000000,0.000000,0.000000,0.000000,0.000000,0.000000,0.000000,0.000000,0.000000,0.000000,,,,,,,,,,,,,,,,,,,,,,,,,,,,,,,,,,,,,,,,,,,,,,,,,,,,,,,,,,,,,,,,,,,,,,,,,,,,,,,,,,,,,,,,,,,,,,,,,,,,,,,,,,,,,,,,,,,,,,,,,,,,,,,,,
1738755563.049901,1738755563.050734,10.000000,0.000000,4323.077148,4347.820313,4254.871582,4304.743652,4353.205078,4362.692383,4366.282227,4549.230957,4539.743652,4562.436035,4495.512695,5661.794922,4309.743652,4257.563965,0.000000,3.000000,74.000000,,,,0.000000,0.000000,0.000000,0.000000,0.000000,0.000000,0.000000,0.000000,0.000000,0.000000,0.000000,0.000000,0.000000,0.000000,0.000000,0.000000,,,,,,,,,,,,,,,,,,,,,,,,,,,,,,,,,,,,,,,,,,,,,,,,,,,,,,,,,,,,,,,,,,,,,,,,,,,,,,,,,,,,,,,,,,,,,,,,,,,,,,,,,,,,,,,,,,,,,,,,,,,,,,,,,
1738755563.057709,1738755563.058642,11.000000,0.000000,4322.436035,4350.000000,4254.871582,4305.512695,4356.410156,4358.589844,4363.077148,4549.487305,4539.487305,4560.128418,4496.666504,5660.000000,4306.538574,4256.410156,0.000000,3.000000,74.000000,,,,0.000000,0.000000,0.000000,0.000000,0.000000,0.000000,0.000000,0.000000,0.000000,0.000000,0.000000,0.000000,0.000000,0.000000,0.000000,0.000000,,,,,,,,,,,,,,,,,,,,,,,,,,,,,,,,,,,,,,,,,,,,,,,,,,,,,,,,,,,,,,,,,,,,,,,,,,,,,,,,,,,,,,,,,,,,,,,,,,,,,,,,,,,,,,,,,,,,,,,,,,,,,,,,,
1738755563.065517,1738755563.066450,12.000000,0.000000,4324.230957,4352.307617,4251.282227,4303.974121,4354.102539,4357.820313,4366.025879,4551.282227,4540.641113,4559.358887,4492.436035,5662.436035,4308.205078,4255.256348,0.000000,3.000000,74.000000,,,,0.000000,0.000000,0.000000,0.000000,0.000000,0.000000,0.000000,0.000000,0.000000,0.000000,0.000000,0.000000,0.000000,0.000000,0.000000,0.000000,,,,,,,,,,,,,,,,,3.000000,0.000000,0.785238,-0.615845,-0.059326,0.024841,0.067391,-0.968868,0.235869,4.494718,-15.499237,22.713533,,,,,,,,,,,,,,,,,,,,,,,,,,,,,,,,,,,,,,,,,,,,,,,,,,,,,,,,,,,,,,,,,,,,,,,,,,,,,,,,,,,,,,,,,,,,,,,,,,,,,
1738755563.073325,1738755563.074158,13.000000,0.000000,4323.846191,4350.512695,4253.205078,4300.128418,4351.153809,4360.384766,4367.948730,4550.897461,4541.153809,4561.410156,4492.948730,5661.538574,4311.410156,4255.384766,0.000000,3.000000,74.000000,,,,0.000000,0.000000,0.000000,0.000000,0.000000,0.000000,0.000000,0.000000,0.000000,0.000000,0.000000,0.000000,0.000000,0.000000,0.000000,0.000000,,,,,,,,,,,,,,,,,,,,,,,,,,,,,,,,,,,,,,,,,,,,,,,,,,,,,,,,,,,,,,,,,,,,,,,,,,,,,,,,,,,,,,,,,,,,,,,,,,,,,,,,,,,,,,,,,,,,,,,,,,,,,,,,,
1738755563.081133,1738755563.081967,14.000000,0.000000,4322.692383,4347.820313,4258.589844,4302.692383,4353.846191,4360.000000,4367.051270,4550.512695,4540.769043,4560.384766,4496.025879,5662.563965,4305.256348,4252.563965,0.000000,3.000000,74.000000,,,,0.000000,0.000000,0.000000,0.000000,0.000000,0.000000,0.000000,0.000000,0.000000,0.000000,0.000000,0.000000,0.000000,0.000000,0.000000,0.000000,,,,,,,,,,,,,,,,,,,,,,,,,,,,,,,,,,,,,,,,,,,,,,,,,,,,,,,,,,,,0.038046,0.048172,0.024410,0.009346,0.031063,0.042752,0.020552,0.026168,0.011966,0.031107,0.010576,0.012462,0.045861,0.020620,0.030284,0.009209,0.015762,0.016122,0.013324,0.021665,0.025592,0.040306,0.044057,0.031519,0.032680,0.009662,0.008888,0.029420,0.013223,0.022983,0.045906,0.026124,0.087400,0.034690,0.041707,0.025147,0.039475,0.020903,0.027494,0.035914,0.041091,0.026176,0.033836,0.030263,0.030481,0.027437,0.024625,0.014141,0.017344,0.023171,0.033595,0.012169,0.031022,0.025753,0.027822,0.028712,0.013487,0.027138,0.028003,0.026192,0.031081,0.045421,0.049730,0.035963,0.033487,0.030100,0.038078,0.026513,0.025125,0.029728
1738755563.088941,1738755563.089675,15.000000,0.000000,4320.384766,4350.512695,4257.948730,4302.563965,4354.358887,4357.692383,4362.948730,4548.333496,4543.077148,4560.897461,4497.692383,5662.563965,4310.256348,4256.410156,0.000000,3.000000,74.000000,,,,0.000000,0.000000,0.000000,0.000000,0.000000,0.000000,0.000000,0.000000,0.000000,0.000000,0.000000,0.000000,0.000000,0.000000,0.000000,0.000000,,,,,,,,,,,,,,,,,,,,,,,,,,,,,,,,,,,,,,,,,,,,,,,,,,,,,,,,,,,,,,,,,,,,,,,,,,,,,,,,,,,,,,,,,,,,,,,,,,,,,,,,,,,,,,,,,,,,,,,,,,,,,,,,,
1738755563.096749,1738755563.097583,16.000000,0.000000,4321.538574,4352.051270,4256.538574,4301.794922,4351.410156,4358.461426,4363.077148,4550.128418,4541.410156,4561.153809,4494.358887,5663.846191,4308.974121,4258.974121,0.000000,3.000000,74.000000,,,,0.000000,0.000000,0.000000,0.000000,0.000000,0.000000,0.000000,0.000000,0.000000,0.000000,0.000000,0.000000,0.000000,0.000000,0.000000,0.000000,,,,,,,,,,,,,,,,,4.000000,0.000000,0.785238,-0.615845,-0.059326,0.024841,0.063484,-0.978147,0.221707,4.545246,-15.299314,22.775515,,,,,,,,,,,,,,,,,,,,,,,,,,,,,,,,,,,,,,,,,,,,,,,,,,,,,,,,,,,,,,,,,,,,,,,,,,,,,,,,,,,,,,,,,,,,,,,,,,,,,
1738755563.104557,1738755563.105391,17.000000,0.000000,4324.102539,4350.512695,4256.410156,4302.692383,4350.384766,4360.384766,4365.128418,4552.948730,4537.692383,4560.384766,4492.948730,5661.666504,4306.282227,4255.512695,0.000000,3.000000,74.000000,,,,0.000000,0.000000,0.000000,0.000000,0.000000,0.000000,0.000000,0.000000,0.000000,0.000000,0.000000,0.000000,0.000000,0.000000,0.000000,0.000000,,,,,,,,,,,,,,,,,,,,,,,,,,,,,,,,,,,,,,,,,,,,,,,,,,,,,,,,,,,,,,,,,,,,,,,,,,,,,,,,,,,,,,,,,,,,,,,,,,,,,,,,,,,,,,,,,,,,,,,,,,,,,,,,,
1738755563.112365,1738755563.113299,18.000000,0.000000,4322.051270,4349.230957,4252.948730,4301.153809,4350.897461,4361.153809,4366.666504,4549.230957,4539.487305,4560.384766,4495.897461,5659.871582,4310.128418,4255.128418,0.000000,3.000000,74.000000,,,,0.000000,0.000000,0.000000,0.000000,0.000000,0.000000,0.000000,0.000000,0.000000,0.000000,0.000000,0.000000,0.000000,0.000000,0.000000,0.000000,,,,,,,,,,,,,,,,,,,,,,,,,,,,,,,,,,,,,,,,,,,,,,,,,,,,,,,,,,,,,,,,,,,,,,,,,,,,,,,,,,,,,,,,,,,,,,,,,,,,,,,,,,,,,,,,,,,,,,,,,,,,,,,,,
1738755563.120174,1738755563.121107,19.000000,0.000000,4320.128418,4349.487305,4253.589844,4302.563965,4352.563965,4361.666504,4367.051270,4548.461426,4540.384766,4560.641113,4497.051270,5665.769043,4304.743652,4255.769043,0.000000,3.000000,74.000000,,,,0.000000,0.000000,0.000000,0.000000,0.000000,0.000000,0.000000,0.000000,0.000000,0.000000,0.000000,0.000000,0.000000,0.000000,0.000000,0.000000,,,,,,,,,,,,,,,,,,,,,,,,,,,,,,,,,,,,,,,,,,,,,,,,,,,,,,,,,,,,,,,,,,,,,,,,,,,,,,,,,,,,,,,,,,,,,,,,,,,,,,,,,,,,,,,,,,,,,,,,,,,,,,,,,
1738755563.127982,1738755563.128916,20.000000,0.000000,4322.051270,4352.307617,4256.153809,4302.436035,4354.743652,4358.589844,4363.461426,4548.717773,4540.384766,4561.282227,4496.922852,5664.743652,4309.102539,4259.102539,0.000000,3.000000,74.000000,,,,0.000000,0.000000,0.000000,0.000000,0.000000,0.000000,0.000000,0.000000,0.000000,0.000000,0.000000,0.000000,0.000000,0.000000,0.000000,0.000000,,,,,,,,,,,,,,,,,,,,,,,,,,,,,,,,,,,,,,,,,,,,,,,,,,,,,,,,,,,,,,,,,,,,,,,,,,,,,,,,,,,,,,,,,,,,,,,,,,,,,,,,,,,,,,,,,,,,,,,,,,,,,,,,,
1738755563.135790,1738755563.136624,21.000000,0.000000,4322.436035,4350.769043,4252.563965,4303.461426,4355.641113,4357.692383,4365.128418,4550.384766,4541.666504,4561.153809,4495.769043,5662.563965,4310.000000,4256.922852,0.000000,3.000000,74.000000,,,,0.000000,0.000000,0.000000,0.000000,0.000000,0.000000,0.000000,0.000000,0.000000,0.000000,0.000000,0.000000,0.000000,0.000000,0.000000,0.000000,,,,,,,,,,,,,,,,,,,,,,,,,,,,,,,,,,,,,,,,,,,,,,,,,,,,,,,,,,,,,,,,,,,,,,,,,,,,,,,,,,,,,,,,,,,,,,,,,,,,,,,,,,,,,,,,,,,,,,,,,,,,,,,,,
1738755563.143598,1738755563.144432,22.000000,0.000000,4319.487305,4348.717773,4249.615234,4302.563965,4355.256348,4360.512695,4366.922852,4552.692383,4541.538574,4561.922852,4495.769043,5664.871582,4304.743652,4253.461426,0.000000,3.000000,74.000000,,,,0.000000,0.000000,0.000000,0.000000,0.000000,0.000000,0.000000,0.000000,0.000000,0.000000,0.000000,0.000000,0.000000,0.000000,0.000000,0.000000,,,,,,,,,,,,,,,,,,,,,,,,,,,,,,,,,,,,,,,,,,,,,,,,,,,,,,,,,,,,,,,,,,,,,,,,,,,,,,,,,,,,,,,,,,,,,,,,,,,,,,,,,,,,,,,,,,,,,,,,,,,,,,,,,
