title:bread1, start timestamp:1738754479.996107, stop timestamp:1738754481.042392, headset type:EPOCX, headset serial:E50208A5, headset firmware:720, channels:168, sampling rate:eeg_128;mot_32;pm_0.1;pow_8, samples:135       , version:2.2, 
Timestamp,OriginalTimestamp,EEG.Counter,EEG.Interpolated,EEG.AF3,EEG.F7,EEG.F3,EEG.FC5,EEG.T7,EEG.P7,EEG.O1,EEG.O2,EEG.P8,EEG.T8,EEG.FC6,EEG.F4,EEG.F8,EEG.AF4,EEG.RawCq,EEG.Battery,EEG.BatteryPercent,MarkerIndex,MarkerType,MarkerValueInt,EEG.MarkerHardware,CQ.AF3,CQ.F7,CQ.F3,CQ.FC5,CQ.T7,CQ.P7,CQ.O1,CQ.O2,CQ.P8,CQ.T8,CQ.FC6,CQ.F4,CQ.F8,CQ.AF4,CQ.Overall,EQ.SampleRateQuality,EQ.OVERALL,EQ.AF3,EQ.F7,EQ.F3,EQ.FC5,EQ.T7,EQ.P7,EQ.O1,EQ.O2,EQ.P8,EQ.T8,EQ.FC6,EQ.F4,EQ.F8,EQ.AF4,MOT.CounterMems,MOT.InterpolatedMems,MOT.Q0,MOT.Q1,MOT.Q2,MOT.Q3,MOT.AccX,MOT.AccY,MOT.AccZ,MOT.MagX,MOT.MagY,MOT.MagZ,PM.Attention.IsActive,PM.Attention.Scaled,PM.Attention.Raw,PM.Attention.Min,PM.Attention.Max,PM.Engagement.IsActive,PM.Engagement.Scaled,PM.Engagement.Raw,PM.Engagement.Min,PM.Engagement.Max,PM.Excitement.IsActive,PM.Excitement.Scaled,PM.Excitement.Raw,PM.Excitement.Min,PM.Excitement.Max,PM.LongTermExcitement,PM.Stress.IsActive,PM.Stress.Scaled,PM.Stress.Raw,PM.Stress.Min,PM.Stress.Max,PM.Relaxation.IsActive,PM.Relaxation.Scaled,PM.Relaxation.Raw,PM.Relaxation.Min,PM.Relaxation.Max,PM.Interest.IsActive,PM.Interest.Scaled,PM.Interest.Raw,PM.Interest.Min,PM.Interest.Max,POW.AF3.Theta,POW.AF3.Alpha,POW.AF3.BetaL,POW.AF3.BetaH,POW.AF3.Gamma,POW.F7.Theta,POW.F7.Alpha,POW.F7.BetaL,POW.F7.BetaH,POW.F7.Gamma,POW.F3.Theta,POW.F3.Alpha,POW.F3.BetaL,POW.F3.BetaH,POW.F3.Gamma,POW.FC5.Theta,POW.FC5.Alpha,POW.FC5.BetaL,POW.FC5.BetaH,POW.FC5.Gamma,POW.T7.Theta,POW.T7.Alpha,POW.T7.BetaL,POW.T7.BetaH,POW.T7.Gamma,POW.P7.Theta,POW.P7.Alpha,POW.P7.BetaL,POW.P7.BetaH,POW.P7.Gamma,POW.O1.Theta,POW.O1.Alpha,POW.O1.BetaL,POW.O1.BetaH,POW.O1.Gamma,POW.O2.Theta,POW.O2.Alpha,POW.O2.BetaL,POW.O2.BetaH,POW.O2.Gamma,POW.P8.Theta,POW.P8.Alpha,POW.P8.BetaL,POW.P8.BetaH,POW.P8.Gamma,POW.T8.Theta,POW.T8.Alpha,POW.T8.BetaL,POW.T8.BetaH,POW.T8.Gamma,POW.FC6.Theta,POW.FC6.Alpha,POW.FC6.BetaL,POW.FC6.BetaH,POW.FC6.Gamma,POW.F4.Theta,POW.F4.Alpha,POW.F4.BetaL,POW.F4.BetaH,POW.F4.Gamma,POW.F8.Theta,POW.F8.Alpha,POW.F8.BetaL,POW.F8.BetaH,POW.F8.Gamma,POW.AF4.Theta,POW.AF4.Alpha,POW.AF4.BetaL,POW.AF4.BetaH,POW.AF4.Gamma
1738754479.996107,1738754479.996267,53.000000,0.000000,4321.025879,4347.436035,4252.051270,4301.538574,4352.820313,4361.538574,4368.077148,4546.025879,4536.538574,4557.051270,4497.436035,5668.205078,4308.461426,4255.000000,0.000000,4.000000,78.000000,,,,0.000000,0.000000,0.000000,0.000000,0.000000,0.000000,0.000000,0.000000,0.000000,0.000000,0.000000,0.000000,0.000000,0.000000,0.000000,0.000000,,,,,,,,,,,,,,,,,,,,,,,,,,,,,,,,,,,,,,,,,,,,,,,,,,,,,,,,,,,,,,,,,,,,,,,,,,,,,,,,,,,,,,,,,,,,,,,,,,,,,,,,,,,,,,,,,,,,,,,,,,,,,,,,,
1738754480.003915,1738754480.004175,54.000000,0.000000,4320.512695,4350.384766,4251.538574,4301.025879,4351.922852,4358.461426,4365.897461,4549.358887,4541.666504,4557.820313,4498.974121,5664.743652,4312.692383,4259.743652,0.000000,4.000000,78.000000,,,,0.000000,0.000000,0.000000,0.000000,0.000000,0.000000,0.000000,0.000000,0.000000,0.000000,0.000000,0.000000,0.000000,0.000000,0.000000,0.000000,,,,,,,,,,,,,,,,,,,,,,,,,,,,,,,,,,,,,,,,,,,,,,,,,,,,,,,,,,,,,,,,,,,,,,,,,,,,,,,,,,,,,,,,,,,,,,,,,,,,,,,,,,,,,,,,,,,,,,,,,,,,,,,,,
1738754480.011723,1738754480.011984,55.000000,0.000000,4322.820313,4351.025879,4252.692383,4301.025879,4349.230957,4355.641113,4363.846191,4550.641113,4539.487305,4559.230957,4497.820313,5665.512695,4308.717773,4259.615234,0.000000,4.000000,78.000000,,,,0.000000,0.000000,0.000000,0.000000,0.000000,0.000000,0.000000,0.000000,0.000000,0.000000,0.000000,0.000000,0.000000,0.000000,0.000000,0.000000,,,,,,,,,,,,,,,,,,,,,,,,,,,,,,,,,,,,,,,,,,,,,,,,,,,,,,,,,,,,,,,,,,,,,,,,,,,,,,,,,,,,,,,,,,,,,,,,,,,,,,,,,,,,,,,,,,,,,,,,,,,,,,,,,
1738754480.019531,1738754480.019792,56.000000,0.000000,4323.717773,4348.589844,4253.077148,4298.589844,4349.743652,4359.358887,4364.487305,4548.589844,4539.743652,4559.102539,4495.769043,5666.025879,4310.512695,4256.538574,0.000000,4.000000,78.000000,,,,0.000000,0.000000,0.000000,0.000000,0.000000,0.000000,0.000000,0.000000,0.000000,0.000000,0.000000,0.000000,0.000000,0.000000,0.000000,0.000000,,,,,,,,,,,,,,,,,14.000000,0.000000,0.785187,-0.616089,-0.058044,0.023376,0.056159,-0.969845,0.233915,4.490129,-15.074600,22.516520,,,,,,,,,,,,,,,,,,,,,,,,,,,,,,,,,,,,,,,,,,,,,,,,,,,,,,,,,,,,,,,,,,,,,,,,,,,,,,,,,,,,,,,,,,,,,,,,,,,,,
1738754480.027339,1738754480.027700,57.000000,0.000000,4321.794922,4347.820313,4251.666504,4299.358887,4350.641113,4362.051270,4364.230957,4548.077148,4541.025879,4559.102539,4495.512695,5663.077148,4310.897461,4256.282227,0.000000,4.000000,78.000000,,,,0.000000,0.000000,0.000000,0.000000,0.000000,0.000000,0.000000,0.000000,0.000000,0.000000,0.000000,0.000000,0.000000,0.000000,0.000000,0.000000,,,,,,,,,,,,,,,,,,,,,,,,,,,,,,,,,,,,,,,,,,,,,,,,,,,,,,,,,,,,,,,,,,,,,,,,,,,,,,,,,,,,,,,,,,,,,,,,,,,,,,,,,,,,,,,,,,,,,,,,,,,,,,,,,
1738754480.035147,1738754480.035508,58.000000,0.000000,4322.179688,4347.051270,4251.410156,4304.487305,4349.102539,4360.000000,4362.820313,4551.666504,4537.307617,4559.487305,4497.179688,5666.666504,4302.179688,4255.897461,0.000000,4.000000,78.000000,,,,0.000000,0.000000,0.000000,0.000000,0.000000,0.000000,0.000000,0.000000,0.000000,0.000000,0.000000,0.000000,0.000000,0.000000,0.000000,0.000000,,,,,,,,,,,,,,,,,,,,,,,,,,,,,,,,,,,,,,,,,,,,,,,,,,,,,,,,,,,,,,,,,,,,,,,,,,,,,,,,,,,,,,,,,,,,,,,,,,,,,,,,,,,,,,,,,,,,,,,,,,,,,,,,,
1738754480.042955,1738754480.043216,59.000000,0.000000,4321.282227,4350.641113,4254.102539,4302.948730,4350.128418,4359.358887,4360.256348,4550.128418,4538.846191,4561.794922,4498.589844,5664.102539,4310.000000,4260.256348,0.000000,4.000000,78.000000,,,,0.000000,0.000000,0.000000,0.000000,0.000000,0.000000,0.000000,0.000000,0.000000,0.000000,0.000000,0.000000,0.000000,0.000000,0.000000,0.000000,,,,,,,,,,,,,,,,,,,,,,,,,,,,,,,,,,,,,,,,,,,,,,,,,,,,,,,,,,,,,,,,,,,,,,,,,,,,,,,,,,,,,,,,,,,,,,,,,,,,,,,,,,,,,,,,,,,,,,,,,,,,,,,,,
1738754480.050763,1738754480.051024,60.000000,0.000000,4321.410156,4350.512695,4255.512695,4302.307617,4350.769043,4360.641113,4364.230957,4548.717773,4538.717773,4560.897461,4496.025879,5662.307617,4311.538574,4258.077148,0.000000,4.000000,78.000000,,,,0.000000,0.000000,0.000000,0.000000,0.000000,0.000000,0.000000,0.000000,0.000000,0.000000,0.000000,0.000000,0.000000,0.000000,0.000000,0.000000,,,,,,,,,,,,,,,,,15.000000,0.000000,0.785191,-0.616089,-0.058044,0.023254,0.067879,-0.984495,0.233915,4.491117,-15.017140,22.464867,,,,,,,,,,,,,,,,,,,,,,,,,,,,,,,,,,,,,,,,,,,,,,,,,,,,,,,,,,,,,,,,,,,,,,,,,,,,,,,,,,,,,,,,,,,,,,,,,,,,,
1738754480.058571,1738754480.058832,61.000000,0.000000,4323.974121,4346.794922,4252.307617,4301.666504,4349.487305,4360.128418,4366.666504,4548.974121,4536.282227,4556.410156,4495.512695,5664.358887,4310.769043,4256.922852,0.000000,4.000000,78.000000,,,,0.000000,0.000000,0.000000,0.000000,0.000000,0.000000,0.000000,0.000000,0.000000,0.000000,0.000000,0.000000,0.000000,0.000000,0.000000,0.000000,,,,,,,,,,,,,,,,,,,,,,,,,,,,,,,,,,,,,,,,,,,,,,,,,,,,,,,,,,,,,,,,,,,,,,,,,,,,,,,,,,,,,,,,,,,,,,,,,,,,,,,,,,,,,,,,,,,,,,,,,,,,,,,,,
1738754480.066379,1738754480.066640,62.000000,0.000000,4321.410156,4348.205078,4250.641113,4299.358887,4350.769043,4361.153809,4363.205078,4547.692383,4539.615234,4556.410156,4497.179688,5662.948730,4316.922852,4259.871582,0.000000,4.000000,78.000000,,,,0.000000,0.000000,0.000000,0.000000,0.000000,0.000000,0.000000,0.000000,0.000000,0.000000,0.000000,0.000000,0.000000,0.000000,0.000000,0.000000,,,,,,,,,,,,,,,,,,,,,,,,,,,,,,,,,,,,,,,,,,,,,,,,,,,,,,,,,,,,0.020800,0.015951,0.012851,0.012164,0.023943,0.025882,0.025833,0.023380,0.015089,0.024752,0.040876,0.031254,0.026641,0.022306,0.034049,0.026591,0.009494,0.018261,0.018494,0.030979,0.017561,0.016473,0.044644,0.015055,0.020300,0.010722,0.009426,0.007585,0.011651,0.023229,0.047711,0.043586,0.036486,0.029316,0.035773,0.010020,0.023374,0.032726,0.033410,0.031622,0.042753,0.021399,0.012634,0.017249,0.022787,0.009464,0.015374,0.033193,0.024498,0.031348,0.029520,0.030809,0.049912,0.031489,0.028525,0.014658,0.041085,0.049715,0.031581,0.026823,0.023728,0.040857,0.014820,0.049639,0.032700,0.036873,0.050500,0.027920,0.023581,0.034243
1738754480.074188,1738754480.074348,63.000000,0.000000,4317.436035,4350.512695,4253.333496,4303.589844,4351.282227,4360.000000,4364.487305,4549.358887,4540.000000,4557.692383,4496.794922,5663.846191,4311.025879,4256.410156,0.000000,4.000000,78.000000,,,,0.000000,0.000000,0.000000,0.000000,0.000000,0.000000,0.000000,0.000000,0.000000,0.000000,0.000000,0.000000,0.000000,0.000000,0.000000,0.000000,,,,,,,,,,,,,,,,,,,,,,,,,,,,,,,,,,,,,,,,,,,,,,,,,,,,,,,,,,,,,,,,,,,,,,,,,,,,,,,,,,,,,,,,,,,,,,,,,,,,,,,,,,,,,,,,,,,,,,,,,,,,,,,,,
1738754480.081996,1738754480.082156,64.000000,0.000000,4318.974121,4352.179688,4254.102539,4302.563965,4349.743652,4356.410156,4366.153809,4548.461426,4537.948730,4558.461426,4499.871582,5662.563965,4312.563965,4258.589844,0.000000,4.000000,78.000000,,,,0.000000,0.000000,0.000000,0.000000,0.000000,0.000000,0.000000,0.000000,0.000000,0.000000,0.000000,0.000000,0.000000,0.000000,0.000000,0.000000,,,,,,,,,,,,,,,,,16.000000,0.000000,0.785145,-0.616150,-0.058044,0.023193,0.047369,-0.981077,0.225125,4.442005,-15.032093,22.518381,,,,,,,,,,,,,,,,,,,,,,,,,,,,,,,,,,,,,,,,,,,,,,,,,,,,,,,,,,,,,,,,,,,,,,,,,,,,,,,,,,,,,,,,,,,,,,,,,,,,,
1738754480.089804,1738754480.089864,65.000000,0.000000,4322.307617,4350.128418,4252.436035,4300.128418,4349.871582,4361.025879,4365.256348,4550.128418,4536.794922,4557.948730,4499.871582,5664.743652,4313.461426,4258.717773,0.000000,4.000000,78.000000,,,,0.000000,0.000000,0.000000,0.000000,0.000000,0.000000,0.000000,0.000000,0.000000,0.000000,0.000000,0.000000,0.000000,0.000000,0.000000,0.000000,,,,,,,,,,,,,,,,,,,,,,,,,,,,,,,,,,,,,,,,,,,,,,,,,,,,,,,,,,,,,,,,,,,,,,,,,,,,,,,,,,,,,,,,,,,,,,,,,,,,,,,,,,,,,,,,,,,,,,,,,,,,,,,,,
1738754480.097612,1738754480.097672,66.000000,0.000000,4318.974121,4347.179688,4252.563965,4302.179688,4350.512695,4365.256348,4363.461426,4551.666504,4537.179688,4556.025879,4496.410156,5667.436035,4311.282227,4255.641113,0.000000,4.000000,78.000000,,,,0.000000,0.000000,0.000000,0.000000,0.000000,0.000000,0.000000,0.000000,0.000000,0.000000,0.000000,0.000000,0.000000,0.000000,0.000000,0.000000,,,,,,,,,,,,,,,,,,,,,,,,,,,,,,,,,,,,,,,,,,,,,,,,,,,,,,,,,,,,,,,,,,,,,,,,,,,,,,,,,,,,,,,,,,,,,,,,,,,,,,,,,,,,,,,,,,,,,,,,,,,,,,,,,
1738754480.105420,1738754480.105380,67.000000,0.000000,4315.769043,4349.358887,4254.743652,4302.820313,4350.384766,4359.743652,4363.846191,4546.538574,4539.230957,4556.922852,4495.512695,5663.077148,4314.102539,4258.846191,0.000000,4.000000,78.000000,,,,0.000000,0.000000,0.000000,0.000000,0.000000,0.000000,0.000000,0.000000,0.000000,0.000000,0.000000,0.000000,0.000000,0.000000,0.000000,0.000000,,,,,,,,,,,,,,,,,,,,,,,,,,,,,,,,,,,,,,,,,,,,,,,,,,,,,,,,,,,,,,,,,,,,,,,,,,,,,,,,,,,,,,,,,,,,,,,,,,,,,,,,,,,,,,,,,,,,,,,,,,,,,,,,,
1738754480.113228,1738754480.113188,68.000000,0.000000,4320.512695,4348.974121,4256.025879,4305.256348,4350.256348,4355.641113,4368.205078,4546.666504,4537.179688,4557.307617,4494.871582,5663.974121,4306.153809,4257.948730,0.000000,4.000000,78.000000,,,,0.000000,0.000000,0.000000,0.000000,0.000000,0.000000,0.000000,0.000000,0.000000,0.000000,0.000000,0.000000,0.000000,0.000000,0.000000,0.000000,,,,,,,,,,,,,,,,,17.000000,0.000000,0.785100,-0.616211,-0.057983,0.023254,0.057136,-0.978147,0.231962,4.447804,-15.112217,22.516542,,,,,,,,,,,,,,,,,,,,,,,,,,,,,,,,,,,,,,,,,,,,,,,,,,,,,,,,,,,,,,,,,,,,,,,,,,,,,,,,,,,,,,,,,,,,,,,,,,,,,
1738754480.121036,1738754480.120896,69.000000,0.000000,4322.307617,4348.974121,4253.717773,4302.692383,4350.128418,4358.846191,4365.641113,4547.307617,4535.769043,4557.692383,4497.051270,5663.205078,4311.922852,4260.256348,0.000000,4.000000,78.000000,,,,0.000000,0.000000,0.000000,0.000000,0.000000,0.000000,0.000000,0.000000,0.000000,0.000000,0.000000,0.000000,0.000000,0.000000,0.000000,0.000000,,,,,,,,,,,,,,,,,,,,,,,,,,,,,,,,,,,,,,,,,,,,,,,,,,,,,,,,,,,,,,,,,,,,,,,,,,,,,,,,,,,,,,,,,,,,,,,,,,,,,,,,,,,,,,,,,,,,,,,,,,,,,,,,,
1738754480.128844,1738754480.128704,70.000000,0.000000,4321.282227,4352.179688,4250.897461,4299.230957,4351.922852,4361.538574,4365.256348,4546.794922,4536.025879,4559.102539,4497.820313,5663.846191,4314.487305,4257.179688,0.000000,4.000000,78.000000,,,,0.000000,0.000000,0.000000,0.000000,0.000000,0.000000,0.000000,0.000000,0.000000,0.000000,0.000000,0.000000,0.000000,0.000000,0.000000,0.000000,,,,,,,,,,,,,,,,,,,,,,,,,,,,,,,,,,,,,,,,,,,,,,,,,,,,,,,,,,,,,,,,,,,,,,,,,,,,,,,,,,,,,,,,,,,,,,,,,,,,,,,,,,,,,,,,,,,,,,,,,,,,,,,,,
1738754480.136652,1738754480.136412,71.000000,0.000000,4323.205078,4351.666504,4252.051270,4302.436035,4352.179688,4360.384766,4368.717773,4548.589844,4537.179688,4560.897461,4494.871582,5664.743652,4304.230957,4252.563965,0.000000,4.000000,78.000000,,,,0.000000,0.000000,0.000000,0.000000,0.000000,0.000000,0.000000,0.000000,0.000000,0.000000,0.000000,0.000000,0.000000,0.000000,0.000000,0.000000,,,,,,,,,,,,,,,,,,,,,,,,,,,,,,,,,,,,,,,,,,,,,,,,,,,,,,,,,,,,,,,,,,,,,,,,,,,,,,,,,,,,,,,,,,,,,,,,,,,,,,,,,,,,,,,,,,,,,,,,,,,,,,,,,
1738754480.144460,1738754480.144321,72.000000,0.000000,4323.077148,4348.461426,4254.871582,4303.461426,4349.487305,4360.641113,4365.000000,4547.436035,4538.846191,4559.615234,4496.794922,5657.307617,4310.512695,4258.846191,0.000000,4.000000,78.000000,,,,0.000000,0.000000,0.000000,0.000000,0.000000,0.000000,0.000000,0.000000,0.000000,0.000000,0.000000,0.000000,0.000000,0.000000,0.000000,0.000000,,,,,,,,,,,,,,,,,18.000000,0.000000,0.785052,-0.616272,-0.057983,0.023254,0.077646,-0.973752,0.226102,4.536357,-15.134329,22.464888,,,,,,,,,,,,,,,,,,,,,,,,,,,,,,,,,,,,,,,,,,,,,,,,,,,,,,,,,,,,,,,,,,,,,,,,,,,,,,,,,,,,,,,,,,,,,,,,,,,,,
1738754480.152269,1738754480.152129,73.000000,0.000000,4321.282227,4346.282227,4255.384766,4302.051270,4351.410156,4358.717773,4363.974121,4547.820313,4536.794922,4555.000000,4497.948730,5660.512695,4310.384766,4255.641113,0.000000,4.000000,78.000000,,,,0.000000,0.000000,0.000000,0.000000,0.000000,0.000000,0.000000,0.000000,0.000000,0.000000,0.000000,0.000000,0.000000,0.000000,0.000000,0.000000,,,,,,,,,,,,,,,,,,,,,,,,,,,,,,,,,,,,,,,,,,,,,,,,,,,,,,,,,,,,,,,,,,,,,,,,,,,,,,,,,,,,,,,,,,,,,,,,,,,,,,,,,,,,,,,,,,,,,,,,,,,,,,,,,
1738754480.160077,1738754480.160037,74.000000,0.000000,4321.282227,4348.461426,4254.102539,4301.666504,4352.820313,4356.282227,4363.077148,4547.179688,4537.051270,4556.666504,4496.025879,5664.358887,4308.333496,4254.230957,0.000000,4.000000,78.000000,,,,0.000000,0.000000,0.000000,0.000000,0.000000,0.000000,0.000000,0.000000,0.000000,0.000000,0.000000,0.000000,0.000000,0.000000,0.000000,0.000000,,,,,,,,,,,,,,,,,,,,,,,,,,,,,,,,,,,,,,,,,,,,,,,,,,,,,,,,,,,,,,,,,,,,,,,,,,,,,,,,,,,,,,,,,,,,,,,,,,,,,,,,,,,,,,,,,,,,,,,,,,,,,,,,,
1738754480.167885,1738754480.167845,75.000000,0.000000,4322.307617,4349.487305,4253.461426,4305.256348,4349.615234,4358.974121,4362.820313,4547.820313,4540.000000,4558.846191,4496.538574,5660.641113,4310.769043,4259.102539,0.000000,4.000000,78.000000,,,,0.000000,0.000000,0.000000,0.000000,0.000000,0.000000,0.000000,0.000000,0.000000,0.000000,0.000000,0.000000,0.000000,0.000000,0.000000,0.000000,,,,,,,,,,,,,,,,,,,,,,,,,,,,,,,,,,,,,,,,,,,,,,,,,,,,,,,,,,,,,,,,,,,,,,,,,,,,,,,,,,,,,,,,,,,,,,,,,,,,,,,,,,,,,,,,,,,,,,,,,,,,,,,,,
1738754480.175693,1738754480.175753,76.000000,0.000000,4321.794922,4349.230957,4255.128418,4306.538574,4348.717773,4360.769043,4365.512695,4549.615234,4540.256348,4557.051270,4498.077148,5662.179688,4310.000000,4256.282227,0.000000,4.000000,78.000000,,,,0.000000,0.000000,0.000000,0.000000,0.000000,0.000000,0.000000,0.000000,0.000000,0.000000,0.000000,0.000000,0.000000,0.000000,0.000000,0.000000,,,,,,,,,,,,,,,,,19.000000,0.000000,0.785052,-0.616272,-0.057983,0.023254,0.065438,-0.974240,0.234404,4.566055,-15.087563,22.518398,,,,,,,,,,,,,,,,,,,,,,,,,,,,,,,,,,,,,,,,,,,,,,,,,,,,,,,,,,,,,,,,,,,,,,,,,,,,,,,,,,,,,,,,,,,,,,,,,,,,,
1738754480.183501,1738754480.183561,77.000000,0.000000,4321.410156,4352.692383,4256.410156,4304.871582,4351.538574,4359.615234,4363.461426,4546.538574,4539.743652,4557.563965,4497.948730,5662.563965,4311.666504,4255.000000,0.000000,4.000000,78.000000,,,,0.000000,0.000000,0.000000,0.000000,0.000000,0.000000,0.000000,0.000000,0.000000,0.000000,0.000000,0.000000,0.000000,0.000000,0.000000,0.000000,,,,,,,,,,,,,,,,,,,,,,,,,,,,,,,,,,,,,,,,,,,,,,,,,,,,,,,,,,,,,,,,,,,,,,,,,,,,,,,,,,,,,,,,,,,,,,,,,,,,,,,,,,,,,,,,,,,,,,,,,,,,,,,,,
1738754480.191309,1738754480.191469,78.000000,0.000000,4323.333496,4347.820313,4253.974121,4307.179688,4351.922852,4359.743652,4364.358887,4548.333496,4536.922852,4558.205078,4496.922852,5665.128418,4304.487305,4254.358887,0.000000,4.000000,78.000000,,,,0.000000,0.000000,0.000000,0.000000,0.000000,0.000000,0.000000,0.000000,0.000000,0.000000,0.000000,0.000000,0.000000,0.000000,0.000000,0.000000,,,,,,,,,,,,,,,,,,,,,,,,,,,,,,,,,,,,,,,,,,,,,,,,,,,,,,,,,,,,0.019139,0.012992,0.010803,0.012655,0.025836,0.026951,0.027550,0.028511,0.015748,0.023811,0.036185,0.025622,0.025742,0.021738,0.030397,0.031842,0.012267,0.020400,0.021277,0.034114,0.020406,0.015681,0.045222,0.014359,0.022475,0.007700,0.012692,0.007244,0.012286,0.023856,0.049996,0.035293,0.032540,0.025524,0.041299,0.010980,0.021378,0.037629,0.031983,0.031737,0.044281,0.020608,0.011072,0.014430,0.021650,0.009176,0.018158,0.032581,0.024530,0.035006,0.026571,0.027759,0.048896,0.030207,0.024695,0.014191,0.047505,0.055814,0.030583,0.027395,0.020268,0.037950,0.013490,0.048456,0.034800,0.038916,0.050605,0.029439,0.026748,0.033023
1738754480.199117,1738754480.199278,79.000000,0.000000,4322.051270,4343.974121,4252.692383,4301.922852,4349.487305,4360.641113,4363.974121,4549.743652,4537.307617,4556.922852,4497.436035,5663.846191,4305.897461,4254.743652,0.000000,4.000000,78.000000,,,,0.000000,0.000000,0.000000,0.000000,0.000000,0.000000,0.000000,0.000000,0.000000,0.000000,0.000000,0.000000,0.000000,0.000000,0.000000,0.000000,,,,,,,,,,,,,,,,,,,,,,,,,,,,,,,,,,,,,,,,,,,,,,,,,,,,,,,,,,,,,,,,,,,,,,,,,,,,,,,,,,,,,,,,,,,,,,,,,,,,,,,,,,,,,,,,,,,,,,,,,,,,,,,,,
1738754480.206925,1738754480.207186,80.000000,0.000000,4321.922852,4349.871582,4255.641113,4297.179688,4350.641113,4360.512695,4363.077148,4547.563965,4542.051270,4556.282227,4495.897461,5660.256348,4311.794922,4255.128418,0.000000,4.000000,78.000000,,,,0.000000,0.000000,0.000000,0.000000,0.000000,0.000000,0.000000,0.000000,0.000000,0.000000,0.000000,0.000000,0.000000,0.000000,0.000000,0.000000,,,,,,,,,,,,,,,,,20.000000,0.000000,0.785056,-0.616272,-0.057922,0.023254,0.068368,-0.964962,0.240752,4.526116,-15.245473,22.599894,,,,,,,,,,,,,,,,,,,,,,,,,,,,,,,,,,,,,,,,,,,,,,,,,,,,,,,,,,,,,,,,,,,,,,,,,,,,,,,,,,,,,,,,,,,,,,,,,,,,,
1738754480.214733,1738754480.214994,81.000000,0.000000,4322.948730,4348.333496,4256.410156,4304.871582,4353.205078,4359.102539,4364.102539,4549.102539,4541.538574,4556.922852,4493.333496,5662.563965,4307.692383,4252.563965,0.000000,4.000000,78.000000,,,,0.000000,0.000000,0.000000,0.000000,0.000000,0.000000,0.000000,0.000000,0.000000,0.000000,0.000000,0.000000,0.000000,0.000000,0.000000,0.000000,,,,,,,,,,,,,,,,,,,,,,,,,,,,,,,,,,,,,,,,,,,,,,,,,,,,,,,,,,,,,,,,,,,,,,,,,,,,,,,,,,,,,,,,,,,,,,,,,,,,,,,,,,,,,,,,,,,,,,,,,,,,,,,,,
1738754480.222541,1738754480.222901,82.000000,0.000000,4321.922852,4344.230957,4253.846191,4307.307617,4350.128418,4360.128418,4362.563965,4548.461426,4539.102539,4558.589844,4494.743652,5660.641113,4311.282227,4255.641113,0.000000,4.000000,78.000000,,,,0.000000,0.000000,0.000000,0.000000,0.000000,0.000000,0.000000,0.000000,0.000000,0.000000,0.000000,0.000000,0.000000,0.000000,0.000000,0.000000,,,,,,,,,,,,,,,,,,,,,,,,,,,,,,,,,,,,,,,,,,,,,,,,,,,,,,,,,,,,,,,,,,,,,,,,,,,,,,,,,,,,,,,,,,,,,,,,,,,,,,,,,,,,,,,,,,,,,,,,,,,,,,,,,
1738754480.230349,1738754480.230709,83.000000,0.000000,4324.487305,4346.410156,4254.230957,4304.743652,4347.179688,4362.948730,4364.743652,4547.563965,4537.051270,4559.230957,4495.384766,5662.820313,4309.358887,4257.948730,0.000000,4.000000,78.000000,,,,0.000000,0.000000,0.000000,0.000000,0.000000,0.000000,0.000000,0.000000,0.000000,0.000000,0.000000,0.000000,0.000000,0.000000,0.000000,0.000000,,,,,,,,,,,,,,,,,,,,,,,,,,,,,,,,,,,,,,,,,,,,,,,,,,,,,,,,,,,,,,,,,,,,,,,,,,,,,,,,,,,,,,,,,,,,,,,,,,,,,,,,,,,,,,,,,,,,,,,,,,,,,,,,,
1738754480.238158,1738754480.238417,84.000000,0.000000,4323.333496,4349.615234,4254.487305,4302.051270,4347.948730,4360.897461,4365.769043,4548.205078,4538.589844,4560.128418,4495.128418,5663.333496,4308.461426,4257.436035,0.000000,4.000000,78.000000,,,,0.000000,0.000000,0.000000,0.000000,0.000000,0.000000,0.000000,0.000000,0.000000,0.000000,0.000000,0.000000,0.000000,0.000000,0.000000,0.000000,,,,,,,,,,,,,,,,,21.000000,0.000000,0.785015,-0.616333,-0.057861,0.023193,0.062019,-0.971798,0.226590,4.506838,-15.104259,22.523237,,,,,,,,,,,,,,,,,,,,,,,,,,,,,,,,,,,,,,,,,,,,,,,,,,,,,,,,,,,,,,,,,,,,,,,,,,,,,,,,,,,,,,,,,,,,,,,,,,,,,
1738754480.245966,1738754480.246225,85.000000,0.000000,4319.743652,4348.974121,4252.820313,4300.897461,4348.461426,4358.205078,4365.641113,4549.615234,4540.897461,4558.461426,4494.102539,5659.230957,4311.666504,4256.666504,0.000000,4.000000,78.000000,,,,0.000000,0.000000,0.000000,0.000000,0.000000,0.000000,0.000000,0.000000,0.000000,0.000000,0.000000,0.000000,0.000000,0.000000,0.000000,0.000000,,,,,,,,,,,,,,,,,,,,,,,,,,,,,,,,,,,,,,,,,,,,,,,,,,,,,,,,,,,,,,,,,,,,,,,,,,,,,,,,,,,,,,,,,,,,,,,,,,,,,,,,,,,,,,,,,,,,,,,,,,,,,,,,,
1738754480.253774,1738754480.253933,86.000000,0.000000,4322.948730,4349.102539,4251.666504,4302.051270,4349.230957,4360.384766,4365.641113,4550.256348,4537.179688,4556.153809,4493.589844,5662.051270,4305.128418,4256.025879,0.000000,4.000000,78.000000,,,,0.000000,0.000000,0.000000,0.000000,0.000000,0.000000,0.000000,0.000000,0.000000,0.000000,0.000000,0.000000,0.000000,0.000000,0.000000,0.000000,,,,,,,,,,,,,,,,,,,,,,,,,,,,,,,,,,,,,,,,,,,,,,,,,,,,,,,,,,,,,,,,,,,,,,,,,,,,,,,,,,,,,,,,,,,,,,,,,,,,,,,,,,,,,,,,,,,,,,,,,,,,,,,,,
1738754480.261582,1738754480.261741,87.000000,0.000000,4322.820313,4349.102539,4249.743652,4298.589844,4350.384766,4358.717773,4360.512695,4546.538574,4536.922852,4559.358887,4498.717773,5663.717773,4305.641113,4257.563965,0.000000,4.000000,78.000000,,,,0.000000,0.000000,0.000000,0.000000,0.000000,0.000000,0.000000,0.000000,0.000000,0.000000,0.000000,0.000000,0.000000,0.000000,0.000000,0.000000,,,,,,,,,,,,,,,,,,,,,,,,,,,,,,,,,,,,,,,,,,,,,,,,,,,,,,,,,,,,,,,,,,,,,,,,,,,,,,,,,,,,,,,,,,,,,,,,,,,,,,,,,,,,,,,,,,,,,,,,,,,,,,,,,
1738754480.269390,1738754480.269450,88.000000,0.000000,4318.846191,4345.641113,4249.358887,4298.717773,4351.282227,4354.871582,4362.051270,4548.589844,4537.563965,4559.102539,4497.820313,5666.025879,4303.205078,4251.410156,0.000000,4.000000,78.000000,,,,0.000000,0.000000,0.000000,0.000000,0.000000,0.000000,0.000000,0.000000,0.000000,0.000000,0.000000,0.000000,0.000000,0.000000,0.000000,0.000000,,,,,,,,,,,,,,,,,22.000000,0.000000,0.785015,-0.616333,-0.057861,0.023193,0.052741,-0.968868,0.247100,4.472821,-15.177166,22.470913,,,,,,,,,,,,,,,,,,,,,,,,,,,,,,,,,,,,,,,,,,,,,,,,,,,,,,,,,,,,,,,,,,,,,,,,,,,,,,,,,,,,,,,,,,,,,,,,,,,,,
1738754480.277198,1738754480.277257,89.000000,0.000000,4321.025879,4359.230957,4251.538574,4297.692383,4353.333496,4364.487305,4361.794922,4543.974121,4537.948730,4557.051270,4496.666504,5655.000000,4317.563965,4265.256348,0.000000,4.000000,78.000000,,,,0.000000,0.000000,0.000000,0.000000,0.000000,0.000000,0.000000,0.000000,0.000000,0.000000,0.000000,0.000000,0.000000,0.000000,0.000000,0.000000,,,,,,,,,,,,,,,,,,,,,,,,,,,,,,,,,,,,,,,,,,,,,,,,,,,,,,,,,,,,,,,,,,,,,,,,,,,,,,,,,,,,,,,,,,,,,,,,,,,,,,,,,,,,,,,,,,,,,,,,,,,,,,,,,
1738754480.285006,1738754480.284966,90.000000,0.000000,4322.051270,4334.487305,4253.461426,4304.230957,4343.846191,4351.666504,4364.358887,4553.461426,4536.025879,4557.307617,4500.128418,5669.743652,4301.922852,4243.333496,0.000000,4.000000,78.000000,,,,0.000000,0.000000,0.000000,0.000000,0.000000,0.000000,0.000000,0.000000,0.000000,0.000000,0.000000,0.000000,0.000000,0.000000,0.000000,0.000000,,,,,,,,,,,,,,,,,,,,,,,,,,,,,,,,,,,,,,,,,,,,,,,,,,,,,,,,,,,,,,,,,,,,,,,,,,,,,,,,,,,,,,,,,,,,,,,,,,,,,,,,,,,,,,,,,,,,,,,,,,,,,,,,,
1738754480.292814,1738754480.292774,91.000000,0.000000,4318.717773,4323.717773,4252.948730,4310.897461,4342.820313,4346.538574,4373.717773,4561.282227,4533.589844,4556.794922,4493.589844,5684.102539,4277.179688,4225.000000,0.000000,4.000000,78.000000,,,,0.000000,0.000000,0.000000,0.000000,0.000000,0.000000,0.000000,0.000000,0.000000,0.000000,0.000000,0.000000,0.000000,0.000000,0.000000,0.000000,,,,,,,,,,,,,,,,,,,,,,,,,,,,,,,,,,,,,,,,,,,,,,,,,,,,,,,,,,,,,,,,,,,,,,,,,,,,,,,,,,,,,,,,,,,,,,,,,,,,,,,,,,,,,,,,,,,,,,,,,,,,,,,,,
1738754480.300622,1738754480.300482,92.000000,0.000000,4318.846191,4369.487305,4252.948730,4298.717773,4356.025879,4371.410156,4365.384766,4538.974121,4540.128418,4559.358887,4490.512695,5652.179688,4321.282227,4273.717773,0.000000,4.000000,78.000000,,,,0.000000,0.000000,0.000000,0.000000,0.000000,0.000000,0.000000,0.000000,0.000000,0.000000,0.000000,0.000000,0.000000,0.000000,0.000000,0.000000,,,,,,,,,,,,,,,,,23.000000,0.000000,0.785070,-0.616272,-0.057800,0.023071,0.071298,-0.976193,0.227567,4.308872,-15.109449,22.557156,,,,,,,,,,,,,,,,,,,,,,,,,,,,,,,,,,,,,,,,,,,,,,,,,,,,,,,,,,,,,,,,,,,,,,,,,,,,,,,,,,,,,,,,,,,,,,,,,,,,,
1738754480.308431,1738754480.308390,93.000000,0.000000,4323.205078,4349.743652,4255.000000,4303.205078,4350.512695,4359.743652,4363.589844,4549.102539,4538.333496,4561.666504,4497.948730,5659.871582,4313.717773,4259.358887,0.000000,4.000000,78.000000,,,,0.000000,0.000000,0.000000,0.000000,0.000000,0.000000,0.000000,0.000000,0.000000,0.000000,0.000000,0.000000,0.000000,0.000000,0.000000,0.000000,,,,,,,,,,,,,,,,,,,,,,,,,,,,,,,,,,,,,,,,,,,,,,,,,,,,,,,,,,,,,,,,,,,,,,,,,,,,,,,,,,,,,,,,,,,,,,,,,,,,,,,,,,,,,,,,,,,,,,,,,,,,,,,,,
1738754480.316239,1738754480.316198,94.000000,0.000000,4326.025879,4342.436035,4255.641113,4307.692383,4347.051270,4356.922852,4367.948730,4553.461426,4538.461426,4561.922852,4500.256348,5666.282227,4298.589844,4252.948730,0.000000,4.000000,78.000000,,,,0.000000,0.000000,0.000000,0.000000,0.000000,0.000000,0.000000,0.000000,0.000000,0.000000,0.000000,0.000000,0.000000,0.000000,0.000000,0.000000,1.000000,0.000000,0.000000,0.000000,0.000000,0.000000,0.000000,0.000000,0.000000,0.000000,0.000000,0.000000,0.000000,0.000000,0.000000,0.000000,,,,,,,,,,,,,,,,,,,,,,,,,,,,,,,,,,,,,,,,,,,,0.017132,0.010976,0.010026,0.013479,0.025945,0.027199,0.029286,0.033812,0.016242,0.022737,0.030194,0.020202,0.025123,0.020420,0.026578,0.036252,0.015204,0.023972,0.025506,0.036736,0.022229,0.014157,0.044487,0.014746,0.024644,0.007454,0.015733,0.008242,0.012906,0.025208,0.054257,0.029715,0.030978,0.021793,0.045306,0.015033,0.020327,0.041018,0.029960,0.030621,0.042653,0.018740,0.010506,0.012247,0.020444,0.008949,0.019173,0.032344,0.024983,0.038207,0.024459,0.027037,0.046535,0.028231,0.021650,0.015065,0.051094,0.057880,0.030111,0.029052,0.017267,0.036083,0.013549,0.045464,0.036367,0.042147,0.048206,0.028909,0.028604,0.031795
1738754480.324047,1738754480.324106,95.000000,0.000000,4320.384766,4359.871582,4253.077148,4298.333496,4351.153809,4365.897461,4364.743652,4542.948730,4543.077148,4558.974121,4497.051270,5652.692383,4318.846191,4269.743652,0.000000,4.000000,78.000000,,,,0.000000,0.000000,0.000000,0.000000,0.000000,0.000000,0.000000,0.000000,0.000000,0.000000,0.000000,0.000000,0.000000,0.000000,0.000000,0.000000,,,,,,,,,,,,,,,,,,,,,,,,,,,,,,,,,,,,,,,,,,,,,,,,,,,,,,,,,,,,,,,,,,,,,,,,,,,,,,,,,,,,,,,,,,,,,,,,,,,,,,,,,,,,,,,,,,,,,,,,,,,,,,,,,
1738754480.331855,1738754480.331914,96.000000,0.000000,4318.717773,4343.333496,4251.025879,4301.410156,4348.717773,4357.820313,4368.205078,4553.974121,4536.666504,4556.153809,4493.205078,5667.820313,4304.102539,4245.897461,0.000000,4.000000,78.000000,,,,0.000000,0.000000,0.000000,0.000000,0.000000,0.000000,0.000000,0.000000,0.000000,0.000000,0.000000,0.000000,0.000000,0.000000,0.000000,0.000000,,,,,,,,,,,,,,,,,24.000000,0.000000,0.785066,-0.616272,-0.057861,0.023071,0.066903,-0.983518,0.249054,4.311318,-14.981838,22.568106,,,,,,,,,,,,,,,,,,,,,,,,,,,,,,,,,,,,,,,,,,,,,,,,,,,,,,,,,,,,,,,,,,,,,,,,,,,,,,,,,,,,,,,,,,,,,,,,,,,,,
1738754480.339663,1738754480.339822,97.000000,0.000000,4322.948730,4349.743652,4251.922852,4302.436035,4350.512695,4361.025879,4364.615234,4548.077148,4535.897461,4558.589844,4496.538574,5662.436035,4310.897461,4260.769043,0.000000,4.000000,78.000000,,,,0.000000,0.000000,0.000000,0.000000,0.000000,0.000000,0.000000,0.000000,0.000000,0.000000,0.000000,0.000000,0.000000,0.000000,0.000000,0.000000,,,,,,,,,,,,,,,,,,,,,,,,,,,,,,,,,,,,,,,,,,,,,,,,,,,,,,,,,,,,,,,,,,,,,,,,,,,,,,,,,,,,,,,,,,,,,,,,,,,,,,,,,,,,,,,,,,,,,,,,,,,,,,,,,
1738754480.347471,1738754480.347631,98.000000,0.000000,4319.871582,4345.128418,4252.307617,4302.948730,4350.512695,4357.307617,4361.538574,4548.589844,4537.692383,4556.922852,4498.717773,5662.307617,4308.333496,4261.794922,0.000000,4.000000,78.000000,,,,0.000000,0.000000,0.000000,0.000000,0.000000,0.000000,0.000000,0.000000,0.000000,0.000000,0.000000,0.000000,0.000000,0.000000,0.000000,0.000000,,,,,,,,,,,,,,,,,,,,,,,,,,,,,,,,,,,,,,,,,,,,,,,,,,,,,,,,,,,,,,,,,,,,,,,,,,,,,,,,,,,,,,,,,,,,,,,,,,,,,,,,,,,,,,,,,,,,,,,,,,,,,,,,,
1738754480.355279,1738754480.355539,99.000000,0.000000,4319.615234,4347.563965,4250.641113,4302.179688,4352.179688,4360.897461,4365.256348,4552.563965,4537.179688,4554.871582,4494.358887,5667.051270,4303.205078,4252.692383,0.000000,4.000000,78.000000,,,,0.000000,0.000000,0.000000,0.000000,0.000000,0.000000,0.000000,0.000000,0.000000,0.000000,0.000000,0.000000,0.000000,0.000000,0.000000,0.000000,,,,,,,,,,,,,,,,,,,,,,,,,,,,,,,,,,,,,,,,,,,,,,,,,,,,,,,,,,,,,,,,,,,,,,,,,,,,,,,,,,,,,,,,,,,,,,,,,,,,,,,,,,,,,,,,,,,,,,,,,,,,,,,,,
1738754480.363087,1738754480.363347,100.000000,0.000000,4321.666504,4355.897461,4252.307617,4299.615234,4352.692383,4363.589844,4363.461426,4548.589844,4538.974121,4558.205078,4495.641113,5659.743652,4316.153809,4258.589844,0.000000,4.000000,78.000000,,,,0.000000,0.000000,0.000000,0.000000,0.000000,0.000000,0.000000,0.000000,0.000000,0.000000,0.000000,0.000000,0.000000,0.000000,0.000000,0.000000,,,,,,,,,,,,,,,,,25.000000,0.000000,0.785066,-0.616272,-0.057861,0.023071,0.064461,-0.975217,0.242217,4.246853,-14.933655,22.761295,,,,,,,,,,,,,,,,,,,,,,,,,,,,,,,,,,,,,,,,,,,,,,,,,,,,,,,,,,,,,,,,,,,,,,,,,,,,,,,,,,,,,,,,,,,,,,,,,,,,,
1738754480.370895,1738754480.371255,101.000000,0.000000,4322.307617,4346.922852,4254.230957,4301.153809,4351.282227,4358.589844,4363.333496,4551.025879,4538.077148,4559.358887,4496.922852,5663.205078,4307.820313,4255.512695,0.000000,4.000000,78.000000,,,,0.000000,0.000000,0.000000,0.000000,0.000000,0.000000,0.000000,0.000000,0.000000,0.000000,0.000000,0.000000,0.000000,0.000000,0.000000,0.000000,,,,,,,,,,,,,,,,,,,,,,,,,,,,,,,,,,,,,,,,,,,,,,,,,,,,,,,,,,,,,,,,,,,,,,,,,,,,,,,,,,,,,,,,,,,,,,,,,,,,,,,,,,,,,,,,,,,,,,,,,,,,,,,,,
1738754480.378703,1738754480.379063,102.000000,0.000000,4322.563965,4347.179688,4252.436035,4299.487305,4352.436035,4360.256348,4363.974121,4548.205078,4539.615234,4560.512695,4495.384766,5663.589844,4306.025879,4257.051270,0.000000,4.000000,78.000000,,,,0.000000,0.000000,0.000000,0.000000,0.000000,0.000000,0.000000,0.000000,0.000000,0.000000,0.000000,0.000000,0.000000,0.000000,0.000000,0.000000,,,,,,,,,,,,,,,,,,,,,,,,,,,,,,,,,,,,,,,,,,,,,,,,,,,,,,,,,,,,,,,,,,,,,,,,,,,,,,,,,,,,,,,,,,,,,,,,,,,,,,,,,,,,,,,,,,,,,,,,,,,,,,,,,
1738754480.386511,1738754480.386971,103.000000,0.000000,4320.128418,4347.563965,4252.692383,4299.615234,4352.436035,4359.487305,4363.717773,4547.820313,4538.589844,4560.897461,4495.769043,5661.538574,4310.128418,4255.769043,0.000000,4.000000,78.000000,,,,0.000000,0.000000,0.000000,0.000000,0.000000,0.000000,0.000000,0.000000,0.000000,0.000000,0.000000,0.000000,0.000000,0.000000,0.000000,0.000000,,,,,,,,,,,,,,,,,,,,,,,,,,,,,,,,,,,,,,,,,,,,,,,,,,,,,,,,,,,,,,,,,,,,,,,,,,,,,,,,,,,,,,,,,,,,,,,,,,,,,,,,,,,,,,,,,,,,,,,,,,,,,,,,,
1738754480.394320,1738754480.394779,104.000000,0.000000,4320.769043,4348.205078,4253.205078,4302.820313,4353.333496,4359.358887,4364.871582,4551.538574,4533.333496,4557.179688,4495.512695,5665.512695,4307.051270,4256.794922,0.000000,4.000000,78.000000,,,,0.000000,0.000000,0.000000,0.000000,0.000000,0.000000,0.000000,0.000000,0.000000,0.000000,0.000000,0.000000,0.000000,0.000000,0.000000,0.000000,,,,,,,,,,,,,,,,,26.000000,0.000000,0.785114,-0.616211,-0.057861,0.023071,0.069344,-0.970333,0.230497,4.105501,-14.890289,22.851833,,,,,,,,,,,,,,,,,,,,,,,,,,,,,,,,,,,,,,,,,,,,,,,,,,,,,,,,,,,,,,,,,,,,,,,,,,,,,,,,,,,,,,,,,,,,,,,,,,,,,
1738754480.402128,1738754480.402687,105.000000,0.000000,4320.384766,4350.769043,4252.692383,4302.436035,4351.922852,4360.384766,4363.205078,4548.077148,4538.333496,4557.051270,4496.282227,5664.871582,4307.820313,4260.000000,0.000000,4.000000,78.000000,,,,0.000000,0.000000,0.000000,0.000000,0.000000,0.000000,0.000000,0.000000,0.000000,0.000000,0.000000,0.000000,0.000000,0.000000,0.000000,0.000000,,,,,,,,,,,,,,,,,,,,,,,,,,,,,,,,,,,,,,,,,,,,,,,,,,,,,,,,,,,,,,,,,,,,,,,,,,,,,,,,,,,,,,,,,,,,,,,,,,,,,,,,,,,,,,,,,,,,,,,,,,,,,,,,,
1738754480.409936,1738754480.410495,106.000000,0.000000,4318.077148,4348.333496,4254.358887,4302.563965,4348.461426,4361.410156,4364.487305,4548.077148,4543.589844,4559.487305,4497.051270,5662.692383,4305.000000,4254.102539,0.000000,4.000000,78.000000,,,,0.000000,0.000000,0.000000,0.000000,0.000000,0.000000,0.000000,0.000000,0.000000,0.000000,0.000000,0.000000,0.000000,0.000000,0.000000,0.000000,,,,,,,,,,,,,,,,,,,,,,,,,,,,,,,,,,,,,,,,,,,,,,,,,,,,,,,,,,,,,,,,,,,,,,,,,,,,,,,,,,,,,,,,,,,,,,,,,,,,,,,,,,,,,,,,,,,,,,,,,,,,,,,,,
1738754480.417744,1738754480.418203,107.000000,0.000000,4318.589844,4346.922852,4253.717773,4301.666504,4349.230957,4360.897461,4365.897461,4552.051270,4539.487305,4558.846191,4496.922852,5663.846191,4307.179688,4254.102539,0.000000,4.000000,78.000000,,,,0.000000,0.000000,0.000000,0.000000,0.000000,0.000000,0.000000,0.000000,0.000000,0.000000,0.000000,0.000000,0.000000,0.000000,0.000000,0.000000,,,,,,,,,,,,,,,,,,,,,,,,,,,,,,,,,,,,,,,,,,,,,,,,,,,,,,,,,,,,,,,,,,,,,,,,,,,,,,,,,,,,,,,,,,,,,,,,,,,,,,,,,,,,,,,,,,,,,,,,,,,,,,,,,
1738754480.425552,1738754480.426112,108.000000,0.000000,4321.025879,4350.128418,4250.897461,4300.256348,4350.769043,4360.641113,4364.743652,4549.487305,4537.436035,4557.051270,4496.410156,5663.846191,4314.102539,4261.025879,0.000000,4.000000,78.000000,,,,0.000000,0.000000,0.000000,0.000000,0.000000,0.000000,0.000000,0.000000,0.000000,0.000000,0.000000,0.000000,0.000000,0.000000,0.000000,0.000000,,,,,,,,,,,,,,,,,27.000000,0.000000,0.785064,-0.616272,-0.057861,0.023132,0.070321,-0.974240,0.244659,4.144951,-14.851260,22.816650,,,,,,,,,,,,,,,,,,,,,,,,,,,,,,,,,,,,,,,,,,,,,,,,,,,,,,,,,,,,,,,,,,,,,,,,,,,,,,,,,,,,,,,,,,,,,,,,,,,,,
1738754480.433360,1738754480.433920,109.000000,0.000000,4322.692383,4348.461426,4251.410156,4304.358887,4350.641113,4361.922852,4365.128418,4547.436035,4537.820313,4557.051270,4496.153809,5664.615234,4308.974121,4257.307617,0.000000,4.000000,78.000000,,,,0.000000,0.000000,0.000000,0.000000,0.000000,0.000000,0.000000,0.000000,0.000000,0.000000,0.000000,0.000000,0.000000,0.000000,0.000000,0.000000,,,,,,,,,,,,,,,,,,,,,,,,,,,,,,,,,,,,,,,,,,,,,,,,,,,,,,,,,,,,,,,,,,,,,,,,,,,,,,,,,,,,,,,,,,,,,,,,,,,,,,,,,,,,,,,,,,,,,,,,,,,,,,,,,
1738754480.441168,1738754480.441828,110.000000,0.000000,4321.282227,4348.461426,4253.333496,4303.333496,4350.256348,4360.769043,4362.563965,4547.436035,4539.615234,4558.589844,4496.922852,5662.179688,4308.333496,4255.256348,0.000000,4.000000,78.000000,,,,0.000000,0.000000,0.000000,0.000000,0.000000,0.000000,0.000000,0.000000,0.000000,0.000000,0.000000,0.000000,0.000000,0.000000,0.000000,0.000000,,,,,,,,,,,,,,,,,,,,,,,,,,,,,,,,,,,,,,,,,,,,,,,,,,,,,,,,,,,,0.015401,0.009925,0.010386,0.014568,0.024406,0.026218,0.030488,0.037746,0.016476,0.022075,0.024999,0.016433,0.024724,0.018695,0.023141,0.039101,0.017413,0.028145,0.029779,0.038369,0.022287,0.012196,0.042848,0.015590,0.026606,0.008834,0.017588,0.009672,0.013592,0.027640,0.058969,0.028017,0.031882,0.019591,0.047463,0.022462,0.020421,0.042710,0.027157,0.028560,0.038682,0.016152,0.010959,0.011196,0.019261,0.009111,0.018310,0.030507,0.025479,0.040570,0.022961,0.028433,0.043312,0.026581,0.019975,0.016790,0.051751,0.055360,0.029979,0.031377,0.015406,0.035688,0.015424,0.042102,0.037513,0.047140,0.044027,0.027185,0.028752,0.031358
1738754480.448976,1738754480.449636,111.000000,0.000000,4320.512695,4351.922852,4254.230957,4302.436035,4349.615234,4359.102539,4365.000000,4549.615234,4540.128418,4557.692383,4495.897461,5664.230957,4307.692383,4257.436035,0.000000,4.000000,78.000000,,,,0.000000,0.000000,0.000000,0.000000,0.000000,0.000000,0.000000,0.000000,0.000000,0.000000,0.000000,0.000000,0.000000,0.000000,0.000000,0.000000,,,,,,,,,,,,,,,,,,,,,,,,,,,,,,,,,,,,,,,,,,,,,,,,,,,,,,,,,,,,,,,,,,,,,,,,,,,,,,,,,,,,,,,,,,,,,,,,,,,,,,,,,,,,,,,,,,,,,,,,,,,,,,,,,
1738754480.456784,1738754480.457544,112.000000,0.000000,4319.487305,4350.384766,4253.974121,4303.461426,4350.897461,4358.846191,4370.000000,4550.512695,4537.179688,4557.307617,4496.153809,5667.820313,4306.410156,4258.333496,0.000000,4.000000,78.000000,,,,0.000000,0.000000,0.000000,0.000000,0.000000,0.000000,0.000000,0.000000,0.000000,0.000000,0.000000,0.000000,0.000000,0.000000,0.000000,0.000000,,,,,,,,,,,,,,,,,28.000000,0.000000,0.785112,-0.616211,-0.057861,0.023132,0.064461,-0.975705,0.244659,4.247122,-14.916134,22.834984,,,,,,,,,,,,,,,,,,,,,,,,,,,,,,,,,,,,,,,,,,,,,,,,,,,,,,,,,,,,,,,,,,,,,,,,,,,,,,,,,,,,,,,,,,,,,,,,,,,,,
1738754480.464593,1738754480.465352,113.000000,0.000000,4320.512695,4349.102539,4253.205078,4299.743652,4354.230957,4361.153809,4366.025879,4547.563965,4536.666504,4561.153809,4497.051270,5662.051270,4313.846191,4259.230957,0.000000,4.000000,78.000000,,,,0.000000,0.000000,0.000000,0.000000,0.000000,0.000000,0.000000,0.000000,0.000000,0.000000,0.000000,0.000000,0.000000,0.000000,0.000000,0.000000,,,,,,,,,,,,,,,,,,,,,,,,,,,,,,,,,,,,,,,,,,,,,,,,,,,,,,,,,,,,,,,,,,,,,,,,,,,,,,,,,,,,,,,,,,,,,,,,,,,,,,,,,,,,,,,,,,,,,,,,,,,,,,,,,
1738754480.472401,1738754480.473161,114.000000,0.000000,4321.922852,4349.358887,4254.230957,4301.538574,4355.000000,4362.820313,4363.333496,4547.179688,4537.436035,4560.512695,4493.461426,5662.563965,4308.461426,4253.846191,0.000000,4.000000,78.000000,,,,0.000000,0.000000,0.000000,0.000000,0.000000,0.000000,0.000000,0.000000,0.000000,0.000000,0.000000,0.000000,0.000000,0.000000,0.000000,0.000000,,,,,,,,,,,,,,,,,,,,,,,,,,,,,,,,,,,,,,,,,,,,,,,,,,,,,,,,,,,,,,,,,,,,,,,,,,,,,,,,,,,,,,,,,,,,,,,,,,,,,,,,,,,,,,,,,,,,,,,,,,,,,,,,,
1738754480.480209,1738754480.480869,115.000000,0.000000,4320.000000,4350.384766,4253.205078,4302.307617,4352.179688,4361.282227,4364.358887,4547.563965,4537.948730,4557.692383,4493.974121,5666.666504,4306.538574,4253.974121,0.000000,4.000000,78.000000,,,,0.000000,0.000000,0.000000,0.000000,0.000000,0.000000,0.000000,0.000000,0.000000,0.000000,0.000000,0.000000,0.000000,0.000000,0.000000,0.000000,,,,,,,,,,,,,,,,,,,,,,,,,,,,,,,,,,,,,,,,,,,,,,,,,,,,,,,,,,,,,,,,,,,,,,,,,,,,,,,,,,,,,,,,,,,,,,,,,,,,,,,,,,,,,,,,,,,,,,,,,,,,,,,,,
1738754480.488017,1738754480.488677,116.000000,0.000000,4321.025879,4350.384766,4249.487305,4299.230957,4350.128418,4359.487305,4366.025879,4548.846191,4536.282227,4558.974121,4497.948730,5664.743652,4308.974121,4257.820313,0.000000,4.000000,78.000000,,,,0.000000,0.000000,0.000000,0.000000,0.000000,0.000000,0.000000,0.000000,0.000000,0.000000,0.000000,0.000000,0.000000,0.000000,0.000000,0.000000,,,,,,,,,,,,,,,,,29.000000,0.000000,0.785064,-0.616272,-0.057861,0.023132,0.061531,-0.965450,0.242217,4.189077,-14.907854,22.801487,,,,,,,,,,,,,,,,,,,,,,,,,,,,,,,,,,,,,,,,,,,,,,,,,,,,,,,,,,,,,,,,,,,,,,,,,,,,,,,,,,,,,,,,,,,,,,,,,,,,,
1738754480.495825,1738754480.496385,117.000000,0.000000,4322.948730,4348.461426,4248.333496,4299.615234,4350.897461,4359.102539,4364.230957,4551.025879,4535.512695,4560.641113,4496.410156,5659.615234,4306.666504,4255.641113,0.000000,4.000000,78.000000,,,,0.000000,0.000000,0.000000,0.000000,0.000000,0.000000,0.000000,0.000000,0.000000,0.000000,0.000000,0.000000,0.000000,0.000000,0.000000,0.000000,,,,,,,,,,,,,,,,,,,,,,,,,,,,,,,,,,,,,,,,,,,,,,,,,,,,,,,,,,,,,,,,,,,,,,,,,,,,,,,,,,,,,,,,,,,,,,,,,,,,,,,,,,,,,,,,,,,,,,,,,,,,,,,,,
1738754480.503633,1738754480.504193,118.000000,0.000000,4323.205078,4349.743652,4251.922852,4300.769043,4352.436035,4358.846191,4361.025879,4548.077148,4537.820313,4560.512695,4495.641113,5660.128418,4313.461426,4255.512695,0.000000,4.000000,78.000000,,,,0.000000,0.000000,0.000000,0.000000,0.000000,0.000000,0.000000,0.000000,0.000000,0.000000,0.000000,0.000000,0.000000,0.000000,0.000000,0.000000,,,,,,,,,,,,,,,,,,,,,,,,,,,,,,,,,,,,,,,,,,,,,,,,,,,,,,,,,,,,,,,,,,,,,,,,,,,,,,,,,,,,,,,,,,,,,,,,,,,,,,,,,,,,,,,,,,,,,,,,,,,,,,,,,
1738754480.511441,1738754480.511901,119.000000,0.000000,4321.794922,4350.512695,4254.615234,4301.410156,4353.077148,4359.102539,4364.487305,4547.563965,4536.538574,4559.871582,4495.384766,5667.692383,4310.641113,4256.410156,0.000000,4.000000,78.000000,,,,0.000000,0.000000,0.000000,0.000000,0.000000,0.000000,0.000000,0.000000,0.000000,0.000000,0.000000,0.000000,0.000000,0.000000,0.000000,0.000000,,,,,,,,,,,,,,,,,,,,,,,,,,,,,,,,,,,,,,,,,,,,,,,,,,,,,,,,,,,,,,,,,,,,,,,,,,,,,,,,,,,,,,,,,,,,,,,,,,,,,,,,,,,,,,,,,,,,,,,,,,,,,,,,,
1738754480.519249,1738754480.519809,120.000000,0.000000,4320.000000,4349.615234,4251.282227,4297.948730,4352.051270,4357.692383,4363.974121,4550.256348,4538.205078,4558.589844,4495.641113,5662.948730,4308.077148,4256.794922,0.000000,4.000000,78.000000,,,,0.000000,0.000000,0.000000,0.000000,0.000000,0.000000,0.000000,0.000000,0.000000,0.000000,0.000000,0.000000,0.000000,0.000000,0.000000,0.000000,,,,,,,,,,,,,,,,,30.000000,0.000000,0.785061,-0.616272,-0.057922,0.023071,0.054206,-0.972287,0.239775,4.286836,-14.933735,22.704670,,,,,,,,,,,,,,,,,,,,,,,,,,,,,,,,,,,,,,,,,,,,,,,,,,,,,,,,,,,,,,,,,,,,,,,,,,,,,,,,,,,,,,,,,,,,,,,,,,,,,
1738754480.527057,1738754480.527617,121.000000,0.000000,4321.025879,4349.871582,4251.666504,4299.230957,4351.410156,4358.589844,4362.692383,4548.846191,4540.641113,4556.410156,4496.410156,5660.641113,4309.230957,4253.589844,0.000000,4.000000,78.000000,,,,0.000000,0.000000,0.000000,0.000000,0.000000,0.000000,0.000000,0.000000,0.000000,0.000000,0.000000,0.000000,0.000000,0.000000,0.000000,0.000000,,,,,,,,,,,,,,,,,,,,,,,,,,,,,,,,,,,,,,,,,,,,,,,,,,,,,,,,,,,,,,,,,,,,,,,,,,,,,,,,,,,,,,,,,,,,,,,,,,,,,,,,,,,,,,,,,,,,,,,,,,,,,,,,,
1738754480.534865,1738754480.535525,122.000000,0.000000,4322.179688,4350.512695,4254.871582,4306.153809,4351.922852,4362.436035,4365.897461,4547.051270,4536.922852,4558.589844,4492.307617,5668.846191,4307.436035,4252.051270,0.000000,4.000000,78.000000,,,,0.000000,0.000000,0.000000,0.000000,0.000000,0.000000,0.000000,0.000000,0.000000,0.000000,0.000000,0.000000,0.000000,0.000000,0.000000,0.000000,,,,,,,,,,,,,,,,,,,,,,,,,,,,,,,,,,,,,,,,,,,,,,,,,,,,,,,,,,,,,,,,,,,,,,,,,,,,,,,,,,,,,,,,,,,,,,,,,,,,,,,,,,,,,,,,,,,,,,,,,,,,,,,,,
1738754480.542673,1738754480.543333,123.000000,0.000000,4321.538574,4350.512695,4251.153809,4305.769043,4351.922852,4361.025879,4364.102539,4547.692383,4537.820313,4561.538574,4491.666504,5663.846191,4315.000000,4258.205078,0.000000,4.000000,78.000000,,,,0.000000,0.000000,0.000000,0.000000,0.000000,0.000000,0.000000,0.000000,0.000000,0.000000,0.000000,0.000000,0.000000,0.000000,0.000000,0.000000,,,,,,,,,,,,,,,,,,,,,,,,,,,,,,,,,,,,,,,,,,,,,,,,,,,,,,,,,,,,,,,,,,,,,,,,,,,,,,,,,,,,,,,,,,,,,,,,,,,,,,,,,,,,,,,,,,,,,,,,,,,,,,,,,
1738754480.550482,1738754480.551241,124.000000,0.000000,4323.333496,4348.589844,4248.333496,4305.512695,4353.333496,4357.820313,4365.256348,4552.948730,4538.846191,4557.307617,4494.102539,5660.384766,4310.769043,4256.282227,0.000000,4.000000,78.000000,,,,0.000000,0.000000,0.000000,0.000000,0.000000,0.000000,0.000000,0.000000,0.000000,0.000000,0.000000,0.000000,0.000000,0.000000,0.000000,0.000000,,,,,,,,,,,,,,,,,31.000000,0.000000,0.785055,-0.616272,-0.057983,0.023132,0.056159,-0.957148,0.239287,4.224819,-15.057029,22.684204,,,,,,,,,,,,,,,,,,,,,,,,,,,,,,,,,,,,,,,,,,,,,,,,,,,,,,,,,,,,,,,,,,,,,,,,,,,,,,,,,,,,,,,,,,,,,,,,,,,,,
1738754480.558290,1738754480.559050,125.000000,0.000000,4322.948730,4348.461426,4253.589844,4305.384766,4352.948730,4358.717773,4365.769043,4552.051270,4538.333496,4554.358887,4493.589844,5663.461426,4307.179688,4255.128418,0.000000,4.000000,78.000000,,,,0.000000,0.000000,0.000000,0.000000,0.000000,0.000000,0.000000,0.000000,0.000000,0.000000,0.000000,0.000000,0.000000,0.000000,0.000000,0.000000,,,,,,,,,,,,,,,,,,,,,,,,,,,,,,,,,,,,,,,,,,,,,,,,,,,,,,,,,,,,,,,,,,,,,,,,,,,,,,,,,,,,,,,,,,,,,,,,,,,,,,,,,,,,,,,,,,,,,,,,,,,,,,,,,
1738754480.566098,1738754480.566958,126.000000,0.000000,4320.256348,4347.948730,4256.410156,4301.410156,4350.512695,4359.743652,4361.666504,4546.922852,4539.743652,4556.410156,4494.102539,5661.666504,4313.589844,4257.051270,0.000000,4.000000,78.000000,,,,0.000000,0.000000,0.000000,0.000000,0.000000,0.000000,0.000000,0.000000,0.000000,0.000000,0.000000,0.000000,0.000000,0.000000,0.000000,0.000000,,,,,,,,,,,,,,,,,,,,,,,,,,,,,,,,,,,,,,,,,,,,,,,,,,,,,,,,,,,,0.014706,0.010030,0.011305,0.015751,0.022060,0.024165,0.030591,0.040424,0.018149,0.025740,0.022265,0.015268,0.024354,0.016946,0.020516,0.040791,0.018535,0.032195,0.033050,0.039483,0.020822,0.010188,0.040617,0.016490,0.028442,0.011000,0.018135,0.010880,0.014816,0.032095,0.062384,0.029309,0.034296,0.019928,0.047937,0.032174,0.021488,0.043014,0.023965,0.026771,0.034148,0.013407,0.012126,0.011537,0.018381,0.009736,0.016456,0.026627,0.025970,0.041683,0.021822,0.030739,0.039554,0.025997,0.019731,0.018992,0.050747,0.049193,0.030355,0.035137,0.015595,0.037844,0.019089,0.040096,0.041719,0.053011,0.040494,0.027638,0.028780,0.035368
1738754480.573906,1738754480.574766,127.000000,0.000000,4321.794922,4346.410156,4252.436035,4304.230957,4350.512695,4358.589844,4361.922852,4548.846191,4538.589844,4558.205078,4494.358887,5662.436035,4309.102539,4253.717773,78.000000,4.000000,78.000000,,,,0.000000,0.000000,0.000000,0.000000,0.000000,0.000000,0.000000,0.000000,0.000000,0.000000,0.000000,0.000000,0.000000,0.000000,0.000000,0.000000,,,,,,,,,,,,,,,,,,,,,,,,,,,,,,,,,,,,,,,,,,,,,,,,,,,,,,,,,,,,,,,,,,,,,,,,,,,,,,,,,,,,,,,,,,,,,,,,,,,,,,,,,,,,,,,,,,,,,,,,,,,,,,,,,
1738754480.581714,1738754480.582574,0.000000,0.000000,4322.820313,4348.846191,4252.948730,4304.743652,4352.051270,4359.487305,4363.333496,4548.077148,4539.615234,4560.000000,4493.846191,5662.051270,4308.974121,4259.102539,0.000000,4.000000,78.000000,,,,0.000000,0.000000,0.000000,0.000000,0.000000,0.000000,0.000000,0.000000,0.000000,0.000000,0.000000,0.000000,0.000000,0.000000,0.000000,0.000000,,,,,,,,,,,,,,,,,0.000000,0.000000,0.785055,-0.616272,-0.057983,0.023132,0.058113,-0.974240,0.231962,4.302337,-15.084659,22.665783,,,,,,,,,,,,,,,,,,,,,,,,,,,,,,,,,,,,,,,,,,,,,,,,,,,,,,,,,,,,,,,,,,,,,,,,,,,,,,,,,,,,,,,,,,,,,,,,,,,,,
1738754480.589522,1738754480.590382,1.000000,0.000000,4321.538574,4350.384766,4257.436035,4301.666504,4352.179688,4360.256348,4365.256348,4548.461426,4538.974121,4560.769043,4494.230957,5662.948730,4306.410156,4258.205078,0.000000,4.000000,78.000000,,,,0.000000,0.000000,0.000000,0.000000,0.000000,0.000000,0.000000,0.000000,0.000000,0.000000,0.000000,0.000000,0.000000,0.000000,0.000000,0.000000,,,,,,,,,,,,,,,,,,,,,,,,,,,,,,,,,,,,,,,,,,,,,,,,,,,,,,,,,,,,,,,,,,,,,,,,,,,,,,,,,,,,,,,,,,,,,,,,,,,,,,,,,,,,,,,,,,,,,,,,,,,,,,,,,
1738754480.597330,1738754480.598090,2.000000,0.000000,4321.538574,4350.128418,4254.615234,4302.436035,4351.922852,4358.333496,4364.230957,4550.769043,4536.538574,4558.333496,4498.333496,5663.974121,4307.948730,4251.922852,0.000000,4.000000,78.000000,,,,0.000000,0.000000,0.000000,0.000000,0.000000,0.000000,0.000000,0.000000,0.000000,0.000000,0.000000,0.000000,0.000000,0.000000,0.000000,0.000000,,,,,,,,,,,,,,,,,,,,,,,,,,,,,,,,,,,,,,,,,,,,,,,,,,,,,,,,,,,,,,,,,,,,,,,,,,,,,,,,,,,,,,,,,,,,,,,,,,,,,,,,,,,,,,,,,,,,,,,,,,,,,,,,,
1738754480.605138,1738754480.605898,3.000000,0.000000,4321.025879,4349.102539,4250.000000,4302.051270,4352.436035,4358.846191,4361.153809,4549.102539,4537.051270,4555.769043,4498.333496,5662.436035,4315.128418,4253.589844,0.000000,4.000000,78.000000,,,,0.000000,0.000000,0.000000,0.000000,0.000000,0.000000,0.000000,0.000000,0.000000,0.000000,0.000000,0.000000,0.000000,0.000000,0.000000,0.000000,,,,,,,,,,,,,,,,,,,,,,,,,,,,,,,,,,,,,,,,,,,,,,,,,,,,,,,,,,,,,,,,,,,,,,,,,,,,,,,,,,,,,,,,,,,,,,,,,,,,,,,,,,,,,,,,,,,,,,,,,,,,,,,,,
1738754480.612946,1738754480.613606,4.000000,0.000000,4320.384766,4347.563965,4251.794922,4300.256348,4352.307617,4361.282227,4361.538574,4548.461426,4537.179688,4555.128418,4494.102539,5665.897461,4306.538574,4253.846191,0.000000,4.000000,78.000000,,,,0.000000,0.000000,0.000000,0.000000,0.000000,0.000000,0.000000,0.000000,0.000000,0.000000,0.000000,0.000000,0.000000,0.000000,0.000000,0.000000,,,,,,,,,,,,,,,,,1.000000,0.000000,0.785057,-0.616272,-0.057983,0.023071,0.075204,-0.980588,0.235869,4.305437,-15.126193,22.582539,,,,,,,,,,,,,,,,,,,,,,,,,,,,,,,,,,,,,,,,,,,,,,,,,,,,,,,,,,,,,,,,,,,,,,,,,,,,,,,,,,,,,,,,,,,,,,,,,,,,,
1738754480.620754,1738754480.621414,5.000000,0.000000,4320.384766,4348.846191,4254.615234,4300.000000,4351.538574,4360.512695,4361.794922,4547.051270,4537.179688,4557.051270,4495.512695,5662.307617,4308.077148,4256.922852,0.000000,4.000000,78.000000,,,,0.000000,0.000000,0.000000,0.000000,0.000000,0.000000,0.000000,0.000000,0.000000,0.000000,0.000000,0.000000,0.000000,0.000000,0.000000,0.000000,,,,,,,,,,,,,,,,,,,,,,,,,,,,,,,,,,,,,,,,,,,,,,,,,,,,,,,,,,,,,,,,,,,,,,,,,,,,,,,,,,,,,,,,,,,,,,,,,,,,,,,,,,,,,,,,,,,,,,,,,,,,,,,,,
1738754480.628563,1738754480.629122,6.000000,0.000000,4322.692383,4348.974121,4253.461426,4303.974121,4351.922852,4359.487305,4366.282227,4547.051270,4536.410156,4557.307617,4496.538574,5659.743652,4312.307617,4256.666504,0.000000,4.000000,78.000000,,,,0.000000,0.000000,0.000000,0.000000,0.000000,0.000000,0.000000,0.000000,0.000000,0.000000,0.000000,0.000000,0.000000,0.000000,0.000000,0.000000,,,,,,,,,,,,,,,,,,,,,,,,,,,,,,,,,,,,,,,,,,,,,,,,,,,,,,,,,,,,,,,,,,,,,,,,,,,,,,,,,,,,,,,,,,,,,,,,,,,,,,,,,,,,,,,,,,,,,,,,,,,,,,,,,
1738754480.636371,1738754480.636930,7.000000,0.000000,4322.692383,4349.743652,4251.666504,4302.692383,4352.436035,4362.051270,4368.205078,4547.948730,4535.384766,4555.897461,4497.179688,5664.230957,4306.538574,4254.615234,0.000000,4.000000,78.000000,,,,0.000000,0.000000,0.000000,0.000000,0.000000,0.000000,0.000000,0.000000,0.000000,0.000000,0.000000,0.000000,0.000000,0.000000,0.000000,0.000000,,,,,,,,,,,,,,,,,,,,,,,,,,,,,,,,,,,,,,,,,,,,,,,,,,,,,,,,,,,,,,,,,,,,,,,,,,,,,,,,,,,,,,,,,,,,,,,,,,,,,,,,,,,,,,,,,,,,,,,,,,,,,,,,,
1738754480.644179,1738754480.644638,8.000000,0.000000,4320.897461,4350.512695,4252.051270,4296.410156,4350.128418,4361.538574,4361.794922,4548.205078,4536.153809,4558.205078,4497.563965,5662.563965,4311.153809,4259.743652,0.000000,4.000000,78.000000,,,,0.000000,0.000000,0.000000,0.000000,0.000000,0.000000,0.000000,0.000000,0.000000,0.000000,0.000000,0.000000,0.000000,0.000000,0.000000,0.000000,,,,,,,,,,,,,,,,,2.000000,0.000000,0.785100,-0.616211,-0.058044,0.023071,0.074716,-0.961543,0.235869,4.241560,-15.096907,22.440950,,,,,,,,,,,,,,,,,,,,,,,,,,,,,,,,,,,,,,,,,,,,,,,,,,,,,,,,,,,,,,,,,,,,,,,,,,,,,,,,,,,,,,,,,,,,,,,,,,,,,
1738754480.651987,1738754480.652446,9.000000,0.000000,4324.230957,4347.563965,4252.820313,4299.230957,4348.717773,4358.589844,4364.743652,4549.871582,4535.897461,4560.641113,4494.743652,5664.871582,4311.666504,4256.025879,0.000000,4.000000,78.000000,,,,0.000000,0.000000,0.000000,0.000000,0.000000,0.000000,0.000000,0.000000,0.000000,0.000000,0.000000,0.000000,0.000000,0.000000,0.000000,0.000000,,,,,,,,,,,,,,,,,,,,,,,,,,,,,,,,,,,,,,,,,,,,,,,,,,,,,,,,,,,,,,,,,,,,,,,,,,,,,,,,,,,,,,,,,,,,,,,,,,,,,,,,,,,,,,,,,,,,,,,,,,,,,,,,,
1738754480.659795,1738754480.660154,10.000000,0.000000,4324.230957,4349.743652,4252.948730,4300.897461,4350.897461,4360.256348,4367.436035,4548.461426,4538.077148,4559.230957,4496.666504,5665.897461,4310.000000,4252.436035,0.000000,4.000000,78.000000,,,,0.000000,0.000000,0.000000,0.000000,0.000000,0.000000,0.000000,0.000000,0.000000,0.000000,0.000000,0.000000,0.000000,0.000000,0.000000,0.000000,,,,,,,,,,,,,,,,,,,,,,,,,,,,,,,,,,,,,,,,,,,,,,,,,,,,,,,,,,,,,,,,,,,,,,,,,,,,,,,,,,,,,,,,,,,,,,,,,,,,,,,,,,,,,,,,,,,,,,,,,,,,,,,,,
1738754480.667603,1738754480.667962,11.000000,0.000000,4321.794922,4351.025879,4253.333496,4299.230957,4353.589844,4362.692383,4363.717773,4549.230957,4538.461426,4556.282227,4497.051270,5661.922852,4309.358887,4256.153809,0.000000,4.000000,78.000000,,,,0.000000,0.000000,0.000000,0.000000,0.000000,0.000000,0.000000,0.000000,0.000000,0.000000,0.000000,0.000000,0.000000,0.000000,0.000000,0.000000,,,,,,,,,,,,,,,,,,,,,,,,,,,,,,,,,,,,,,,,,,,,,,,,,,,,,,,,,,,,,,,,,,,,,,,,,,,,,,,,,,,,,,,,,,,,,,,,,,,,,,,,,,,,,,,,,,,,,,,,,,,,,,,,,
1738754480.675411,1738754480.675670,12.000000,0.000000,4323.077148,4346.538574,4251.666504,4301.153809,4352.820313,4361.410156,4365.384766,4551.282227,4535.512695,4556.922852,4493.974121,5661.410156,4308.077148,4256.153809,0.000000,4.000000,78.000000,,,,0.000000,0.000000,0.000000,0.000000,0.000000,0.000000,0.000000,0.000000,0.000000,0.000000,0.000000,0.000000,0.000000,0.000000,0.000000,0.000000,,,,,,,,,,,,,,,,,3.000000,0.000000,0.785050,-0.616272,-0.058105,0.023010,0.062508,-0.973263,0.234404,4.250737,-15.187217,22.463522,,,,,,,,,,,,,,,,,,,,,,,,,,,,,,,,,,,,,,,,,,,,,,,,,,,,,,,,,,,,,,,,,,,,,,,,,,,,,,,,,,,,,,,,,,,,,,,,,,,,,
1738754480.683219,1738754480.683478,13.000000,0.000000,4321.410156,4346.410156,4251.410156,4302.563965,4351.282227,4361.282227,4367.051270,4548.333496,4537.692383,4558.333496,4496.025879,5661.666504,4313.717773,4256.410156,0.000000,4.000000,78.000000,,,,0.000000,0.000000,0.000000,0.000000,0.000000,0.000000,0.000000,0.000000,0.000000,0.000000,0.000000,0.000000,0.000000,0.000000,0.000000,0.000000,,,,,,,,,,,,,,,,,,,,,,,,,,,,,,,,,,,,,,,,,,,,,,,,,,,,,,,,,,,,,,,,,,,,,,,,,,,,,,,,,,,,,,,,,,,,,,,,,,,,,,,,,,,,,,,,,,,,,,,,,,,,,,,,,
1738754480.691027,1738754480.691186,14.000000,0.000000,4319.230957,4348.589844,4253.077148,4302.948730,4351.922852,4361.666504,4369.102539,4549.871582,4539.102539,4556.282227,4495.000000,5665.512695,4308.461426,4253.846191,0.000000,4.000000,78.000000,,,,0.000000,0.000000,0.000000,0.000000,0.000000,0.000000,0.000000,0.000000,0.000000,0.000000,0.000000,0.000000,0.000000,0.000000,0.000000,0.000000,,,,,,,,,,,,,,,,,,,,,,,,,,,,,,,,,,,,,,,,,,,,,,,,,,,,,,,,,,,,0.015572,0.011339,0.012226,0.016777,0.020037,0.021677,0.029603,0.043591,0.024058,0.039826,0.022475,0.016798,0.023859,0.015480,0.018924,0.042304,0.019063,0.035455,0.035050,0.040958,0.018854,0.008748,0.037959,0.017567,0.030415,0.013583,0.018285,0.011756,0.017240,0.039439,0.063324,0.031511,0.036729,0.022855,0.047150,0.041800,0.022799,0.042336,0.021400,0.026978,0.030847,0.011279,0.013411,0.013237,0.018236,0.010657,0.015140,0.022068,0.026519,0.041196,0.020896,0.032577,0.035653,0.026722,0.020590,0.021410,0.049872,0.041630,0.031981,0.042381,0.018761,0.043781,0.024289,0.041048,0.054931,0.057539,0.041195,0.034234,0.031931,0.049439
1738754480.698835,1738754480.698994,15.000000,0.000000,4319.743652,4351.922852,4252.692383,4301.282227,4352.820313,4359.615234,4365.769043,4550.897461,4538.205078,4557.436035,4492.692383,5665.512695,4307.307617,4253.333496,0.000000,4.000000,78.000000,,,,0.000000,0.000000,0.000000,0.000000,0.000000,0.000000,0.000000,0.000000,0.000000,0.000000,0.000000,0.000000,0.000000,0.000000,0.000000,0.000000,,,,,,,,,,,,,,,,,,,,,,,,,,,,,,,,,,,,,,,,,,,,,,,,,,,,,,,,,,,,,,,,,,,,,,,,,,,,,,,,,,,,,,,,,,,,,,,,,,,,,,,,,,,,,,,,,,,,,,,,,,,,,,,,,
1738754480.706643,1738754480.706702,16.000000,0.000000,4322.307617,4350.000000,4250.512695,4301.922852,4353.589844,4359.358887,4362.563965,4548.333496,4538.461426,4559.871582,4495.000000,5664.230957,4313.333496,4255.769043,0.000000,4.000000,78.000000,,,,0.000000,0.000000,0.000000,0.000000,0.000000,0.000000,0.000000,0.000000,0.000000,0.000000,0.000000,0.000000,0.000000,0.000000,0.000000,0.000000,,,,,,,,,,,,,,,,,4.000000,0.000000,0.785052,-0.616272,-0.058105,0.022949,0.067879,-0.974240,0.232939,4.242330,-15.368495,22.467171,,,,,,,,,,,,,,,,,,,,,,,,,,,,,,,,,,,,,,,,,,,,,,,,,,,,,,,,,,,,,,,,,,,,,,,,,,,,,,,,,,,,,,,,,,,,,,,,,,,,,
1738754480.714452,1738754480.714510,17.000000,0.000000,4324.358887,4343.717773,4250.000000,4303.333496,4351.794922,4361.794922,4366.025879,4549.102539,4536.794922,4558.205078,4496.025879,5667.563965,4307.436035,4252.820313,0.000000,4.000000,78.000000,,,,0.000000,0.000000,0.000000,0.000000,0.000000,0.000000,0.000000,0.000000,0.000000,0.000000,0.000000,0.000000,0.000000,0.000000,0.000000,0.000000,,,,,,,,,,,,,,,,,,,,,,,,,,,,,,,,,,,,,,,,,,,,,,,,,,,,,,,,,,,,,,,,,,,,,,,,,,,,,,,,,,,,,,,,,,,,,,,,,,,,,,,,,,,,,,,,,,,,,,,,,,,,,,,,,
1738754480.722260,1738754480.722218,18.000000,0.000000,4322.820313,4348.333496,4254.358887,4301.538574,4350.000000,4362.692383,4364.358887,4548.589844,4536.538574,4558.846191,4496.025879,5663.974121,4306.538574,4253.974121,0.000000,4.000000,78.000000,,,,0.000000,0.000000,0.000000,0.000000,0.000000,0.000000,0.000000,0.000000,0.000000,0.000000,0.000000,0.000000,0.000000,0.000000,0.000000,0.000000,,,,,,,,,,,,,,,,,,,,,,,,,,,,,,,,,,,,,,,,,,,,,,,,,,,,,,,,,,,,,,,,,,,,,,,,,,,,,,,,,,,,,,,,,,,,,,,,,,,,,,,,,,,,,,,,,,,,,,,,,,,,,,,,,
1738754480.730068,1738754480.730126,19.000000,0.000000,4322.307617,4353.333496,4257.436035,4303.974121,4353.717773,4362.051270,4363.717773,4550.641113,4537.179688,4559.871582,4495.897461,5663.974121,4306.153809,4255.000000,0.000000,4.000000,78.000000,,,,0.000000,0.000000,0.000000,0.000000,0.000000,0.000000,0.000000,0.000000,0.000000,0.000000,0.000000,0.000000,0.000000,0.000000,0.000000,0.000000,,,,,,,,,,,,,,,,,,,,,,,,,,,,,,,,,,,,,,,,,,,,,,,,,,,,,,,,,,,,,,,,,,,,,,,,,,,,,,,,,,,,,,,,,,,,,,,,,,,,,,,,,,,,,,,,,,,,,,,,,,,,,,,,,
1738754480.737876,1738754480.737935,20.000000,0.000000,4321.922852,4347.948730,4256.153809,4304.358887,4354.230957,4361.538574,4363.717773,4550.897461,4537.820313,4559.743652,4497.948730,5665.769043,4308.717773,4255.384766,0.000000,4.000000,78.000000,,,,0.000000,0.000000,0.000000,0.000000,0.000000,0.000000,0.000000,0.000000,0.000000,0.000000,0.000000,0.000000,0.000000,0.000000,0.000000,0.000000,,,,,,,,,,,,,,,,,5.000000,0.000000,0.785004,-0.616333,-0.058105,0.022949,0.070321,-0.966915,0.238799,4.334764,-15.431645,22.520452,,,,,,,,,,,,,,,,,,,,,,,,,,,,,,,,,,,,,,,,,,,,,,,,,,,,,,,,,,,,,,,,,,,,,,,,,,,,,,,,,,,,,,,,,,,,,,,,,,,,,
1738754480.745684,1738754480.745843,21.000000,0.000000,4319.871582,4346.666504,4255.641113,4299.615234,4349.615234,4361.025879,4362.179688,4546.025879,4538.333496,4560.897461,4499.230957,5662.820313,4311.794922,4256.666504,0.000000,4.000000,78.000000,,,,0.000000,0.000000,0.000000,0.000000,0.000000,0.000000,0.000000,0.000000,0.000000,0.000000,0.000000,0.000000,0.000000,0.000000,0.000000,0.000000,,,,,,,,,,,,,,,,,,,,,,,,,,,,,,,,,,,,,,,,,,,,,,,,,,,,,,,,,,,,,,,,,,,,,,,,,,,,,,,,,,,,,,,,,,,,,,,,,,,,,,,,,,,,,,,,,,,,,,,,,,,,,,,,,
1738754480.753492,1738754480.753651,22.000000,0.000000,4318.974121,4350.128418,4254.487305,4299.871582,4350.256348,4361.538574,4364.871582,4547.051270,4535.769043,4560.128418,4498.461426,5663.974121,4306.282227,4255.128418,0.000000,4.000000,78.000000,,,,0.000000,0.000000,0.000000,0.000000,0.000000,0.000000,0.000000,0.000000,0.000000,0.000000,0.000000,0.000000,0.000000,0.000000,0.000000,0.000000,,,,,,,,,,,,,,,,,,,,,,,,,,,,,,,,,,,,,,,,,,,,,,,,,,,,,,,,,,,,,,,,,,,,,,,,,,,,,,,,,,,,,,,,,,,,,,,,,,,,,,,,,,,,,,,,,,,,,,,,,,,,,,,,,
1738754480.761300,1738754480.761559,23.000000,0.000000,4319.487305,4350.256348,4251.922852,4300.000000,4353.205078,4362.307617,4364.230957,4547.948730,4538.333496,4558.461426,4497.820313,5660.769043,4311.794922,4257.436035,0.000000,4.000000,78.000000,,,,0.000000,0.000000,0.000000,0.000000,0.000000,0.000000,0.000000,0.000000,0.000000,0.000000,0.000000,0.000000,0.000000,0.000000,0.000000,0.000000,,,,,,,,,,,,,,,,,,,,,,,,,,,,,,,,,,,,,,,,,,,,,,,,,,,,,,,,,,,,,,,,,,,,,,,,,,,,,,,,,,,,,,,,,,,,,,,,,,,,,,,,,,,,,,,,,,,,,,,,,,,,,,,,,
1738754480.769108,1738754480.769367,24.000000,0.000000,4322.307617,4348.077148,4252.179688,4299.871582,4351.282227,4361.282227,4363.333496,4548.205078,4542.436035,4558.077148,4497.179688,5660.769043,4311.153809,4255.641113,0.000000,4.000000,78.000000,,,,0.000000,0.000000,0.000000,0.000000,0.000000,0.000000,0.000000,0.000000,0.000000,0.000000,0.000000,0.000000,0.000000,0.000000,0.000000,0.000000,,,,,,,,,,,,,,,,,6.000000,0.000000,0.785006,-0.616333,-0.058044,0.023010,0.067879,-0.976193,0.230009,4.334620,-15.271814,22.451742,,,,,,,,,,,,,,,,,,,,,,,,,,,,,,,,,,,,,,,,,,,,,,,,,,,,,,,,,,,,,,,,,,,,,,,,,,,,,,,,,,,,,,,,,,,,,,,,,,,,,
1738754480.776916,1738754480.777275,25.000000,0.000000,4322.948730,4348.461426,4252.436035,4301.538574,4350.641113,4360.384766,4364.487305,4549.230957,4539.615234,4557.436035,4496.410156,5663.717773,4305.769043,4256.666504,0.000000,4.000000,78.000000,,,,0.000000,0.000000,0.000000,0.000000,0.000000,0.000000,0.000000,0.000000,0.000000,0.000000,0.000000,0.000000,0.000000,0.000000,0.000000,0.000000,,,,,,,,,,,,,,,,,,,,,,,,,,,,,,,,,,,,,,,,,,,,,,,,,,,,,,,,,,,,,,,,,,,,,,,,,,,,,,,,,,,,,,,,,,,,,,,,,,,,,,,,,,,,,,,,,,,,,,,,,,,,,,,,,
1738754480.784725,1738754480.785084,26.000000,0.000000,4321.666504,4349.871582,4252.051270,4302.051270,4352.051270,4361.153809,4365.128418,4547.563965,4537.051270,4557.179688,4494.487305,5662.051270,4309.871582,4262.179688,0.000000,4.000000,78.000000,,,,0.000000,0.000000,0.000000,0.000000,0.000000,0.000000,0.000000,0.000000,0.000000,0.000000,0.000000,0.000000,0.000000,0.000000,0.000000,0.000000,,,,,,,,,,,,,,,,,,,,,,,,,,,,,,,,,,,,,,,,,,,,,,,,,,,,,,,,,,,,,,,,,,,,,,,,,,,,,,,,,,,,,,,,,,,,,,,,,,,,,,,,,,,,,,,,,,,,,,,,,,,,,,,,,
1738754480.792533,1738754480.792992,27.000000,0.000000,4323.205078,4348.205078,4253.333496,4301.410156,4350.128418,4361.922852,4366.153809,4549.871582,4538.077148,4557.820313,4493.077148,5664.230957,4308.461426,4255.512695,0.000000,4.000000,78.000000,,,,0.000000,0.000000,0.000000,0.000000,0.000000,0.000000,0.000000,0.000000,0.000000,0.000000,0.000000,0.000000,0.000000,0.000000,0.000000,0.000000,,,,,,,,,,,,,,,,,,,,,,,,,,,,,,,,,,,,,,,,,,,,,,,,,,,,,,,,,,,,,,,,,,,,,,,,,,,,,,,,,,,,,,,,,,,,,,,,,,,,,,,,,,,,,,,,,,,,,,,,,,,,,,,,,
1738754480.800341,1738754480.800800,28.000000,0.000000,4322.820313,4348.205078,4252.179688,4297.820313,4350.641113,4359.871582,4364.358887,4550.384766,4540.641113,4559.615234,4495.000000,5662.307617,4312.051270,4252.820313,0.000000,4.000000,78.000000,,,,0.000000,0.000000,0.000000,0.000000,0.000000,0.000000,0.000000,0.000000,0.000000,0.000000,0.000000,0.000000,0.000000,0.000000,0.000000,0.000000,,,,,,,,,,,,,,,,,7.000000,0.000000,0.785006,-0.616333,-0.058044,0.023010,0.057624,-0.969357,0.238799,4.401159,-15.327966,22.539900,,,,,,,,,,,,,,,,,,,,,,,,,,,,,,,,,,,,,,,,,,,,,,,,,,,,,,,,,,,,,,,,,,,,,,,,,,,,,,,,,,,,,,,,,,,,,,,,,,,,,
1738754480.808149,1738754480.808608,29.000000,0.000000,4320.000000,4349.102539,4249.358887,4297.820313,4352.436035,4360.000000,4367.051270,4549.230957,4539.358887,4558.846191,4494.743652,5661.282227,4310.256348,4253.974121,0.000000,4.000000,78.000000,,,,0.000000,0.000000,0.000000,0.000000,0.000000,0.000000,0.000000,0.000000,0.000000,0.000000,0.000000,0.000000,0.000000,0.000000,0.000000,0.000000,,,,,,,,,,,,,,,,,,,,,,,,,,,,,,,,,,,,,,,,,,,,,,,,,,,,,,,,,,,,,,,,,,,,,,,,,,,,,,,,,,,,,,,,,,,,,,,,,,,,,,,,,,,,,,,,,,,,,,,,,,,,,,,,,
1738754480.815957,1738754480.816416,30.000000,0.000000,4320.512695,4348.333496,4251.410156,4300.000000,4351.282227,4362.563965,4367.563965,4548.846191,4537.436035,4557.948730,4490.897461,5664.358887,4306.666504,4252.948730,0.000000,4.000000,78.000000,,,,0.000000,0.000000,0.000000,0.000000,0.000000,0.000000,0.000000,0.000000,0.000000,0.000000,0.000000,0.000000,0.000000,0.000000,0.000000,0.000000,1.000000,0.000000,0.000000,0.000000,0.000000,0.000000,0.000000,0.000000,0.000000,0.000000,0.000000,0.000000,0.000000,0.000000,0.000000,0.000000,,,,,,,,,,,,,,,,,,,,,,,,,,,,,,,,,,,,,,,,,,,,0.017752,0.013524,0.012810,0.017413,0.019168,0.019489,0.028003,0.048784,0.035784,0.067726,0.024968,0.019962,0.023325,0.014476,0.018431,0.044935,0.020247,0.037750,0.036150,0.043304,0.017505,0.008434,0.035076,0.019278,0.032605,0.016353,0.019124,0.012469,0.021122,0.049385,0.061308,0.032748,0.037860,0.027482,0.045469,0.048526,0.023442,0.040895,0.020293,0.030370,0.029921,0.010603,0.014240,0.015963,0.019161,0.011630,0.015737,0.018631,0.027042,0.039026,0.019936,0.033057,0.031995,0.028289,0.022110,0.023874,0.050470,0.035193,0.035499,0.054848,0.024729,0.053453,0.030233,0.045594,0.080940,0.058419,0.048402,0.049044,0.040704,0.076770
1738754480.823765,1738754480.824124,31.000000,0.000000,4322.820313,4348.717773,4255.128418,4298.974121,4351.538574,4360.512695,4362.436035,4547.692383,4539.615234,4559.871582,4491.410156,5662.820313,4313.077148,4257.563965,0.000000,4.000000,78.000000,,,,0.000000,0.000000,0.000000,0.000000,0.000000,0.000000,0.000000,0.000000,0.000000,0.000000,0.000000,0.000000,0.000000,0.000000,0.000000,0.000000,,,,,,,,,,,,,,,,,,,,,,,,,,,,,,,,,,,,,,,,,,,,,,,,,,,,,,,,,,,,,,,,,,,,,,,,,,,,,,,,,,,,,,,,,,,,,,,,,,,,,,,,,,,,,,,,,,,,,,,,,,,,,,,,,
1738754480.831573,1738754480.831932,32.000000,0.000000,4321.666504,4347.179688,4254.230957,4302.307617,4352.307617,4358.974121,4367.307617,4549.102539,4539.358887,4558.333496,4492.307617,5662.563965,4307.307617,4257.563965,0.000000,4.000000,78.000000,,,,0.000000,0.000000,0.000000,0.000000,0.000000,0.000000,0.000000,0.000000,0.000000,0.000000,0.000000,0.000000,0.000000,0.000000,0.000000,0.000000,,,,,,,,,,,,,,,,,8.000000,0.000000,0.784962,-0.616394,-0.058044,0.022888,0.065438,-0.981077,0.230497,4.444376,-15.345169,22.469244,,,,,,,,,,,,,,,,,,,,,,,,,,,,,,,,,,,,,,,,,,,,,,,,,,,,,,,,,,,,,,,,,,,,,,,,,,,,,,,,,,,,,,,,,,,,,,,,,,,,,
1738754480.839381,1738754480.839640,33.000000,0.000000,4319.871582,4347.179688,4252.820313,4305.128418,4349.743652,4362.563965,4368.846191,4548.333496,4539.358887,4555.000000,4492.307617,5660.769043,4308.333496,4254.615234,0.000000,4.000000,78.000000,,,,0.000000,0.000000,0.000000,0.000000,0.000000,0.000000,0.000000,0.000000,0.000000,0.000000,0.000000,0.000000,0.000000,0.000000,0.000000,0.000000,,,,,,,,,,,,,,,,,,,,,,,,,,,,,,,,,,,,,,,,,,,,,,,,,,,,,,,,,,,,,,,,,,,,,,,,,,,,,,,,,,,,,,,,,,,,,,,,,,,,,,,,,,,,,,,,,,,,,,,,,,,,,,,,,
1738754480.847189,1738754480.847448,34.000000,0.000000,4321.794922,4348.333496,4254.871582,4302.820313,4348.461426,4363.846191,4364.230957,4547.051270,4539.102539,4557.051270,4496.153809,5662.692383,4313.846191,4253.974121,0.000000,4.000000,78.000000,,,,0.000000,0.000000,0.000000,0.000000,0.000000,0.000000,0.000000,0.000000,0.000000,0.000000,0.000000,0.000000,0.000000,0.000000,0.000000,0.000000,,,,,,,,,,,,,,,,,,,,,,,,,,,,,,,,,,,,,,,,,,,,,,,,,,,,,,,,,,,,,,,,,,,,,,,,,,,,,,,,,,,,,,,,,,,,,,,,,,,,,,,,,,,,,,,,,,,,,,,,,,,,,,,,,
1738754480.854998,1738754480.855156,35.000000,0.000000,4323.461426,4347.692383,4255.384766,4297.820313,4351.794922,4361.282227,4365.384766,4547.948730,4537.692383,4558.589844,4497.436035,5666.922852,4309.102539,4255.897461,0.000000,4.000000,78.000000,,,,0.000000,0.000000,0.000000,0.000000,0.000000,0.000000,0.000000,0.000000,0.000000,0.000000,0.000000,0.000000,0.000000,0.000000,0.000000,0.000000,,,,,,,,,,,,,,,,,,,,,,,,,,,,,,,,,,,,,,,,,,,,,,,,,,,,,,,,,,,,,,,,,,,,,,,,,,,,,,,,,,,,,,,,,,,,,,,,,,,,,,,,,,,,,,,,,,,,,,,,,,,,,,,,,
1738754480.862805,1738754480.862964,36.000000,0.000000,4323.333496,4349.871582,4254.102539,4295.512695,4352.692383,4360.384766,4365.769043,4547.820313,4539.358887,4554.871582,4495.256348,5661.410156,4311.922852,4260.128418,0.000000,4.000000,78.000000,,,,0.000000,0.000000,0.000000,0.000000,0.000000,0.000000,0.000000,0.000000,0.000000,0.000000,0.000000,0.000000,0.000000,0.000000,0.000000,0.000000,,,,,,,,,,,,,,,,,9.000000,0.000000,0.785008,-0.616333,-0.058044,0.022949,0.075693,-0.976193,0.238310,4.449938,-15.260653,22.505653,,,,,,,,,,,,,,,,,,,,,,,,,,,,,,,,,,,,,,,,,,,,,,,,,,,,,,,,,,,,,,,,,,,,,,,,,,,,,,,,,,,,,,,,,,,,,,,,,,,,,
1738754480.870614,1738754480.870672,37.000000,0.000000,4323.333496,4349.230957,4253.077148,4301.794922,4350.897461,4360.384766,4367.051270,4550.128418,4537.563965,4554.615234,4492.307617,5662.692383,4308.461426,4256.538574,0.000000,4.000000,78.000000,,,,0.000000,0.000000,0.000000,0.000000,0.000000,0.000000,0.000000,0.000000,0.000000,0.000000,0.000000,0.000000,0.000000,0.000000,0.000000,0.000000,,,,,,,,,,,,,,,,,,,,,,,,,,,,,,,,,,,,,,,,,,,,,,,,,,,,,,,,,,,,,,,,,,,,,,,,,,,,,,,,,,,,,,,,,,,,,,,,,,,,,,,,,,,,,,,,,,,,,,,,,,,,,,,,,
1738754480.878422,1738754480.878580,38.000000,0.000000,4321.538574,4346.153809,4250.769043,4302.179688,4351.410156,4361.410156,4367.051270,4548.461426,4536.666504,4559.615234,4493.974121,5665.897461,4307.692383,4255.256348,0.000000,4.000000,78.000000,,,,0.000000,0.000000,0.000000,0.000000,0.000000,0.000000,0.000000,0.000000,0.000000,0.000000,0.000000,0.000000,0.000000,0.000000,0.000000,0.000000,,,,,,,,,,,,,,,,,,,,,,,,,,,,,,,,,,,,,,,,,,,,,,,,,,,,,,,,,,,,,,,,,,,,,,,,,,,,,,,,,,,,,,,,,,,,,,,,,,,,,,,,,,,,,,,,,,,,,,,,,,,,,,,,,
1738754480.886230,1738754480.886388,39.000000,0.000000,4321.922852,4346.666504,4250.641113,4298.974121,4352.307617,4362.948730,4366.025879,4545.512695,4537.436035,4560.128418,4495.897461,5661.410156,4312.692383,4257.179688,0.000000,4.000000,78.000000,,,,0.000000,0.000000,0.000000,0.000000,0.000000,0.000000,0.000000,0.000000,0.000000,0.000000,0.000000,0.000000,0.000000,0.000000,0.000000,0.000000,,,,,,,,,,,,,,,,,,,,,,,,,,,,,,,,,,,,,,,,,,,,,,,,,,,,,,,,,,,,,,,,,,,,,,,,,,,,,,,,,,,,,,,,,,,,,,,,,,,,,,,,,,,,,,,,,,,,,,,,,,,,,,,,,
1738754480.894038,1738754480.894296,40.000000,0.000000,4323.974121,4347.692383,4253.461426,4304.487305,4352.051270,4359.871582,4365.512695,4549.487305,4535.769043,4556.922852,4494.743652,5663.974121,4307.820313,4255.384766,0.000000,4.000000,78.000000,,,,0.000000,0.000000,0.000000,0.000000,0.000000,0.000000,0.000000,0.000000,0.000000,0.000000,0.000000,0.000000,0.000000,0.000000,0.000000,0.000000,,,,,,,,,,,,,,,,,10.000000,0.000000,0.785007,-0.616333,-0.058105,0.022827,0.058113,-0.981565,0.243194,4.488278,-15.117921,22.438421,,,,,,,,,,,,,,,,,,,,,,,,,,,,,,,,,,,,,,,,,,,,,,,,,,,,,,,,,,,,,,,,,,,,,,,,,,,,,,,,,,,,,,,,,,,,,,,,,,,,,
1738754480.901846,1738754480.902105,41.000000,0.000000,4322.179688,4347.692383,4253.974121,4304.615234,4352.307617,4357.307617,4360.897461,4548.461426,4539.102539,4557.692383,4496.922852,5664.743652,4308.974121,4257.436035,0.000000,4.000000,78.000000,,,,0.000000,0.000000,0.000000,0.000000,0.000000,0.000000,0.000000,0.000000,0.000000,0.000000,0.000000,0.000000,0.000000,0.000000,0.000000,0.000000,,,,,,,,,,,,,,,,,,,,,,,,,,,,,,,,,,,,,,,,,,,,,,,,,,,,,,,,,,,,,,,,,,,,,,,,,,,,,,,,,,,,,,,,,,,,,,,,,,,,,,,,,,,,,,,,,,,,,,,,,,,,,,,,,
1738754480.909654,1738754480.910013,42.000000,0.000000,4321.794922,4346.538574,4252.820313,4302.436035,4352.563965,4359.615234,4361.025879,4546.922852,4538.461426,4558.846191,4496.153809,5663.717773,4306.922852,4256.410156,0.000000,4.000000,78.000000,,,,0.000000,0.000000,0.000000,0.000000,0.000000,0.000000,0.000000,0.000000,0.000000,0.000000,0.000000,0.000000,0.000000,0.000000,0.000000,0.000000,,,,,,,,,,,,,,,,,,,,,,,,,,,,,,,,,,,,,,,,,,,,,,,,,,,,,,,,,,,,,,,,,,,,,,,,,,,,,,,,,,,,,,,,,,,,,,,,,,,,,,,,,,,,,,,,,,,,,,,,,,,,,,,,,
1738754480.917462,1738754480.917821,43.000000,0.000000,4322.563965,4348.205078,4252.307617,4303.461426,4350.641113,4360.641113,4363.205078,4550.000000,4534.487305,4560.128418,4495.897461,5665.000000,4307.563965,4257.179688,0.000000,4.000000,78.000000,,,,0.000000,0.000000,0.000000,0.000000,0.000000,0.000000,0.000000,0.000000,0.000000,0.000000,0.000000,0.000000,0.000000,0.000000,0.000000,0.000000,,,,,,,,,,,,,,,,,,,,,,,,,,,,,,,,,,,,,,,,,,,,,,,,,,,,,,,,,,,,,,,,,,,,,,,,,,,,,,,,,,,,,,,,,,,,,,,,,,,,,,,,,,,,,,,,,,,,,,,,,,,,,,,,,
1738754480.925270,1738754480.925729,44.000000,0.000000,4321.794922,4351.025879,4252.820313,4303.077148,4349.871582,4359.743652,4364.871582,4551.410156,4538.717773,4560.256348,4498.461426,5663.205078,4312.820313,4258.589844,0.000000,4.000000,78.000000,,,,0.000000,0.000000,0.000000,0.000000,0.000000,0.000000,0.000000,0.000000,0.000000,0.000000,0.000000,0.000000,0.000000,0.000000,0.000000,0.000000,,,,,,,,,,,,,,,,,11.000000,0.000000,0.784964,-0.616394,-0.058044,0.022827,0.070321,-0.974240,0.241240,4.572783,-15.056129,22.561245,,,,,,,,,,,,,,,,,,,,,,,,,,,,,,,,,,,,,,,,,,,,,,,,,,,,,,,,,,,,,,,,,,,,,,,,,,,,,,,,,,,,,,,,,,,,,,,,,,,,,
1738754480.933078,1738754480.933537,45.000000,0.000000,4322.820313,4350.000000,4253.205078,4305.641113,4351.794922,4359.102539,4367.692383,4550.641113,4540.769043,4559.487305,4498.333496,5663.461426,4306.410156,4252.563965,0.000000,4.000000,78.000000,,,,0.000000,0.000000,0.000000,0.000000,0.000000,0.000000,0.000000,0.000000,0.000000,0.000000,0.000000,0.000000,0.000000,0.000000,0.000000,0.000000,,,,,,,,,,,,,,,,,,,,,,,,,,,,,,,,,,,,,,,,,,,,,,,,,,,,,,,,,,,,,,,,,,,,,,,,,,,,,,,,,,,,,,,,,,,,,,,,,,,,,,,,,,,,,,,,,,,,,,,,,,,,,,,,,
1738754480.940886,1738754480.941445,46.000000,0.000000,4322.436035,4350.641113,4251.922852,4304.871582,4352.307617,4357.820313,4363.589844,4546.922852,4539.358887,4560.384766,4498.589844,5662.051270,4310.641113,4255.000000,0.000000,4.000000,78.000000,,,,0.000000,0.000000,0.000000,0.000000,0.000000,0.000000,0.000000,0.000000,0.000000,0.000000,0.000000,0.000000,0.000000,0.000000,0.000000,0.000000,,,,,,,,,,,,,,,,,,,,,,,,,,,,,,,,,,,,,,,,,,,,,,,,,,,,,,,,,,,,0.020154,0.015888,0.013145,0.017619,0.019575,0.018054,0.026288,0.055928,0.052017,0.106489,0.028539,0.023233,0.023176,0.014047,0.019028,0.049979,0.023134,0.039059,0.036944,0.046214,0.017404,0.009434,0.032058,0.021734,0.034751,0.018847,0.021103,0.013191,0.026014,0.060081,0.056762,0.032790,0.037072,0.032450,0.043099,0.050320,0.022591,0.038456,0.020783,0.036624,0.031464,0.011930,0.014287,0.019072,0.021042,0.012486,0.018851,0.017833,0.027426,0.035527,0.018853,0.032385,0.029265,0.029746,0.023864,0.026100,0.052494,0.031282,0.040893,0.072049,0.032238,0.064688,0.035563,0.052907,0.117457,0.055060,0.061420,0.070182,0.054818,0.114607
1738754480.948695,1738754480.949254,47.000000,0.000000,4321.794922,4350.512695,4253.333496,4302.436035,4350.512695,4360.128418,4362.436035,4548.461426,4539.487305,4559.358887,4496.666504,5662.948730,4310.769043,4255.641113,0.000000,4.000000,78.000000,,,,0.000000,0.000000,0.000000,0.000000,0.000000,0.000000,0.000000,0.000000,0.000000,0.000000,0.000000,0.000000,0.000000,0.000000,0.000000,0.000000,,,,,,,,,,,,,,,,,,,,,,,,,,,,,,,,,,,,,,,,,,,,,,,,,,,,,,,,,,,,,,,,,,,,,,,,,,,,,,,,,,,,,,,,,,,,,,,,,,,,,,,,,,,,,,,,,,,,,,,,,,,,,,,,,
1738754480.956503,1738754480.957162,48.000000,0.000000,4322.948730,4349.615234,4255.641113,4300.769043,4350.384766,4362.051270,4366.282227,4550.000000,4538.589844,4558.333496,4495.897461,5664.358887,4305.128418,4254.615234,0.000000,4.000000,78.000000,,,,0.000000,0.000000,0.000000,0.000000,0.000000,0.000000,0.000000,0.000000,0.000000,0.000000,0.000000,0.000000,0.000000,0.000000,0.000000,0.000000,,,,,,,,,,,,,,,,,12.000000,0.000000,0.784964,-0.616394,-0.058044,0.022827,0.067879,-0.975705,0.242705,4.615505,-15.083849,22.638454,,,,,,,,,,,,,,,,,,,,,,,,,,,,,,,,,,,,,,,,,,,,,,,,,,,,,,,,,,,,,,,,,,,,,,,,,,,,,,,,,,,,,,,,,,,,,,,,,,,,,
1738754480.964311,1738754480.964970,49.000000,0.000000,4322.179688,4349.743652,4253.205078,4300.256348,4351.794922,4360.000000,4364.871582,4546.922852,4536.153809,4560.641113,4498.589844,5662.051270,4311.922852,4260.128418,0.000000,4.000000,78.000000,,,,0.000000,0.000000,0.000000,0.000000,0.000000,0.000000,0.000000,0.000000,0.000000,0.000000,0.000000,0.000000,0.000000,0.000000,0.000000,0.000000,,,,,,,,,,,,,,,,,,,,,,,,,,,,,,,,,,,,,,,,,,,,,,,,,,,,,,,,,,,,,,,,,,,,,,,,,,,,,,,,,,,,,,,,,,,,,,,,,,,,,,,,,,,,,,,,,,,,,,,,,,,,,,,,,
1738754480.972119,1738754480.972878,50.000000,0.000000,4321.282227,4348.077148,4251.410156,4303.974121,4350.769043,4359.358887,4363.846191,4551.282227,4537.307617,4561.025879,4496.282227,5664.743652,4308.461426,4255.512695,0.000000,4.000000,78.000000,,,,0.000000,0.000000,0.000000,0.000000,0.000000,0.000000,0.000000,0.000000,0.000000,0.000000,0.000000,0.000000,0.000000,0.000000,0.000000,0.000000,,,,,,,,,,,,,,,,,,,,,,,,,,,,,,,,,,,,,,,,,,,,,,,,,,,,,,,,,,,,,,,,,,,,,,,,,,,,,,,,,,,,,,,,,,,,,,,,,,,,,,,,,,,,,,,,,,,,,,,,,,,,,,,,,
1738754480.979927,1738754480.980686,51.000000,0.000000,4322.436035,4347.948730,4252.948730,4303.205078,4351.025879,4360.641113,4363.974121,4552.820313,4540.256348,4559.615234,4494.487305,5663.333496,4307.948730,4252.948730,0.000000,4.000000,78.000000,,,,0.000000,0.000000,0.000000,0.000000,0.000000,0.000000,0.000000,0.000000,0.000000,0.000000,0.000000,0.000000,0.000000,0.000000,0.000000,0.000000,,,,,,,,,,,,,,,,,,,,,,,,,,,,,,,,,,,,,,,,,,,,,,,,,,,,,,,,,,,,,,,,,,,,,,,,,,,,,,,,,,,,,,,,,,,,,,,,,,,,,,,,,,,,,,,,,,,,,,,,,,,,,,,,,
1738754480.987735,1738754480.988394,52.000000,0.000000,4323.717773,4349.230957,4253.205078,4301.666504,4353.461426,4361.282227,4364.358887,4549.743652,4536.922852,4557.820313,4495.384766,5663.846191,4310.256348,4257.051270,0.000000,4.000000,78.000000,,,,0.000000,0.000000,0.000000,0.000000,0.000000,0.000000,0.000000,0.000000,0.000000,0.000000,0.000000,0.000000,0.000000,0.000000,0.000000,0.000000,,,,,,,,,,,,,,,,,13.000000,0.000000,0.784916,-0.616455,-0.058044,0.022827,0.065926,-0.977170,0.234404,4.603955,-15.158797,22.541275,,,,,,,,,,,,,,,,,,,,,,,,,,,,,,,,,,,,,,,,,,,,,,,,,,,,,,,,,,,,,,,,,,,,,,,,,,,,,,,,,,,,,,,,,,,,,,,,,,,,,
1738754480.995543,1738754480.996202,53.000000,0.000000,4321.410156,4350.256348,4252.051270,4303.077148,4353.717773,4359.743652,4365.769043,4549.871582,4534.871582,4554.871582,4494.487305,5667.948730,4307.436035,4256.153809,0.000000,4.000000,78.000000,,,,0.000000,0.000000,0.000000,0.000000,0.000000,0.000000,0.000000,0.000000,0.000000,0.000000,0.000000,0.000000,0.000000,0.000000,0.000000,0.000000,,,,,,,,,,,,,,,,,,,,,,,,,,,,,,,,,,,,,,,,,,,,,,,,,,,,,,,,,,,,,,,,,,,,,,,,,,,,,,,,,,,,,,,,,,,,,,,,,,,,,,,,,,,,,,,,,,,,,,,,,,,,,,,,,
1738754481.003351,1738754481.003910,54.000000,0.000000,4319.358887,4351.282227,4253.589844,4301.922852,4350.128418,4358.461426,4364.358887,4549.743652,4538.205078,4556.538574,4493.974121,5661.922852,4312.692383,4257.563965,0.000000,4.000000,78.000000,,,,0.000000,0.000000,0.000000,0.000000,0.000000,0.000000,0.000000,0.000000,0.000000,0.000000,0.000000,0.000000,0.000000,0.000000,0.000000,0.000000,,,,,,,,,,,,,,,,,,,,,,,,,,,,,,,,,,,,,,,,,,,,,,,,,,,,,,,,,,,,,,,,,,,,,,,,,,,,,,,,,,,,,,,,,,,,,,,,,,,,,,,,,,,,,,,,,,,,,,,,,,,,,,,,,
1738754481.011159,1738754481.011818,55.000000,0.000000,4322.948730,4349.487305,4254.615234,4303.333496,4348.589844,4358.717773,4366.410156,4549.102539,4538.461426,4561.282227,4493.205078,5661.282227,4310.512695,4256.410156,0.000000,4.000000,78.000000,,,,0.000000,0.000000,0.000000,0.000000,0.000000,0.000000,0.000000,0.000000,0.000000,0.000000,0.000000,0.000000,0.000000,0.000000,0.000000,0.000000,,,,,,,,,,,,,,,,,,,,,,,,,,,,,,,,,,,,,,,,,,,,,,,,,,,,,,,,,,,,,,,,,,,,,,,,,,,,,,,,,,,,,,,,,,,,,,,,,,,,,,,,,,,,,,,,,,,,,,,,,,,,,,,,,
1738754481.018968,1738754481.019627,56.000000,0.000000,4322.436035,4350.384766,4252.307617,4303.846191,4352.307617,4358.974121,4366.410156,4546.410156,4538.333496,4560.641113,4495.128418,5663.974121,4310.384766,4255.384766,0.000000,4.000000,78.000000,,,,0.000000,0.000000,0.000000,0.000000,0.000000,0.000000,0.000000,0.000000,0.000000,0.000000,0.000000,0.000000,0.000000,0.000000,0.000000,0.000000,,,,,,,,,,,,,,,,,14.000000,0.000000,0.784911,-0.616455,-0.058105,0.022827,0.053717,-0.971798,0.241240,4.576892,-15.109584,22.637148,,,,,,,,,,,,,,,,,,,,,,,,,,,,,,,,,,,,,,,,,,,,,,,,,,,,,,,,,,,,,,,,,,,,,,,,,,,,,,,,,,,,,,,,,,,,,,,,,,,,,
1738754481.026775,1738754481.027535,57.000000,0.000000,4319.743652,4353.205078,4251.025879,4300.128418,4354.615234,4360.128418,4362.948730,4545.000000,4538.589844,4557.948730,4496.153809,5662.948730,4311.025879,4257.436035,0.000000,4.000000,78.000000,,,,0.000000,0.000000,0.000000,0.000000,0.000000,0.000000,0.000000,0.000000,0.000000,0.000000,0.000000,0.000000,0.000000,0.000000,0.000000,0.000000,,,,,,,,,,,,,,,,,,,,,,,,,,,,,,,,,,,,,,,,,,,,,,,,,,,,,,,,,,,,,,,,,,,,,,,,,,,,,,,,,,,,,,,,,,,,,,,,,,,,,,,,,,,,,,,,,,,,,,,,,,,,,,,,,
1738754481.034584,1738754481.035343,58.000000,0.000000,4322.307617,4351.153809,4251.922852,4298.333496,4351.282227,4361.794922,4367.051270,4549.102539,4537.948730,4560.000000,4494.871582,5664.102539,4305.512695,4257.948730,0.000000,4.000000,78.000000,,,,0.000000,0.000000,0.000000,0.000000,0.000000,0.000000,0.000000,0.000000,0.000000,0.000000,0.000000,0.000000,0.000000,0.000000,0.000000,0.000000,,,,,,,,,,,,,,,,,,,,,,,,,,,,,,,,,,,,,,,,,,,,,,,,,,,,,,,,,,,,,,,,,,,,,,,,,,,,,,,,,,,,,,,,,,,,,,,,,,,,,,,,,,,,,,,,,,,,,,,,,,,,,,,,,
1738754481.042392,1738754481.043151,59.000000,0.000000,4322.692383,4348.077148,4252.820313,4298.461426,4350.897461,4360.384766,4369.487305,4550.256348,4539.743652,4564.102539,4494.487305,5660.641113,4308.974121,4259.615234,0.000000,4.000000,78.000000,,,,0.000000,0.000000,0.000000,0.000000,0.000000,0.000000,0.000000,0.000000,0.000000,0.000000,0.000000,0.000000,0.000000,0.000000,0.000000,0.000000,,,,,,,,,,,,,,,,,,,,,,,,,,,,,,,,,,,,,,,,,,,,,,,,,,,,,,,,,,,,,,,,,,,,,,,,,,,,,,,,,,,,,,,,,,,,,,,,,,,,,,,,,,,,,,,,,,,,,,,,,,,,,,,,,
