title:bread1, start timestamp:1738755384.494329, stop timestamp:1738755385.524998, headset type:EPOCX, headset serial:E50208A5, headset firmware:720, channels:168, sampling rate:eeg_128;mot_32;pm_0.1;pow_8, samples:133       , version:2.2, 
Timestamp,OriginalTimestamp,EEG.Counter,EEG.Interpolated,EEG.AF3,EEG.F7,EEG.F3,EEG.FC5,EEG.T7,EEG.P7,EEG.O1,EEG.O2,EEG.P8,EEG.T8,EEG.FC6,EEG.F4,EEG.F8,EEG.AF4,EEG.RawCq,EEG.Battery,EEG.BatteryPercent,MarkerIndex,MarkerType,MarkerValueInt,EEG.MarkerHardware,CQ.AF3,CQ.F7,CQ.F3,CQ.FC5,CQ.T7,CQ.P7,CQ.O1,CQ.O2,CQ.P8,CQ.T8,CQ.FC6,CQ.F4,CQ.F8,CQ.AF4,CQ.Overall,EQ.SampleRateQuality,EQ.OVERALL,EQ.AF3,EQ.F7,EQ.F3,EQ.FC5,EQ.T7,EQ.P7,EQ.O1,EQ.O2,EQ.P8,EQ.T8,EQ.FC6,EQ.F4,EQ.F8,EQ.AF4,MOT.CounterMems,MOT.InterpolatedMems,MOT.Q0,MOT.Q1,MOT.Q2,MOT.Q3,MOT.AccX,MOT.AccY,MOT.AccZ,MOT.MagX,MOT.MagY,MOT.MagZ,PM.Attention.IsActive,PM.Attention.Scaled,PM.Attention.Raw,PM.Attention.Min,PM.Attention.Max,PM.Engagement.IsActive,PM.Engagement.Scaled,PM.Engagement.Raw,PM.Engagement.Min,PM.Engagement.Max,PM.Excitement.IsActive,PM.Excitement.Scaled,PM.Excitement.Raw,PM.Excitement.Min,PM.Excitement.Max,PM.LongTermExcitement,PM.Stress.IsActive,PM.Stress.Scaled,PM.Stress.Raw,PM.Stress.Min,PM.Stress.Max,PM.Relaxation.IsActive,PM.Relaxation.Scaled,PM.Relaxation.Raw,PM.Relaxation.Min,PM.Relaxation.Max,PM.Interest.IsActive,PM.Interest.Scaled,PM.Interest.Raw,PM.Interest.Min,PM.Interest.Max,POW.AF3.Theta,POW.AF3.Alpha,POW.AF3.BetaL,POW.AF3.BetaH,POW.AF3.Gamma,POW.F7.Theta,POW.F7.Alpha,POW.F7.BetaL,POW.F7.BetaH,POW.F7.Gamma,POW.F3.Theta,POW.F3.Alpha,POW.F3.BetaL,POW.F3.BetaH,POW.F3.Gamma,POW.FC5.Theta,POW.FC5.Alpha,POW.FC5.BetaL,POW.FC5.BetaH,POW.FC5.Gamma,POW.T7.Theta,POW.T7.Alpha,POW.T7.BetaL,POW.T7.BetaH,POW.T7.Gamma,POW.P7.Theta,POW.P7.Alpha,POW.P7.BetaL,POW.P7.BetaH,POW.P7.Gamma,POW.O1.Theta,POW.O1.Alpha,POW.O1.BetaL,POW.O1.BetaH,POW.O1.Gamma,POW.O2.Theta,POW.O2.Alpha,POW.O2.BetaL,POW.O2.BetaH,POW.O2.Gamma,POW.P8.Theta,POW.P8.Alpha,POW.P8.BetaL,POW.P8.BetaH,POW.P8.Gamma,POW.T8.Theta,POW.T8.Alpha,POW.T8.BetaL,POW.T8.BetaH,POW.T8.Gamma,POW.FC6.Theta,POW.FC6.Alpha,POW.FC6.BetaL,POW.FC6.BetaH,POW.FC6.Gamma,POW.F4.Theta,POW.F4.Alpha,POW.F4.BetaL,POW.F4.BetaH,POW.F4.Gamma,POW.F8.Theta,POW.F8.Alpha,POW.F8.BetaL,POW.F8.BetaH,POW.F8.Gamma,POW.AF4.Theta,POW.AF4.Alpha,POW.AF4.BetaL,POW.AF4.BetaH,POW.AF4.Gamma
1738755384.494329,1738755384.494494,54.000000,0.000000,4324.871582,4348.974121,4254.230957,4302.948730,4349.615234,4359.358887,4366.922852,4548.846191,4541.666504,4558.717773,4500.000000,5662.307617,4306.153809,4253.077148,0.000000,4.000000,75.000000,,,,0.000000,0.000000,0.000000,0.000000,0.000000,0.000000,0.000000,0.000000,0.000000,0.000000,0.000000,0.000000,0.000000,0.000000,0.000000,0.000000,,,,,,,,,,,,,,,,,,,,,,,,,,,,,,,,,,,,,,,,,,,,,,,,,,,,,,,,,,,,,,,,,,,,,,,,,,,,,,,,,,,,,,,,,,,,,,,,,,,,,,,,,,,,,,,,,,,,,,,,,,,,,,,,,
1738755384.502137,1738755384.502202,55.000000,0.000000,4324.358887,4346.922852,4254.487305,4301.794922,4353.333496,4359.615234,4366.282227,4550.769043,4543.333496,4559.487305,4498.589844,5660.000000,4309.358887,4256.666504,0.000000,4.000000,75.000000,,,,0.000000,0.000000,0.000000,0.000000,0.000000,0.000000,0.000000,0.000000,0.000000,0.000000,0.000000,0.000000,0.000000,0.000000,0.000000,0.000000,,,,,,,,,,,,,,,,,,,,,,,,,,,,,,,,,,,,,,,,,,,,,,,,,,,,,,,,,,,,,,,,,,,,,,,,,,,,,,,,,,,,,,,,,,,,,,,,,,,,,,,,,,,,,,,,,,,,,,,,,,,,,,,,,
1738755384.509945,1738755384.510110,56.000000,0.000000,4321.025879,4347.692383,4256.538574,4303.589844,4353.717773,4362.051270,4368.077148,4552.692383,4543.077148,4558.461426,4495.384766,5663.717773,4311.794922,4254.487305,0.000000,4.000000,75.000000,,,,0.000000,0.000000,0.000000,0.000000,0.000000,0.000000,0.000000,0.000000,0.000000,0.000000,0.000000,0.000000,0.000000,0.000000,0.000000,0.000000,,,,,,,,,,,,,,,,,14.000000,0.000000,0.785307,-0.615417,-0.061646,0.027466,0.065926,-0.971798,0.224148,4.699466,-15.517001,22.700912,,,,,,,,,,,,,,,,,,,,,,,,,,,,,,,,,,,,,,,,,,,,,,,,,,,,,,,,,,,,,,,,,,,,,,,,,,,,,,,,,,,,,,,,,,,,,,,,,,,,,
1738755384.517753,1738755384.517918,57.000000,0.000000,4320.641113,4348.974121,4258.717773,4302.948730,4349.487305,4361.410156,4367.948730,4549.102539,4542.563965,4558.846191,4495.897461,5664.358887,4313.717773,4254.615234,0.000000,4.000000,75.000000,,,,0.000000,0.000000,0.000000,0.000000,0.000000,0.000000,0.000000,0.000000,0.000000,0.000000,0.000000,0.000000,0.000000,0.000000,0.000000,0.000000,,,,,,,,,,,,,,,,,,,,,,,,,,,,,,,,,,,,,,,,,,,,,,,,,,,,,,,,,,,,,,,,,,,,,,,,,,,,,,,,,,,,,,,,,,,,,,,,,,,,,,,,,,,,,,,,,,,,,,,,,,,,,,,,,
1738755384.525561,1738755384.525827,58.000000,0.000000,4323.205078,4348.846191,4257.307617,4301.282227,4349.615234,4357.563965,4367.307617,4549.230957,4541.153809,4559.358887,4497.436035,5659.487305,4312.436035,4256.153809,0.000000,4.000000,75.000000,,,,0.000000,0.000000,0.000000,0.000000,0.000000,0.000000,0.000000,0.000000,0.000000,0.000000,0.000000,0.000000,0.000000,0.000000,0.000000,0.000000,,,,,,,,,,,,,,,,,,,,,,,,,,,,,,,,,,,,,,,,,,,,,,,,,,,,,,,,,,,,,,,,,,,,,,,,,,,,,,,,,,,,,,,,,,,,,,,,,,,,,,,,,,,,,,,,,,,,,,,,,,,,,,,,,
1738755384.533369,1738755384.533635,59.000000,0.000000,4325.384766,4349.102539,4254.615234,4303.077148,4353.205078,4358.077148,4366.666504,4554.615234,4538.205078,4557.948730,4498.205078,5661.666504,4306.922852,4255.256348,0.000000,4.000000,75.000000,,,,0.000000,0.000000,0.000000,0.000000,0.000000,0.000000,0.000000,0.000000,0.000000,0.000000,0.000000,0.000000,0.000000,0.000000,0.000000,0.000000,,,,,,,,,,,,,,,,,,,,,,,,,,,,,,,,,,,,,,,,,,,,,,,,,,,,,,,,,,,,,,,,,,,,,,,,,,,,,,,,,,,,,,,,,,,,,,,,,,,,,,,,,,,,,,,,,,,,,,,,,,,,,,,,,
1738755384.541177,1738755384.541543,60.000000,0.000000,4322.948730,4349.743652,4255.897461,4305.512695,4350.769043,4360.384766,4362.436035,4552.692383,4540.384766,4560.128418,4499.871582,5663.717773,4313.205078,4257.948730,0.000000,4.000000,75.000000,,,,0.000000,0.000000,0.000000,0.000000,0.000000,0.000000,0.000000,0.000000,0.000000,0.000000,0.000000,0.000000,0.000000,0.000000,0.000000,0.000000,,,,,,,,,,,,,,,,,15.000000,0.000000,0.785307,-0.615417,-0.061646,0.027466,0.063973,-0.968380,0.230497,4.679520,-15.581967,22.630821,,,,,,,,,,,,,,,,,,,,,,,,,,,,,,,,,,,,,,,,,,,,,,,,,,,,,,,,,,,,,,,,,,,,,,,,,,,,,,,,,,,,,,,,,,,,,,,,,,,,,
1738755384.548985,1738755384.549351,61.000000,0.000000,4321.153809,4348.974121,4256.153809,4309.871582,4349.358887,4360.000000,4362.436035,4551.153809,4541.794922,4562.179688,4498.589844,5662.692383,4312.436035,4256.025879,0.000000,4.000000,75.000000,,,,0.000000,0.000000,0.000000,0.000000,0.000000,0.000000,0.000000,0.000000,0.000000,0.000000,0.000000,0.000000,0.000000,0.000000,0.000000,0.000000,,,,,,,,,,,,,,,,,,,,,,,,,,,,,,,,,,,,,,,,,,,,,,,,,,,,,,,,,,,,,,,,,,,,,,,,,,,,,,,,,,,,,,,,,,,,,,,,,,,,,,,,,,,,,,,,,,,,,,,,,,,,,,,,,
1738755384.556794,1738755384.557259,62.000000,0.000000,4321.282227,4349.358887,4250.641113,4306.538574,4352.179688,4359.615234,4364.358887,4552.948730,4540.512695,4558.717773,4495.000000,5660.512695,4309.230957,4256.410156,0.000000,4.000000,75.000000,,,,0.000000,0.000000,0.000000,0.000000,0.000000,0.000000,0.000000,0.000000,0.000000,0.000000,0.000000,0.000000,0.000000,0.000000,0.000000,0.000000,,,,,,,,,,,,,,,,,,,,,,,,,,,,,,,,,,,,,,,,,,,,,,,,,,,,,,,,,,,,0.007412,0.030025,0.030224,0.019333,0.021294,0.012798,0.013359,0.009272,0.014694,0.017977,0.034738,0.011914,0.057710,0.022718,0.018688,0.034712,0.019423,0.019060,0.021784,0.033128,0.010342,0.008634,0.012838,0.008892,0.015477,0.019233,0.026525,0.024507,0.018656,0.038252,0.035712,0.040457,0.026520,0.032024,0.033942,0.026715,0.034046,0.052454,0.015495,0.020013,0.007277,0.026981,0.047187,0.020774,0.019519,0.018150,0.024771,0.012367,0.017709,0.024608,0.026605,0.009236,0.028711,0.010053,0.027125,0.020658,0.015752,0.025559,0.018221,0.034198,0.037880,0.023532,0.032270,0.026665,0.044781,0.021105,0.010951,0.019604,0.020698,0.026518
1738755384.564602,1738755384.565067,63.000000,0.000000,4320.512695,4348.717773,4250.256348,4301.153809,4352.436035,4362.692383,4363.974121,4550.897461,4540.512695,4558.461426,4495.256348,5661.666504,4312.948730,4259.743652,0.000000,4.000000,75.000000,,,,0.000000,0.000000,0.000000,0.000000,0.000000,0.000000,0.000000,0.000000,0.000000,0.000000,0.000000,0.000000,0.000000,0.000000,0.000000,0.000000,,,,,,,,,,,,,,,,,,,,,,,,,,,,,,,,,,,,,,,,,,,,,,,,,,,,,,,,,,,,,,,,,,,,,,,,,,,,,,,,,,,,,,,,,,,,,,,,,,,,,,,,,,,,,,,,,,,,,,,,,,,,,,,,,
1738755384.572410,1738755384.572876,64.000000,0.000000,4320.769043,4347.436035,4254.487305,4303.461426,4351.153809,4362.563965,4364.358887,4548.589844,4539.871582,4561.922852,4496.410156,5664.358887,4310.512695,4256.922852,0.000000,4.000000,75.000000,,,,0.000000,0.000000,0.000000,0.000000,0.000000,0.000000,0.000000,0.000000,0.000000,0.000000,0.000000,0.000000,0.000000,0.000000,0.000000,0.000000,,,,,,,,,,,,,,,,,16.000000,0.000000,0.785254,-0.615479,-0.061707,0.027466,0.071786,-0.980588,0.230985,4.794901,-15.507104,22.451073,,,,,,,,,,,,,,,,,,,,,,,,,,,,,,,,,,,,,,,,,,,,,,,,,,,,,,,,,,,,,,,,,,,,,,,,,,,,,,,,,,,,,,,,,,,,,,,,,,,,,
1738755384.580218,1738755384.580684,65.000000,0.000000,4320.256348,4350.769043,4255.384766,4302.563965,4351.153809,4358.846191,4362.051270,4548.461426,4539.615234,4561.025879,4497.948730,5658.589844,4309.615234,4257.179688,0.000000,4.000000,75.000000,,,,0.000000,0.000000,0.000000,0.000000,0.000000,0.000000,0.000000,0.000000,0.000000,0.000000,0.000000,0.000000,0.000000,0.000000,0.000000,0.000000,,,,,,,,,,,,,,,,,,,,,,,,,,,,,,,,,,,,,,,,,,,,,,,,,,,,,,,,,,,,,,,,,,,,,,,,,,,,,,,,,,,,,,,,,,,,,,,,,,,,,,,,,,,,,,,,,,,,,,,,,,,,,,,,,
1738755384.588026,1738755384.588392,66.000000,0.000000,4320.512695,4350.641113,4254.871582,4301.410156,4351.153809,4359.230957,4364.230957,4551.025879,4539.871582,4558.461426,4496.922852,5660.512695,4305.512695,4256.538574,0.000000,4.000000,75.000000,,,,0.000000,0.000000,0.000000,0.000000,0.000000,0.000000,0.000000,0.000000,0.000000,0.000000,0.000000,0.000000,0.000000,0.000000,0.000000,0.000000,,,,,,,,,,,,,,,,,,,,,,,,,,,,,,,,,,,,,,,,,,,,,,,,,,,,,,,,,,,,,,,,,,,,,,,,,,,,,,,,,,,,,,,,,,,,,,,,,,,,,,,,,,,,,,,,,,,,,,,,,,,,,,,,,
1738755384.595834,1738755384.596200,67.000000,0.000000,4321.153809,4348.846191,4254.615234,4302.436035,4351.794922,4360.256348,4366.282227,4551.282227,4539.102539,4559.230957,4496.666504,5667.179688,4306.153809,4254.615234,0.000000,4.000000,75.000000,,,,0.000000,0.000000,0.000000,0.000000,0.000000,0.000000,0.000000,0.000000,0.000000,0.000000,0.000000,0.000000,0.000000,0.000000,0.000000,0.000000,,,,,,,,,,,,,,,,,,,,,,,,,,,,,,,,,,,,,,,,,,,,,,,,,,,,,,,,,,,,,,,,,,,,,,,,,,,,,,,,,,,,,,,,,,,,,,,,,,,,,,,,,,,,,,,,,,,,,,,,,,,,,,,,,
1738755384.603642,1738755384.603908,68.000000,0.000000,4322.179688,4351.538574,4255.128418,4300.769043,4353.461426,4359.871582,4364.615234,4548.589844,4537.820313,4559.871582,4499.743652,5662.820313,4311.282227,4256.282227,0.000000,4.000000,75.000000,,,,0.000000,0.000000,0.000000,0.000000,0.000000,0.000000,0.000000,0.000000,0.000000,0.000000,0.000000,0.000000,0.000000,0.000000,0.000000,0.000000,,,,,,,,,,,,,,,,,17.000000,0.000000,0.785202,-0.615540,-0.061707,0.027588,0.073251,-0.973263,0.235869,4.682077,-15.439727,22.489298,,,,,,,,,,,,,,,,,,,,,,,,,,,,,,,,,,,,,,,,,,,,,,,,,,,,,,,,,,,,,,,,,,,,,,,,,,,,,,,,,,,,,,,,,,,,,,,,,,,,,
1738755384.611450,1738755384.611716,69.000000,0.000000,4323.077148,4351.538574,4256.922852,4301.025879,4351.794922,4362.563965,4367.307617,4549.743652,4538.077148,4559.102539,4498.077148,5661.153809,4303.461426,4253.205078,0.000000,4.000000,75.000000,,,,0.000000,0.000000,0.000000,0.000000,0.000000,0.000000,0.000000,0.000000,0.000000,0.000000,0.000000,0.000000,0.000000,0.000000,0.000000,0.000000,,,,,,,,,,,,,,,,,,,,,,,,,,,,,,,,,,,,,,,,,,,,,,,,,,,,,,,,,,,,,,,,,,,,,,,,,,,,,,,,,,,,,,,,,,,,,,,,,,,,,,,,,,,,,,,,,,,,,,,,,,,,,,,,,
1738755384.619258,1738755384.619424,70.000000,0.000000,4319.102539,4350.128418,4257.563965,4301.410156,4349.615234,4363.077148,4364.743652,4548.846191,4539.230957,4557.307617,4498.461426,5661.794922,4306.025879,4253.333496,0.000000,4.000000,75.000000,,,,0.000000,0.000000,0.000000,0.000000,0.000000,0.000000,0.000000,0.000000,0.000000,0.000000,0.000000,0.000000,0.000000,0.000000,0.000000,0.000000,,,,,,,,,,,,,,,,,,,,,,,,,,,,,,,,,,,,,,,,,,,,,,,,,,,,,,,,,,,,,,,,,,,,,,,,,,,,,,,,,,,,,,,,,,,,,,,,,,,,,,,,,,,,,,,,,,,,,,,,,,,,,,,,,
1738755384.627066,1738755384.627332,71.000000,0.000000,4319.743652,4349.102539,4257.820313,4302.948730,4350.256348,4361.153809,4361.410156,4547.179688,4539.102539,4555.641113,4499.871582,5660.512695,4311.025879,4258.846191,0.000000,4.000000,75.000000,,,,0.000000,0.000000,0.000000,0.000000,0.000000,0.000000,0.000000,0.000000,0.000000,0.000000,0.000000,0.000000,0.000000,0.000000,0.000000,0.000000,,,,,,,,,,,,,,,,,,,,,,,,,,,,,,,,,,,,,,,,,,,,,,,,,,,,,,,,,,,,,,,,,,,,,,,,,,,,,,,,,,,,,,,,,,,,,,,,,,,,,,,,,,,,,,,,,,,,,,,,,,,,,,,,,
1738755384.634874,1738755384.635140,72.000000,0.000000,4325.128418,4349.743652,4257.948730,4305.000000,4350.000000,4361.666504,4365.769043,4548.846191,4540.641113,4556.794922,4499.230957,5660.769043,4306.794922,4259.102539,0.000000,4.000000,75.000000,,,,0.000000,0.000000,0.000000,0.000000,0.000000,0.000000,0.000000,0.000000,0.000000,0.000000,0.000000,0.000000,0.000000,0.000000,0.000000,0.000000,,,,,,,,,,,,,,,,,18.000000,0.000000,0.785202,-0.615540,-0.061707,0.027588,0.071786,-0.978635,0.234892,4.747203,-15.379087,22.490368,,,,,,,,,,,,,,,,,,,,,,,,,,,,,,,,,,,,,,,,,,,,,,,,,,,,,,,,,,,,,,,,,,,,,,,,,,,,,,,,,,,,,,,,,,,,,,,,,,,,,
1738755384.642683,1738755384.642948,73.000000,0.000000,4322.179688,4350.641113,4255.000000,4302.436035,4349.358887,4360.256348,4366.282227,4549.615234,4542.436035,4560.641113,4499.102539,5660.641113,4309.743652,4257.948730,0.000000,4.000000,75.000000,,,,0.000000,0.000000,0.000000,0.000000,0.000000,0.000000,0.000000,0.000000,0.000000,0.000000,0.000000,0.000000,0.000000,0.000000,0.000000,0.000000,,,,,,,,,,,,,,,,,,,,,,,,,,,,,,,,,,,,,,,,,,,,,,,,,,,,,,,,,,,,,,,,,,,,,,,,,,,,,,,,,,,,,,,,,,,,,,,,,,,,,,,,,,,,,,,,,,,,,,,,,,,,,,,,,
1738755384.650491,1738755384.650657,74.000000,0.000000,4319.487305,4348.717773,4254.358887,4302.563965,4350.128418,4361.025879,4363.974121,4550.256348,4538.846191,4561.538574,4495.000000,5663.717773,4308.461426,4257.563965,0.000000,4.000000,75.000000,,,,0.000000,0.000000,0.000000,0.000000,0.000000,0.000000,0.000000,0.000000,0.000000,0.000000,0.000000,0.000000,0.000000,0.000000,0.000000,0.000000,,,,,,,,,,,,,,,,,,,,,,,,,,,,,,,,,,,,,,,,,,,,,,,,,,,,,,,,,,,,,,,,,,,,,,,,,,,,,,,,,,,,,,,,,,,,,,,,,,,,,,,,,,,,,,,,,,,,,,,,,,,,,,,,,
1738755384.658299,1738755384.658464,75.000000,0.000000,4322.436035,4350.000000,4254.615234,4304.230957,4352.179688,4365.256348,4363.974121,4548.461426,4536.410156,4561.025879,4494.102539,5662.948730,4309.230957,4257.820313,0.000000,4.000000,75.000000,,,,0.000000,0.000000,0.000000,0.000000,0.000000,0.000000,0.000000,0.000000,0.000000,0.000000,0.000000,0.000000,0.000000,0.000000,0.000000,0.000000,,,,,,,,,,,,,,,,,,,,,,,,,,,,,,,,,,,,,,,,,,,,,,,,,,,,,,,,,,,,,,,,,,,,,,,,,,,,,,,,,,,,,,,,,,,,,,,,,,,,,,,,,,,,,,,,,,,,,,,,,,,,,,,,,
1738755384.666107,1738755384.666173,76.000000,0.000000,4322.692383,4353.589844,4253.717773,4304.615234,4352.051270,4362.692383,4365.512695,4547.820313,4538.717773,4560.128418,4496.025879,5661.025879,4311.922852,4255.641113,0.000000,4.000000,75.000000,,,,0.000000,0.000000,0.000000,0.000000,0.000000,0.000000,0.000000,0.000000,0.000000,0.000000,0.000000,0.000000,0.000000,0.000000,0.000000,0.000000,,,,,,,,,,,,,,,,,19.000000,0.000000,0.785245,-0.615479,-0.061768,0.027588,0.064461,-0.968868,0.225613,4.639150,-15.424512,22.491331,,,,,,,,,,,,,,,,,,,,,,,,,,,,,,,,,,,,,,,,,,,,,,,,,,,,,,,,,,,,,,,,,,,,,,,,,,,,,,,,,,,,,,,,,,,,,,,,,,,,,
1738755384.673915,1738755384.674081,77.000000,0.000000,4320.769043,4353.846191,4252.436035,4304.487305,4351.410156,4359.358887,4366.538574,4550.256348,4539.358887,4559.102539,4496.282227,5665.512695,4308.333496,4256.410156,0.000000,4.000000,75.000000,,,,0.000000,0.000000,0.000000,0.000000,0.000000,0.000000,0.000000,0.000000,0.000000,0.000000,0.000000,0.000000,0.000000,0.000000,0.000000,0.000000,,,,,,,,,,,,,,,,,,,,,,,,,,,,,,,,,,,,,,,,,,,,,,,,,,,,,,,,,,,,,,,,,,,,,,,,,,,,,,,,,,,,,,,,,,,,,,,,,,,,,,,,,,,,,,,,,,,,,,,,,,,,,,,,,
1738755384.681723,1738755384.681889,78.000000,0.000000,4320.769043,4352.051270,4251.025879,4301.025879,4352.436035,4362.948730,4365.769043,4549.230957,4538.461426,4560.128418,4496.922852,5665.128418,4310.897461,4261.922852,0.000000,4.000000,75.000000,,,,0.000000,0.000000,0.000000,0.000000,0.000000,0.000000,0.000000,0.000000,0.000000,0.000000,0.000000,0.000000,0.000000,0.000000,0.000000,0.000000,,,,,,,,,,,,,,,,,,,,,,,,,,,,,,,,,,,,,,,,,,,,,,,,,,,,,,,,,,,,0.008064,0.029873,0.036922,0.019499,0.021717,0.014888,0.016327,0.007949,0.013986,0.016554,0.041403,0.012894,0.054956,0.025075,0.018599,0.036414,0.020789,0.021421,0.021120,0.030047,0.012898,0.006967,0.013840,0.009485,0.017307,0.020896,0.026597,0.023833,0.018497,0.038388,0.033043,0.044503,0.030119,0.034482,0.032774,0.024261,0.035018,0.050203,0.015522,0.019868,0.008865,0.028708,0.049278,0.021101,0.018821,0.018241,0.026197,0.010840,0.017978,0.022772,0.026073,0.014512,0.033399,0.011108,0.028473,0.021925,0.013693,0.023826,0.018240,0.036734,0.040721,0.025827,0.030735,0.031572,0.043453,0.028484,0.012361,0.018441,0.020251,0.025085
1738755384.689531,1738755384.689797,79.000000,0.000000,4321.922852,4349.743652,4253.589844,4300.641113,4352.948730,4362.692383,4367.307617,4548.461426,4537.051270,4558.846191,4496.666504,5663.589844,4309.358887,4260.641113,0.000000,4.000000,75.000000,,,,0.000000,0.000000,0.000000,0.000000,0.000000,0.000000,0.000000,0.000000,0.000000,0.000000,0.000000,0.000000,0.000000,0.000000,0.000000,0.000000,,,,,,,,,,,,,,,,,,,,,,,,,,,,,,,,,,,,,,,,,,,,,,,,,,,,,,,,,,,,,,,,,,,,,,,,,,,,,,,,,,,,,,,,,,,,,,,,,,,,,,,,,,,,,,,,,,,,,,,,,,,,,,,,,
1738755384.697339,1738755384.697605,80.000000,0.000000,4323.589844,4347.692383,4255.128418,4303.333496,4351.538574,4358.461426,4368.974121,4549.230957,4540.128418,4558.077148,4497.051270,5664.230957,4308.077148,4259.487305,0.000000,4.000000,75.000000,,,,0.000000,0.000000,0.000000,0.000000,0.000000,0.000000,0.000000,0.000000,0.000000,0.000000,0.000000,0.000000,0.000000,0.000000,0.000000,0.000000,,,,,,,,,,,,,,,,,20.000000,0.000000,0.785190,-0.615540,-0.061829,0.027649,0.058113,-0.971310,0.226102,4.591901,-15.465394,22.525532,,,,,,,,,,,,,,,,,,,,,,,,,,,,,,,,,,,,,,,,,,,,,,,,,,,,,,,,,,,,,,,,,,,,,,,,,,,,,,,,,,,,,,,,,,,,,,,,,,,,,
1738755384.705147,1738755384.705513,81.000000,0.000000,4324.487305,4348.846191,4255.256348,4304.358887,4350.641113,4361.410156,4369.871582,4550.512695,4544.615234,4558.717773,4498.077148,5666.025879,4306.410156,4260.000000,0.000000,4.000000,75.000000,,,,0.000000,0.000000,0.000000,0.000000,0.000000,0.000000,0.000000,0.000000,0.000000,0.000000,0.000000,0.000000,0.000000,0.000000,0.000000,0.000000,,,,,,,,,,,,,,,,,,,,,,,,,,,,,,,,,,,,,,,,,,,,,,,,,,,,,,,,,,,,,,,,,,,,,,,,,,,,,,,,,,,,,,,,,,,,,,,,,,,,,,,,,,,,,,,,,,,,,,,,,,,,,,,,,
1738755384.712956,1738755384.713321,82.000000,0.000000,4320.897461,4351.153809,4255.000000,4303.461426,4351.922852,4363.717773,4368.974121,4551.794922,4541.153809,4558.974121,4496.666504,5666.666504,4304.487305,4258.077148,0.000000,4.000000,75.000000,,,,0.000000,0.000000,0.000000,0.000000,0.000000,0.000000,0.000000,0.000000,0.000000,0.000000,0.000000,0.000000,0.000000,0.000000,0.000000,0.000000,,,,,,,,,,,,,,,,,,,,,,,,,,,,,,,,,,,,,,,,,,,,,,,,,,,,,,,,,,,,,,,,,,,,,,,,,,,,,,,,,,,,,,,,,,,,,,,,,,,,,,,,,,,,,,,,,,,,,,,,,,,,,,,,,
1738755384.720764,1738755384.721230,83.000000,0.000000,4320.641113,4351.282227,4254.230957,4302.436035,4352.051270,4359.487305,4365.641113,4548.974121,4537.820313,4559.743652,4495.897461,5661.538574,4313.717773,4258.974121,0.000000,4.000000,75.000000,,,,0.000000,0.000000,0.000000,0.000000,0.000000,0.000000,0.000000,0.000000,0.000000,0.000000,0.000000,0.000000,0.000000,0.000000,0.000000,0.000000,,,,,,,,,,,,,,,,,,,,,,,,,,,,,,,,,,,,,,,,,,,,,,,,,,,,,,,,,,,,,,,,,,,,,,,,,,,,,,,,,,,,,,,,,,,,,,,,,,,,,,,,,,,,,,,,,,,,,,,,,,,,,,,,,
1738755384.728572,1738755384.729038,84.000000,0.000000,4327.307617,4349.743652,4255.769043,4302.436035,4352.179688,4358.974121,4368.461426,4548.333496,4537.692383,4560.384766,4498.077148,5662.563965,4313.589844,4257.307617,0.000000,4.000000,75.000000,,,,0.000000,0.000000,0.000000,0.000000,0.000000,0.000000,0.000000,0.000000,0.000000,0.000000,0.000000,0.000000,0.000000,0.000000,0.000000,0.000000,,,,,,,,,,,,,,,,,21.000000,0.000000,0.785188,-0.615540,-0.061890,0.027588,0.063973,-0.972287,0.239775,4.732711,-15.385522,22.406313,,,,,,,,,,,,,,,,,,,,,,,,,,,,,,,,,,,,,,,,,,,,,,,,,,,,,,,,,,,,,,,,,,,,,,,,,,,,,,,,,,,,,,,,,,,,,,,,,,,,,
1738755384.736380,1738755384.736946,85.000000,0.000000,4325.256348,4348.846191,4255.769043,4301.538574,4352.692383,4361.666504,4368.717773,4548.333496,4538.205078,4561.538574,4498.077148,5664.102539,4311.153809,4257.563965,0.000000,4.000000,75.000000,,,,0.000000,0.000000,0.000000,0.000000,0.000000,0.000000,0.000000,0.000000,0.000000,0.000000,0.000000,0.000000,0.000000,0.000000,0.000000,0.000000,,,,,,,,,,,,,,,,,,,,,,,,,,,,,,,,,,,,,,,,,,,,,,,,,,,,,,,,,,,,,,,,,,,,,,,,,,,,,,,,,,,,,,,,,,,,,,,,,,,,,,,,,,,,,,,,,,,,,,,,,,,,,,,,,
1738755384.744188,1738755384.744754,86.000000,0.000000,4318.205078,4347.820313,4254.358887,4303.205078,4351.666504,4362.563965,4365.000000,4550.000000,4539.230957,4560.512695,4495.128418,5662.563965,4313.333496,4259.743652,0.000000,4.000000,75.000000,,,,0.000000,0.000000,0.000000,0.000000,0.000000,0.000000,0.000000,0.000000,0.000000,0.000000,0.000000,0.000000,0.000000,0.000000,0.000000,0.000000,,,,,,,,,,,,,,,,,,,,,,,,,,,,,,,,,,,,,,,,,,,,,,,,,,,,,,,,,,,,,,,,,,,,,,,,,,,,,,,,,,,,,,,,,,,,,,,,,,,,,,,,,,,,,,,,,,,,,,,,,,,,,,,,,
1738755384.751996,1738755384.752662,87.000000,0.000000,4322.563965,4348.589844,4253.077148,4304.102539,4351.025879,4360.384766,4368.846191,4553.461426,4537.563965,4557.948730,4496.153809,5668.077148,4308.974121,4256.794922,0.000000,4.000000,75.000000,,,,0.000000,0.000000,0.000000,0.000000,0.000000,0.000000,0.000000,0.000000,0.000000,0.000000,0.000000,0.000000,0.000000,0.000000,0.000000,0.000000,,,,,,,,,,,,,,,,,,,,,,,,,,,,,,,,,,,,,,,,,,,,,,,,,,,,,,,,,,,,,,,,,,,,,,,,,,,,,,,,,,,,,,,,,,,,,,,,,,,,,,,,,,,,,,,,,,,,,,,,,,,,,,,,,
1738755384.759804,1738755384.760470,88.000000,0.000000,4326.153809,4352.051270,4253.333496,4298.717773,4351.666504,4357.692383,4370.000000,4547.563965,4540.128418,4558.589844,4499.615234,5667.051270,4310.897461,4257.563965,0.000000,4.000000,75.000000,,,,0.000000,0.000000,0.000000,0.000000,0.000000,0.000000,0.000000,0.000000,0.000000,0.000000,0.000000,0.000000,0.000000,0.000000,0.000000,0.000000,,,,,,,,,,,,,,,,,22.000000,0.000000,0.785147,-0.615601,-0.061768,0.027649,0.054206,-0.977170,0.236845,4.759440,-15.546969,22.332348,,,,,,,,,,,,,,,,,,,,,,,,,,,,,,,,,,,,,,,,,,,,,,,,,,,,,,,,,,,,,,,,,,,,,,,,,,,,,,,,,,,,,,,,,,,,,,,,,,,,,
1738755384.767612,1738755384.768279,89.000000,0.000000,4322.051270,4350.512695,4255.256348,4299.230957,4352.307617,4359.230957,4366.922852,4547.948730,4543.077148,4559.615234,4496.153809,5662.563965,4309.615234,4258.717773,0.000000,4.000000,75.000000,,,,0.000000,0.000000,0.000000,0.000000,0.000000,0.000000,0.000000,0.000000,0.000000,0.000000,0.000000,0.000000,0.000000,0.000000,0.000000,0.000000,,,,,,,,,,,,,,,,,,,,,,,,,,,,,,,,,,,,,,,,,,,,,,,,,,,,,,,,,,,,,,,,,,,,,,,,,,,,,,,,,,,,,,,,,,,,,,,,,,,,,,,,,,,,,,,,,,,,,,,,,,,,,,,,,
1738755384.775420,1738755384.776087,90.000000,0.000000,4320.512695,4347.948730,4256.153809,4303.333496,4349.615234,4361.922852,4366.153809,4554.358887,4540.641113,4558.846191,4494.230957,5664.487305,4310.128418,4257.692383,0.000000,4.000000,75.000000,,,,0.000000,0.000000,0.000000,0.000000,0.000000,0.000000,0.000000,0.000000,0.000000,0.000000,0.000000,0.000000,0.000000,0.000000,0.000000,0.000000,,,,,,,,,,,,,,,,,,,,,,,,,,,,,,,,,,,,,,,,,,,,,,,,,,,,,,,,,,,,,,,,,,,,,,,,,,,,,,,,,,,,,,,,,,,,,,,,,,,,,,,,,,,,,,,,,,,,,,,,,,,,,,,,,
1738755384.783228,1738755384.783795,91.000000,0.000000,4321.025879,4350.641113,4254.358887,4299.230957,4349.230957,4359.102539,4367.307617,4550.000000,4539.615234,4560.128418,4497.563965,5664.358887,4318.589844,4258.461426,0.000000,4.000000,75.000000,,,,0.000000,0.000000,0.000000,0.000000,0.000000,0.000000,0.000000,0.000000,0.000000,0.000000,0.000000,0.000000,0.000000,0.000000,0.000000,0.000000,,,,,,,,,,,,,,,,,,,,,,,,,,,,,,,,,,,,,,,,,,,,,,,,,,,,,,,,,,,,,,,,,,,,,,,,,,,,,,,,,,,,,,,,,,,,,,,,,,,,,,,,,,,,,,,,,,,,,,,,,,,,,,,,,
1738755384.791036,1738755384.791603,92.000000,0.000000,4320.384766,4351.794922,4253.461426,4297.563965,4352.948730,4358.205078,4370.000000,4546.282227,4540.000000,4560.641113,4495.256348,5664.230957,4311.794922,4257.179688,0.000000,4.000000,75.000000,,,,0.000000,0.000000,0.000000,0.000000,0.000000,0.000000,0.000000,0.000000,0.000000,0.000000,0.000000,0.000000,0.000000,0.000000,0.000000,0.000000,,,,,,,,,,,,,,,,,23.000000,0.000000,0.785147,-0.615601,-0.061768,0.027649,0.073739,-0.981565,0.231474,4.683496,-15.508939,22.282446,,,,,,,,,,,,,,,,,,,,,,,,,,,,,,,,,,,,,,,,,,,,,,,,,,,,,,,,,,,,,,,,,,,,,,,,,,,,,,,,,,,,,,,,,,,,,,,,,,,,,
1738755384.798845,1738755384.799311,93.000000,0.000000,4320.384766,4348.461426,4254.615234,4300.128418,4353.974121,4361.025879,4368.717773,4546.922852,4540.384766,4558.846191,4495.000000,5663.846191,4307.307617,4258.461426,0.000000,4.000000,75.000000,,,,0.000000,0.000000,0.000000,0.000000,0.000000,0.000000,0.000000,0.000000,0.000000,0.000000,0.000000,0.000000,0.000000,0.000000,0.000000,0.000000,,,,,,,,,,,,,,,,,,,,,,,,,,,,,,,,,,,,,,,,,,,,,,,,,,,,,,,,,,,,,,,,,,,,,,,,,,,,,,,,,,,,,,,,,,,,,,,,,,,,,,,,,,,,,,,,,,,,,,,,,,,,,,,,,
1738755384.806653,1738755384.807119,94.000000,0.000000,4322.307617,4347.179688,4253.717773,4301.282227,4352.307617,4360.641113,4368.461426,4548.205078,4538.589844,4557.692383,4498.333496,5663.717773,4311.153809,4257.179688,0.000000,4.000000,75.000000,,,,0.000000,0.000000,0.000000,0.000000,0.000000,0.000000,0.000000,0.000000,0.000000,0.000000,0.000000,0.000000,0.000000,0.000000,0.000000,0.000000,1.000000,0.000000,0.000000,0.000000,0.000000,0.000000,0.000000,0.000000,0.000000,0.000000,0.000000,0.000000,0.000000,0.000000,0.000000,0.000000,,,,,,,,,,,,,,,,,,,,,,,,,,,,,,,,,,,,,,,,,,,,0.009556,0.028926,0.042797,0.020214,0.021644,0.016842,0.019093,0.008506,0.013910,0.015869,0.048907,0.014168,0.047929,0.025838,0.019334,0.036874,0.022520,0.022610,0.021480,0.027203,0.016330,0.006965,0.015451,0.010084,0.019975,0.022394,0.026094,0.021894,0.018482,0.036292,0.029812,0.046425,0.032806,0.036238,0.031896,0.024430,0.035013,0.044283,0.016435,0.020062,0.012106,0.030085,0.050327,0.020899,0.019238,0.016945,0.027196,0.010787,0.018311,0.021416,0.023238,0.021704,0.038904,0.012432,0.030719,0.022722,0.013167,0.020555,0.018241,0.036428,0.043285,0.027506,0.028544,0.036152,0.041579,0.035915,0.015301,0.016405,0.019636,0.024753
1738755384.814461,1738755384.814827,95.000000,0.000000,4321.410156,4348.846191,4252.948730,4303.205078,4352.692383,4359.615234,4368.205078,4549.871582,4537.692383,4557.179688,4495.512695,5664.743652,4310.641113,4253.974121,0.000000,4.000000,75.000000,,,,0.000000,0.000000,0.000000,0.000000,0.000000,0.000000,0.000000,0.000000,0.000000,0.000000,0.000000,0.000000,0.000000,0.000000,0.000000,0.000000,,,,,,,,,,,,,,,,,,,,,,,,,,,,,,,,,,,,,,,,,,,,,,,,,,,,,,,,,,,,,,,,,,,,,,,,,,,,,,,,,,,,,,,,,,,,,,,,,,,,,,,,,,,,,,,,,,,,,,,,,,,,,,,,,
1738755384.822269,1738755384.822735,96.000000,0.000000,4319.743652,4350.384766,4252.692383,4302.692383,4353.205078,4360.256348,4365.384766,4549.871582,4539.230957,4559.230957,4493.717773,5663.461426,4311.410156,4258.717773,0.000000,4.000000,75.000000,,,,0.000000,0.000000,0.000000,0.000000,0.000000,0.000000,0.000000,0.000000,0.000000,0.000000,0.000000,0.000000,0.000000,0.000000,0.000000,0.000000,,,,,,,,,,,,,,,,,24.000000,0.000000,0.785143,-0.615601,-0.061768,0.027771,0.061043,-0.976193,0.231474,4.731813,-15.341378,22.237535,,,,,,,,,,,,,,,,,,,,,,,,,,,,,,,,,,,,,,,,,,,,,,,,,,,,,,,,,,,,,,,,,,,,,,,,,,,,,,,,,,,,,,,,,,,,,,,,,,,,,
1738755384.830077,1738755384.830543,97.000000,0.000000,4323.717773,4350.000000,4253.077148,4302.820313,4354.358887,4359.102539,4368.205078,4550.384766,4537.948730,4561.794922,4497.692383,5664.487305,4307.179688,4257.948730,0.000000,4.000000,75.000000,,,,0.000000,0.000000,0.000000,0.000000,0.000000,0.000000,0.000000,0.000000,0.000000,0.000000,0.000000,0.000000,0.000000,0.000000,0.000000,0.000000,,,,,,,,,,,,,,,,,,,,,,,,,,,,,,,,,,,,,,,,,,,,,,,,,,,,,,,,,,,,,,,,,,,,,,,,,,,,,,,,,,,,,,,,,,,,,,,,,,,,,,,,,,,,,,,,,,,,,,,,,,,,,,,,,
1738755384.837885,1738755384.838451,98.000000,0.000000,4325.000000,4349.615234,4253.589844,4302.179688,4355.769043,4358.461426,4368.205078,4550.128418,4539.615234,4561.153809,4498.846191,5661.922852,4308.846191,4255.641113,0.000000,4.000000,75.000000,,,,0.000000,0.000000,0.000000,0.000000,0.000000,0.000000,0.000000,0.000000,0.000000,0.000000,0.000000,0.000000,0.000000,0.000000,0.000000,0.000000,,,,,,,,,,,,,,,,,,,,,,,,,,,,,,,,,,,,,,,,,,,,,,,,,,,,,,,,,,,,,,,,,,,,,,,,,,,,,,,,,,,,,,,,,,,,,,,,,,,,,,,,,,,,,,,,,,,,,,,,,,,,,,,,,
1738755384.845693,1738755384.846260,99.000000,0.000000,4321.410156,4350.256348,4253.589844,4301.410156,4353.589844,4361.666504,4364.230957,4549.487305,4540.897461,4556.922852,4496.025879,5660.641113,4312.179688,4257.563965,0.000000,4.000000,75.000000,,,,0.000000,0.000000,0.000000,0.000000,0.000000,0.000000,0.000000,0.000000,0.000000,0.000000,0.000000,0.000000,0.000000,0.000000,0.000000,0.000000,,,,,,,,,,,,,,,,,,,,,,,,,,,,,,,,,,,,,,,,,,,,,,,,,,,,,,,,,,,,,,,,,,,,,,,,,,,,,,,,,,,,,,,,,,,,,,,,,,,,,,,,,,,,,,,,,,,,,,,,,,,,,,,,,
1738755384.853501,1738755384.854068,100.000000,0.000000,4320.897461,4348.589844,4254.487305,4302.948730,4349.871582,4361.282227,4363.846191,4549.871582,4538.717773,4555.128418,4496.282227,5663.717773,4307.692383,4256.666504,0.000000,4.000000,75.000000,,,,0.000000,0.000000,0.000000,0.000000,0.000000,0.000000,0.000000,0.000000,0.000000,0.000000,0.000000,0.000000,0.000000,0.000000,0.000000,0.000000,,,,,,,,,,,,,,,,,25.000000,0.000000,0.785143,-0.615601,-0.061768,0.027771,0.058601,-0.969845,0.238799,4.775299,-15.323907,22.230448,,,,,,,,,,,,,,,,,,,,,,,,,,,,,,,,,,,,,,,,,,,,,,,,,,,,,,,,,,,,,,,,,,,,,,,,,,,,,,,,,,,,,,,,,,,,,,,,,,,,,
1738755384.861309,1738755384.861776,101.000000,0.000000,4322.948730,4347.820313,4253.846191,4302.307617,4350.512695,4358.333496,4365.128418,4549.871582,4540.256348,4559.871582,4497.436035,5661.538574,4309.487305,4256.410156,0.000000,4.000000,75.000000,,,,0.000000,0.000000,0.000000,0.000000,0.000000,0.000000,0.000000,0.000000,0.000000,0.000000,0.000000,0.000000,0.000000,0.000000,0.000000,0.000000,,,,,,,,,,,,,,,,,,,,,,,,,,,,,,,,,,,,,,,,,,,,,,,,,,,,,,,,,,,,,,,,,,,,,,,,,,,,,,,,,,,,,,,,,,,,,,,,,,,,,,,,,,,,,,,,,,,,,,,,,,,,,,,,,
1738755384.869118,1738755384.869584,102.000000,0.000000,4323.461426,4349.487305,4255.256348,4303.589844,4354.871582,4360.897461,4368.077148,4549.487305,4541.410156,4561.025879,4496.282227,5660.897461,4307.436035,4256.282227,0.000000,4.000000,75.000000,,,,0.000000,0.000000,0.000000,0.000000,0.000000,0.000000,0.000000,0.000000,0.000000,0.000000,0.000000,0.000000,0.000000,0.000000,0.000000,0.000000,,,,,,,,,,,,,,,,,,,,,,,,,,,,,,,,,,,,,,,,,,,,,,,,,,,,,,,,,,,,,,,,,,,,,,,,,,,,,,,,,,,,,,,,,,,,,,,,,,,,,,,,,,,,,,,,,,,,,,,,,,,,,,,,,
1738755384.876926,1738755384.877292,103.000000,0.000000,4320.512695,4350.512695,4258.205078,4303.077148,4354.871582,4362.692383,4364.871582,4550.512695,4540.384766,4558.846191,4497.179688,5661.538574,4307.692383,4257.948730,0.000000,4.000000,75.000000,,,,0.000000,0.000000,0.000000,0.000000,0.000000,0.000000,0.000000,0.000000,0.000000,0.000000,0.000000,0.000000,0.000000,0.000000,0.000000,0.000000,,,,,,,,,,,,,,,,,,,,,,,,,,,,,,,,,,,,,,,,,,,,,,,,,,,,,,,,,,,,,,,,,,,,,,,,,,,,,,,,,,,,,,,,,,,,,,,,,,,,,,,,,,,,,,,,,,,,,,,,,,,,,,,,,
1738755384.884734,1738755384.885200,104.000000,0.000000,4320.384766,4350.000000,4257.051270,4301.794922,4351.922852,4358.333496,4362.563965,4552.563965,4541.538574,4559.358887,4497.051270,5661.538574,4311.025879,4256.282227,0.000000,4.000000,75.000000,,,,0.000000,0.000000,0.000000,0.000000,0.000000,0.000000,0.000000,0.000000,0.000000,0.000000,0.000000,0.000000,0.000000,0.000000,0.000000,0.000000,,,,,,,,,,,,,,,,,26.000000,0.000000,0.785133,-0.615601,-0.061890,0.027771,0.069833,-0.964962,0.237822,4.597769,-15.258183,22.190737,,,,,,,,,,,,,,,,,,,,,,,,,,,,,,,,,,,,,,,,,,,,,,,,,,,,,,,,,,,,,,,,,,,,,,,,,,,,,,,,,,,,,,,,,,,,,,,,,,,,,
1738755384.892542,1738755384.893008,105.000000,0.000000,4323.974121,4347.436035,4253.589844,4305.128418,4351.538574,4356.410156,4368.461426,4550.256348,4541.794922,4559.487305,4495.641113,5663.333496,4308.077148,4251.538574,0.000000,4.000000,75.000000,,,,0.000000,0.000000,0.000000,0.000000,0.000000,0.000000,0.000000,0.000000,0.000000,0.000000,0.000000,0.000000,0.000000,0.000000,0.000000,0.000000,,,,,,,,,,,,,,,,,,,,,,,,,,,,,,,,,,,,,,,,,,,,,,,,,,,,,,,,,,,,,,,,,,,,,,,,,,,,,,,,,,,,,,,,,,,,,,,,,,,,,,,,,,,,,,,,,,,,,,,,,,,,,,,,,
1738755384.900350,1738755384.900916,106.000000,0.000000,4323.461426,4348.205078,4253.717773,4303.589844,4350.769043,4361.153809,4367.179688,4546.153809,4540.897461,4559.102539,4496.153809,5661.410156,4310.512695,4253.461426,0.000000,4.000000,75.000000,,,,0.000000,0.000000,0.000000,0.000000,0.000000,0.000000,0.000000,0.000000,0.000000,0.000000,0.000000,0.000000,0.000000,0.000000,0.000000,0.000000,,,,,,,,,,,,,,,,,,,,,,,,,,,,,,,,,,,,,,,,,,,,,,,,,,,,,,,,,,,,,,,,,,,,,,,,,,,,,,,,,,,,,,,,,,,,,,,,,,,,,,,,,,,,,,,,,,,,,,,,,,,,,,,,,
1738755384.908158,1738755384.908725,107.000000,0.000000,4321.666504,4349.743652,4256.410156,4301.666504,4350.769043,4362.436035,4363.077148,4548.333496,4539.102539,4560.128418,4496.538574,5659.615234,4309.743652,4255.512695,0.000000,4.000000,75.000000,,,,0.000000,0.000000,0.000000,0.000000,0.000000,0.000000,0.000000,0.000000,0.000000,0.000000,0.000000,0.000000,0.000000,0.000000,0.000000,0.000000,,,,,,,,,,,,,,,,,,,,,,,,,,,,,,,,,,,,,,,,,,,,,,,,,,,,,,,,,,,,,,,,,,,,,,,,,,,,,,,,,,,,,,,,,,,,,,,,,,,,,,,,,,,,,,,,,,,,,,,,,,,,,,,,,
1738755384.915966,1738755384.916633,108.000000,0.000000,4322.948730,4349.102539,4254.871582,4303.717773,4351.922852,4357.948730,4366.153809,4550.000000,4540.641113,4561.282227,4496.025879,5658.974121,4309.487305,4258.205078,0.000000,4.000000,75.000000,,,,0.000000,0.000000,0.000000,0.000000,0.000000,0.000000,0.000000,0.000000,0.000000,0.000000,0.000000,0.000000,0.000000,0.000000,0.000000,0.000000,,,,,,,,,,,,,,,,,27.000000,0.000000,0.785148,-0.615601,-0.061707,0.027771,0.048834,-0.975217,0.238799,4.487992,-15.332365,22.354996,,,,,,,,,,,,,,,,,,,,,,,,,,,,,,,,,,,,,,,,,,,,,,,,,,,,,,,,,,,,,,,,,,,,,,,,,,,,,,,,,,,,,,,,,,,,,,,,,,,,,
1738755384.923774,1738755384.924441,109.000000,0.000000,4324.743652,4347.820313,4253.205078,4303.717773,4351.922852,4357.692383,4367.820313,4547.820313,4542.307617,4559.230957,4497.436035,5659.487305,4312.563965,4257.307617,0.000000,4.000000,75.000000,,,,0.000000,0.000000,0.000000,0.000000,0.000000,0.000000,0.000000,0.000000,0.000000,0.000000,0.000000,0.000000,0.000000,0.000000,0.000000,0.000000,,,,,,,,,,,,,,,,,,,,,,,,,,,,,,,,,,,,,,,,,,,,,,,,,,,,,,,,,,,,,,,,,,,,,,,,,,,,,,,,,,,,,,,,,,,,,,,,,,,,,,,,,,,,,,,,,,,,,,,,,,,,,,,,,
1738755384.931582,1738755384.932349,110.000000,0.000000,4322.179688,4347.948730,4255.641113,4304.102539,4353.077148,4362.051270,4365.512695,4550.128418,4539.487305,4557.563965,4498.461426,5662.692383,4306.153809,4252.436035,0.000000,4.000000,75.000000,,,,0.000000,0.000000,0.000000,0.000000,0.000000,0.000000,0.000000,0.000000,0.000000,0.000000,0.000000,0.000000,0.000000,0.000000,0.000000,0.000000,,,,,,,,,,,,,,,,,,,,,,,,,,,,,,,,,,,,,,,,,,,,,,,,,,,,,,,,,,,,0.011385,0.026682,0.045988,0.021089,0.021319,0.018468,0.020916,0.011200,0.014209,0.015628,0.055509,0.016720,0.039133,0.025070,0.020254,0.036268,0.024577,0.023355,0.022387,0.024998,0.020413,0.007543,0.016789,0.010624,0.023126,0.023068,0.024691,0.019131,0.019115,0.032882,0.027561,0.046995,0.033842,0.036947,0.031078,0.026801,0.034333,0.036321,0.018482,0.020491,0.016370,0.030413,0.049866,0.020212,0.019921,0.015123,0.027958,0.012729,0.018801,0.020778,0.018990,0.029456,0.044110,0.014010,0.033244,0.023259,0.013679,0.017362,0.018164,0.033671,0.046131,0.027520,0.024889,0.039470,0.039586,0.040867,0.020368,0.014029,0.019031,0.025857
1738755384.939390,1738755384.940157,111.000000,0.000000,4319.230957,4353.205078,4256.153809,4302.563965,4355.128418,4360.897461,4363.461426,4548.846191,4539.358887,4560.897461,4495.897461,5661.025879,4307.563965,4255.256348,0.000000,4.000000,75.000000,,,,0.000000,0.000000,0.000000,0.000000,0.000000,0.000000,0.000000,0.000000,0.000000,0.000000,0.000000,0.000000,0.000000,0.000000,0.000000,0.000000,,,,,,,,,,,,,,,,,,,,,,,,,,,,,,,,,,,,,,,,,,,,,,,,,,,,,,,,,,,,,,,,,,,,,,,,,,,,,,,,,,,,,,,,,,,,,,,,,,,,,,,,,,,,,,,,,,,,,,,,,,,,,,,,,
1738755384.947199,1738755384.948065,112.000000,0.000000,4321.538574,4352.692383,4255.000000,4301.410156,4354.358887,4357.179688,4366.666504,4546.794922,4539.743652,4562.563965,4493.333496,5659.615234,4310.256348,4257.179688,0.000000,4.000000,75.000000,,,,0.000000,0.000000,0.000000,0.000000,0.000000,0.000000,0.000000,0.000000,0.000000,0.000000,0.000000,0.000000,0.000000,0.000000,0.000000,0.000000,,,,,,,,,,,,,,,,,28.000000,0.000000,0.785148,-0.615601,-0.061707,0.027771,0.065438,-0.975705,0.228544,4.489192,-15.332461,22.369497,,,,,,,,,,,,,,,,,,,,,,,,,,,,,,,,,,,,,,,,,,,,,,,,,,,,,,,,,,,,,,,,,,,,,,,,,,,,,,,,,,,,,,,,,,,,,,,,,,,,,
1738755384.955007,1738755384.955973,113.000000,0.000000,4321.794922,4349.615234,4253.077148,4302.820313,4353.333496,4357.692383,4366.410156,4550.769043,4537.692383,4562.179688,4496.666504,5661.025879,4308.461426,4254.230957,0.000000,4.000000,75.000000,,,,0.000000,0.000000,0.000000,0.000000,0.000000,0.000000,0.000000,0.000000,0.000000,0.000000,0.000000,0.000000,0.000000,0.000000,0.000000,0.000000,,,,,,,,,,,,,,,,,,,,,,,,,,,,,,,,,,,,,,,,,,,,,,,,,,,,,,,,,,,,,,,,,,,,,,,,,,,,,,,,,,,,,,,,,,,,,,,,,,,,,,,,,,,,,,,,,,,,,,,,,,,,,,,,,
1738755384.962815,1738755384.963782,114.000000,0.000000,4320.641113,4353.589844,4252.948730,4304.358887,4355.128418,4359.871582,4362.179688,4552.179688,4537.948730,4562.179688,4498.205078,5661.025879,4311.538574,4254.615234,0.000000,4.000000,75.000000,,,,0.000000,0.000000,0.000000,0.000000,0.000000,0.000000,0.000000,0.000000,0.000000,0.000000,0.000000,0.000000,0.000000,0.000000,0.000000,0.000000,,,,,,,,,,,,,,,,,,,,,,,,,,,,,,,,,,,,,,,,,,,,,,,,,,,,,,,,,,,,,,,,,,,,,,,,,,,,,,,,,,,,,,,,,,,,,,,,,,,,,,,,,,,,,,,,,,,,,,,,,,,,,,,,,
1738755384.970623,1738755384.971590,115.000000,0.000000,4323.461426,4353.333496,4255.512695,4305.769043,4353.717773,4360.641113,4364.358887,4551.025879,4538.077148,4559.871582,4493.333496,5663.589844,4309.615234,4254.615234,0.000000,4.000000,75.000000,,,,0.000000,0.000000,0.000000,0.000000,0.000000,0.000000,0.000000,0.000000,0.000000,0.000000,0.000000,0.000000,0.000000,0.000000,0.000000,0.000000,,,,,,,,,,,,,,,,,,,,,,,,,,,,,,,,,,,,,,,,,,,,,,,,,,,,,,,,,,,,,,,,,,,,,,,,,,,,,,,,,,,,,,,,,,,,,,,,,,,,,,,,,,,,,,,,,,,,,,,,,,,,,,,,,
1738755384.978431,1738755384.979298,116.000000,0.000000,4321.666504,4349.487305,4255.256348,4301.794922,4350.769043,4359.615234,4363.846191,4548.846191,4538.589844,4558.333496,4495.128418,5660.641113,4312.179688,4257.436035,0.000000,4.000000,75.000000,,,,0.000000,0.000000,0.000000,0.000000,0.000000,0.000000,0.000000,0.000000,0.000000,0.000000,0.000000,0.000000,0.000000,0.000000,0.000000,0.000000,,,,,,,,,,,,,,,,,29.000000,0.000000,0.785148,-0.615601,-0.061707,0.027771,0.067391,-0.978635,0.238310,4.373607,-15.332549,22.499214,,,,,,,,,,,,,,,,,,,,,,,,,,,,,,,,,,,,,,,,,,,,,,,,,,,,,,,,,,,,,,,,,,,,,,,,,,,,,,,,,,,,,,,,,,,,,,,,,,,,,
1738755384.986239,1738755384.987106,117.000000,0.000000,4320.000000,4350.897461,4253.846191,4302.307617,4352.563965,4360.384766,4362.051270,4548.461426,4538.461426,4559.615234,4499.487305,5660.256348,4311.538574,4258.205078,0.000000,4.000000,75.000000,,,,0.000000,0.000000,0.000000,0.000000,0.000000,0.000000,0.000000,0.000000,0.000000,0.000000,0.000000,0.000000,0.000000,0.000000,0.000000,0.000000,,,,,,,,,,,,,,,,,,,,,,,,,,,,,,,,,,,,,,,,,,,,,,,,,,,,,,,,,,,,,,,,,,,,,,,,,,,,,,,,,,,,,,,,,,,,,,,,,,,,,,,,,,,,,,,,,,,,,,,,,,,,,,,,,
1738755384.994047,1738755384.994814,118.000000,0.000000,4323.717773,4352.179688,4253.077148,4305.897461,4352.563965,4362.436035,4363.205078,4549.230957,4536.666504,4560.512695,4498.333496,5666.666504,4306.410156,4253.846191,0.000000,4.000000,75.000000,,,,0.000000,0.000000,0.000000,0.000000,0.000000,0.000000,0.000000,0.000000,0.000000,0.000000,0.000000,0.000000,0.000000,0.000000,0.000000,0.000000,,,,,,,,,,,,,,,,,,,,,,,,,,,,,,,,,,,,,,,,,,,,,,,,,,,,,,,,,,,,,,,,,,,,,,,,,,,,,,,,,,,,,,,,,,,,,,,,,,,,,,,,,,,,,,,,,,,,,,,,,,,,,,,,,
1738755385.001855,1738755385.002622,119.000000,0.000000,4322.692383,4350.769043,4251.666504,4303.461426,4348.589844,4359.615234,4361.794922,4547.563965,4539.358887,4560.384766,4497.436035,5665.256348,4311.666504,4256.410156,0.000000,4.000000,75.000000,,,,0.000000,0.000000,0.000000,0.000000,0.000000,0.000000,0.000000,0.000000,0.000000,0.000000,0.000000,0.000000,0.000000,0.000000,0.000000,0.000000,,,,,,,,,,,,,,,,,,,,,,,,,,,,,,,,,,,,,,,,,,,,,,,,,,,,,,,,,,,,,,,,,,,,,,,,,,,,,,,,,,,,,,,,,,,,,,,,,,,,,,,,,,,,,,,,,,,,,,,,,,,,,,,,,
1738755385.009663,1738755385.010330,120.000000,0.000000,4321.410156,4352.692383,4254.230957,4302.692383,4349.230957,4356.282227,4362.820313,4549.102539,4542.051270,4559.358887,4493.205078,5662.436035,4308.077148,4256.666504,0.000000,4.000000,75.000000,,,,0.000000,0.000000,0.000000,0.000000,0.000000,0.000000,0.000000,0.000000,0.000000,0.000000,0.000000,0.000000,0.000000,0.000000,0.000000,0.000000,,,,,,,,,,,,,,,,,30.000000,0.000000,0.785145,-0.615601,-0.061768,0.027710,0.059089,-0.981565,0.240264,4.536246,-15.449294,22.432625,,,,,,,,,,,,,,,,,,,,,,,,,,,,,,,,,,,,,,,,,,,,,,,,,,,,,,,,,,,,,,,,,,,,,,,,,,,,,,,,,,,,,,,,,,,,,,,,,,,,,
1738755385.017471,1738755385.018138,121.000000,0.000000,4322.436035,4356.153809,4257.820313,4301.794922,4353.333496,4359.615234,4365.000000,4548.205078,4538.974121,4559.358887,4492.820313,5660.769043,4305.641113,4253.589844,0.000000,4.000000,75.000000,,,,0.000000,0.000000,0.000000,0.000000,0.000000,0.000000,0.000000,0.000000,0.000000,0.000000,0.000000,0.000000,0.000000,0.000000,0.000000,0.000000,,,,,,,,,,,,,,,,,,,,,,,,,,,,,,,,,,,,,,,,,,,,,,,,,,,,,,,,,,,,,,,,,,,,,,,,,,,,,,,,,,,,,,,,,,,,,,,,,,,,,,,,,,,,,,,,,,,,,,,,,,,,,,,,,
1738755385.025279,1738755385.025847,122.000000,0.000000,4322.307617,4353.589844,4256.025879,4302.563965,4353.205078,4364.102539,4367.436035,4547.948730,4538.077148,4559.871582,4498.205078,5662.820313,4310.384766,4254.743652,0.000000,4.000000,75.000000,,,,0.000000,0.000000,0.000000,0.000000,0.000000,0.000000,0.000000,0.000000,0.000000,0.000000,0.000000,0.000000,0.000000,0.000000,0.000000,0.000000,,,,,,,,,,,,,,,,,,,,,,,,,,,,,,,,,,,,,,,,,,,,,,,,,,,,,,,,,,,,,,,,,,,,,,,,,,,,,,,,,,,,,,,,,,,,,,,,,,,,,,,,,,,,,,,,,,,,,,,,,,,,,,,,,
1738755385.033088,1738755385.033755,123.000000,0.000000,4324.358887,4351.025879,4253.846191,4305.256348,4352.179688,4361.794922,4367.692383,4552.051270,4542.179688,4558.846191,4499.487305,5665.769043,4309.102539,4255.769043,0.000000,4.000000,75.000000,,,,0.000000,0.000000,0.000000,0.000000,0.000000,0.000000,0.000000,0.000000,0.000000,0.000000,0.000000,0.000000,0.000000,0.000000,0.000000,0.000000,,,,,,,,,,,,,,,,,,,,,,,,,,,,,,,,,,,,,,,,,,,,,,,,,,,,,,,,,,,,,,,,,,,,,,,,,,,,,,,,,,,,,,,,,,,,,,,,,,,,,,,,,,,,,,,,,,,,,,,,,,,,,,,,,
1738755385.040896,1738755385.041563,124.000000,0.000000,4323.846191,4352.820313,4255.128418,4303.461426,4353.461426,4358.974121,4363.846191,4552.179688,4542.179688,4559.230957,4496.794922,5661.666504,4310.769043,4256.794922,0.000000,4.000000,75.000000,,,,0.000000,0.000000,0.000000,0.000000,0.000000,0.000000,0.000000,0.000000,0.000000,0.000000,0.000000,0.000000,0.000000,0.000000,0.000000,0.000000,,,,,,,,,,,,,,,,,31.000000,0.000000,0.785150,-0.615601,-0.061707,0.027710,0.058601,-0.987425,0.232939,4.499288,-15.304364,22.472696,,,,,,,,,,,,,,,,,,,,,,,,,,,,,,,,,,,,,,,,,,,,,,,,,,,,,,,,,,,,,,,,,,,,,,,,,,,,,,,,,,,,,,,,,,,,,,,,,,,,,
1738755385.048704,1738755385.049371,125.000000,0.000000,4321.153809,4351.153809,4255.256348,4302.051270,4352.051270,4359.743652,4367.179688,4550.384766,4538.333496,4561.282227,4492.179688,5664.230957,4309.230957,4254.230957,0.000000,4.000000,75.000000,,,,0.000000,0.000000,0.000000,0.000000,0.000000,0.000000,0.000000,0.000000,0.000000,0.000000,0.000000,0.000000,0.000000,0.000000,0.000000,0.000000,,,,,,,,,,,,,,,,,,,,,,,,,,,,,,,,,,,,,,,,,,,,,,,,,,,,,,,,,,,,,,,,,,,,,,,,,,,,,,,,,,,,,,,,,,,,,,,,,,,,,,,,,,,,,,,,,,,,,,,,,,,,,,,,,
1738755385.056512,1738755385.057079,126.000000,0.000000,4321.153809,4348.717773,4252.563965,4302.179688,4350.128418,4360.384766,4369.871582,4549.102539,4541.538574,4561.538574,4495.256348,5665.384766,4310.000000,4256.282227,0.000000,4.000000,75.000000,,,,0.000000,0.000000,0.000000,0.000000,0.000000,0.000000,0.000000,0.000000,0.000000,0.000000,0.000000,0.000000,0.000000,0.000000,0.000000,0.000000,,,,,,,,,,,,,,,,,,,,,,,,,,,,,,,,,,,,,,,,,,,,,,,,,,,,,,,,,,,,0.013418,0.023549,0.045261,0.021478,0.021498,0.019584,0.021189,0.015318,0.014685,0.015455,0.059604,0.021886,0.031202,0.023272,0.020773,0.035125,0.027237,0.024215,0.023405,0.023695,0.024519,0.007873,0.017249,0.011080,0.026143,0.022690,0.022297,0.016304,0.020485,0.029438,0.027530,0.047234,0.032675,0.036349,0.029956,0.029881,0.033124,0.028157,0.021263,0.021103,0.020541,0.029779,0.048224,0.019190,0.020247,0.013746,0.028482,0.016545,0.019564,0.020758,0.014490,0.035994,0.047769,0.015736,0.034999,0.023527,0.014434,0.015723,0.018168,0.029809,0.049783,0.026251,0.020129,0.041197,0.037773,0.042021,0.027071,0.012155,0.018711,0.028008
1738755385.064320,1738755385.064987,127.000000,0.000000,4322.307617,4351.282227,4251.794922,4302.307617,4352.307617,4362.307617,4367.307617,4549.871582,4545.256348,4559.615234,4499.615234,5661.794922,4312.179688,4261.666504,75.000000,4.000000,75.000000,,,,0.000000,0.000000,0.000000,0.000000,0.000000,0.000000,0.000000,0.000000,0.000000,0.000000,0.000000,0.000000,0.000000,0.000000,0.000000,0.000000,,,,,,,,,,,,,,,,,,,,,,,,,,,,,,,,,,,,,,,,,,,,,,,,,,,,,,,,,,,,,,,,,,,,,,,,,,,,,,,,,,,,,,,,,,,,,,,,,,,,,,,,,,,,,,,,,,,,,,,,,,,,,,,,,
1738755385.072128,1738755385.072795,0.000000,0.000000,4322.436035,4352.436035,4252.563965,4303.461426,4353.974121,4362.692383,4368.461426,4552.436035,4543.717773,4560.128418,4494.615234,5666.794922,4306.410156,4258.589844,0.000000,4.000000,75.000000,,,,0.000000,0.000000,0.000000,0.000000,0.000000,0.000000,0.000000,0.000000,0.000000,0.000000,0.000000,0.000000,0.000000,0.000000,0.000000,0.000000,,,,,,,,,,,,,,,,,0.000000,0.000000,0.785153,-0.615601,-0.061646,0.027771,0.070321,-0.974240,0.231962,4.449359,-15.457261,22.525427,,,,,,,,,,,,,,,,,,,,,,,,,,,,,,,,,,,,,,,,,,,,,,,,,,,,,,,,,,,,,,,,,,,,,,,,,,,,,,,,,,,,,,,,,,,,,,,,,,,,,
1738755385.079936,1738755385.080704,1.000000,0.000000,4321.025879,4351.025879,4253.077148,4302.307617,4351.282227,4359.487305,4365.769043,4552.179688,4543.846191,4561.666504,4494.358887,5667.307617,4308.077148,4257.051270,0.000000,4.000000,75.000000,,,,0.000000,0.000000,0.000000,0.000000,0.000000,0.000000,0.000000,0.000000,0.000000,0.000000,0.000000,0.000000,0.000000,0.000000,0.000000,0.000000,,,,,,,,,,,,,,,,,,,,,,,,,,,,,,,,,,,,,,,,,,,,,,,,,,,,,,,,,,,,,,,,,,,,,,,,,,,,,,,,,,,,,,,,,,,,,,,,,,,,,,,,,,,,,,,,,,,,,,,,,,,,,,,,,
1738755385.087744,1738755385.088512,2.000000,0.000000,4320.128418,4349.871582,4255.512695,4300.641113,4351.025879,4359.230957,4362.692383,4552.948730,4540.384766,4559.358887,4497.563965,5661.922852,4308.205078,4257.307617,0.000000,4.000000,75.000000,,,,0.000000,0.000000,0.000000,0.000000,0.000000,0.000000,0.000000,0.000000,0.000000,0.000000,0.000000,0.000000,0.000000,0.000000,0.000000,0.000000,,,,,,,,,,,,,,,,,,,,,,,,,,,,,,,,,,,,,,,,,,,,,,,,,,,,,,,,,,,,,,,,,,,,,,,,,,,,,,,,,,,,,,,,,,,,,,,,,,,,,,,,,,,,,,,,,,,,,,,,,,,,,,,,,
1738755385.095552,1738755385.096420,3.000000,0.000000,4320.897461,4350.256348,4257.179688,4301.666504,4352.948730,4359.743652,4364.358887,4554.102539,4538.077148,4557.692383,4495.769043,5661.410156,4306.153809,4256.794922,0.000000,4.000000,75.000000,,,,0.000000,0.000000,0.000000,0.000000,0.000000,0.000000,0.000000,0.000000,0.000000,0.000000,0.000000,0.000000,0.000000,0.000000,0.000000,0.000000,,,,,,,,,,,,,,,,,,,,,,,,,,,,,,,,,,,,,,,,,,,,,,,,,,,,,,,,,,,,,,,,,,,,,,,,,,,,,,,,,,,,,,,,,,,,,,,,,,,,,,,,,,,,,,,,,,,,,,,,,,,,,,,,,
1738755385.103361,1738755385.104228,4.000000,0.000000,4322.948730,4351.153809,4257.051270,4303.717773,4352.436035,4360.641113,4365.000000,4553.205078,4539.743652,4558.461426,4495.897461,5660.897461,4309.358887,4257.179688,0.000000,4.000000,75.000000,,,,0.000000,0.000000,0.000000,0.000000,0.000000,0.000000,0.000000,0.000000,0.000000,0.000000,0.000000,0.000000,0.000000,0.000000,0.000000,0.000000,,,,,,,,,,,,,,,,,1.000000,0.000000,0.785191,-0.615540,-0.061768,0.027771,0.069344,-0.974240,0.234892,4.421090,-15.578202,22.606218,,,,,,,,,,,,,,,,,,,,,,,,,,,,,,,,,,,,,,,,,,,,,,,,,,,,,,,,,,,,,,,,,,,,,,,,,,,,,,,,,,,,,,,,,,,,,,,,,,,,,
1738755385.111169,1738755385.112136,5.000000,0.000000,4324.230957,4351.282227,4255.769043,4303.717773,4351.666504,4362.436035,4364.487305,4553.077148,4537.051270,4559.743652,4497.820313,5662.820313,4310.641113,4255.512695,0.000000,4.000000,75.000000,,,,0.000000,0.000000,0.000000,0.000000,0.000000,0.000000,0.000000,0.000000,0.000000,0.000000,0.000000,0.000000,0.000000,0.000000,0.000000,0.000000,,,,,,,,,,,,,,,,,,,,,,,,,,,,,,,,,,,,,,,,,,,,,,,,,,,,,,,,,,,,,,,,,,,,,,,,,,,,,,,,,,,,,,,,,,,,,,,,,,,,,,,,,,,,,,,,,,,,,,,,,,,,,,,,,
1738755385.118977,1738755385.119944,6.000000,0.000000,4322.692383,4350.897461,4253.461426,4301.025879,4351.538574,4360.000000,4364.230957,4550.897461,4537.948730,4561.922852,4498.333496,5662.051270,4313.333496,4257.179688,0.000000,4.000000,75.000000,,,,0.000000,0.000000,0.000000,0.000000,0.000000,0.000000,0.000000,0.000000,0.000000,0.000000,0.000000,0.000000,0.000000,0.000000,0.000000,0.000000,,,,,,,,,,,,,,,,,,,,,,,,,,,,,,,,,,,,,,,,,,,,,,,,,,,,,,,,,,,,,,,,,,,,,,,,,,,,,,,,,,,,,,,,,,,,,,,,,,,,,,,,,,,,,,,,,,,,,,,,,,,,,,,,,
1738755385.126785,1738755385.127852,7.000000,0.000000,4322.563965,4349.102539,4253.974121,4303.205078,4351.794922,4358.461426,4365.000000,4550.128418,4542.051270,4561.025879,4497.563965,5661.153809,4306.794922,4255.384766,0.000000,4.000000,75.000000,,,,0.000000,0.000000,0.000000,0.000000,0.000000,0.000000,0.000000,0.000000,0.000000,0.000000,0.000000,0.000000,0.000000,0.000000,0.000000,0.000000,,,,,,,,,,,,,,,,,,,,,,,,,,,,,,,,,,,,,,,,,,,,,,,,,,,,,,,,,,,,,,,,,,,,,,,,,,,,,,,,,,,,,,,,,,,,,,,,,,,,,,,,,,,,,,,,,,,,,,,,,,,,,,,,,
1738755385.134593,1738755385.135661,8.000000,0.000000,4323.333496,4349.230957,4254.743652,4306.025879,4352.563965,4361.538574,4362.692383,4552.563965,4537.948730,4558.846191,4499.102539,5663.461426,4306.666504,4252.563965,0.000000,4.000000,75.000000,,,,0.000000,0.000000,0.000000,0.000000,0.000000,0.000000,0.000000,0.000000,0.000000,0.000000,0.000000,0.000000,0.000000,0.000000,0.000000,0.000000,,,,,,,,,,,,,,,,,2.000000,0.000000,0.785241,-0.615479,-0.061768,0.027710,0.063973,-0.974728,0.233427,4.395648,-15.470382,22.545595,,,,,,,,,,,,,,,,,,,,,,,,,,,,,,,,,,,,,,,,,,,,,,,,,,,,,,,,,,,,,,,,,,,,,,,,,,,,,,,,,,,,,,,,,,,,,,,,,,,,,
1738755385.142401,1738755385.143469,9.000000,0.000000,4324.743652,4350.512695,4252.563965,4303.205078,4351.410156,4359.358887,4362.307617,4550.641113,4536.922852,4560.128418,4500.000000,5662.307617,4316.410156,4257.179688,0.000000,4.000000,75.000000,,,,0.000000,0.000000,0.000000,0.000000,0.000000,0.000000,0.000000,0.000000,0.000000,0.000000,0.000000,0.000000,0.000000,0.000000,0.000000,0.000000,,,,,,,,,,,,,,,,,,,,,,,,,,,,,,,,,,,,,,,,,,,,,,,,,,,,,,,,,,,,,,,,,,,,,,,,,,,,,,,,,,,,,,,,,,,,,,,,,,,,,,,,,,,,,,,,,,,,,,,,,,,,,,,,,
1738755385.150209,1738755385.151277,10.000000,0.000000,4324.102539,4349.871582,4253.333496,4304.871582,4348.974121,4357.307617,4367.948730,4550.000000,4540.128418,4559.102539,4497.307617,5663.717773,4308.974121,4257.948730,0.000000,4.000000,75.000000,,,,0.000000,0.000000,0.000000,0.000000,0.000000,0.000000,0.000000,0.000000,0.000000,0.000000,0.000000,0.000000,0.000000,0.000000,0.000000,0.000000,,,,,,,,,,,,,,,,,,,,,,,,,,,,,,,,,,,,,,,,,,,,,,,,,,,,,,,,,,,,,,,,,,,,,,,,,,,,,,,,,,,,,,,,,,,,,,,,,,,,,,,,,,,,,,,,,,,,,,,,,,,,,,,,,
1738755385.158017,1738755385.158985,11.000000,0.000000,4320.256348,4349.358887,4255.769043,4306.922852,4350.128418,4360.256348,4367.436035,4550.897461,4540.769043,4556.410156,4495.512695,5664.871582,4306.410156,4256.410156,0.000000,4.000000,75.000000,,,,0.000000,0.000000,0.000000,0.000000,0.000000,0.000000,0.000000,0.000000,0.000000,0.000000,0.000000,0.000000,0.000000,0.000000,0.000000,0.000000,,,,,,,,,,,,,,,,,,,,,,,,,,,,,,,,,,,,,,,,,,,,,,,,,,,,,,,,,,,,,,,,,,,,,,,,,,,,,,,,,,,,,,,,,,,,,,,,,,,,,,,,,,,,,,,,,,,,,,,,,,,,,,,,,
1738755385.165825,1738755385.166794,12.000000,0.000000,4323.589844,4351.153809,4254.487305,4304.615234,4353.589844,4360.000000,4363.974121,4550.641113,4540.512695,4557.692383,4496.666504,5664.358887,4309.743652,4256.410156,0.000000,4.000000,75.000000,,,,0.000000,0.000000,0.000000,0.000000,0.000000,0.000000,0.000000,0.000000,0.000000,0.000000,0.000000,0.000000,0.000000,0.000000,0.000000,0.000000,,,,,,,,,,,,,,,,,3.000000,0.000000,0.785203,-0.615540,-0.061646,0.027710,0.072763,-0.978147,0.243194,4.456083,-15.540010,22.657703,,,,,,,,,,,,,,,,,,,,,,,,,,,,,,,,,,,,,,,,,,,,,,,,,,,,,,,,,,,,,,,,,,,,,,,,,,,,,,,,,,,,,,,,,,,,,,,,,,,,,
1738755385.173633,1738755385.174502,13.000000,0.000000,4326.025879,4353.333496,4253.589844,4300.897461,4354.230957,4358.717773,4362.692383,4551.794922,4538.589844,4559.102539,4496.282227,5664.358887,4308.077148,4257.307617,0.000000,4.000000,75.000000,,,,0.000000,0.000000,0.000000,0.000000,0.000000,0.000000,0.000000,0.000000,0.000000,0.000000,0.000000,0.000000,0.000000,0.000000,0.000000,0.000000,,,,,,,,,,,,,,,,,,,,,,,,,,,,,,,,,,,,,,,,,,,,,,,,,,,,,,,,,,,,,,,,,,,,,,,,,,,,,,,,,,,,,,,,,,,,,,,,,,,,,,,,,,,,,,,,,,,,,,,,,,,,,,,,,
1738755385.181441,1738755385.182310,14.000000,0.000000,4319.743652,4351.153809,4255.000000,4296.410156,4352.820313,4360.128418,4362.820313,4551.666504,4538.461426,4559.743652,4494.871582,5664.487305,4313.205078,4257.692383,0.000000,4.000000,75.000000,,,,0.000000,0.000000,0.000000,0.000000,0.000000,0.000000,0.000000,0.000000,0.000000,0.000000,0.000000,0.000000,0.000000,0.000000,0.000000,0.000000,,,,,,,,,,,,,,,,,,,,,,,,,,,,,,,,,,,,,,,,,,,,,,,,,,,,,,,,,,,,0.015577,0.020398,0.040718,0.020837,0.023074,0.020024,0.019875,0.019442,0.015377,0.015219,0.060476,0.030129,0.025871,0.021005,0.020709,0.034113,0.030691,0.025273,0.024186,0.023228,0.027958,0.008005,0.016782,0.011434,0.028331,0.021330,0.019195,0.013935,0.022178,0.027180,0.029681,0.047656,0.029091,0.034257,0.028417,0.032154,0.031465,0.021103,0.023841,0.021876,0.023892,0.028496,0.046272,0.018116,0.019920,0.013237,0.028440,0.021191,0.020846,0.021027,0.010802,0.039935,0.048833,0.017394,0.035160,0.023175,0.014618,0.016043,0.018421,0.026436,0.054324,0.024915,0.015643,0.041536,0.036339,0.039586,0.033912,0.011528,0.018833,0.030244
1738755385.189250,1738755385.190018,15.000000,0.000000,4320.897461,4347.307617,4254.615234,4299.615234,4351.538574,4360.256348,4370.000000,4551.538574,4539.487305,4559.102539,4494.871582,5665.512695,4310.769043,4254.102539,0.000000,4.000000,75.000000,,,,0.000000,0.000000,0.000000,0.000000,0.000000,0.000000,0.000000,0.000000,0.000000,0.000000,0.000000,0.000000,0.000000,0.000000,0.000000,0.000000,,,,,,,,,,,,,,,,,,,,,,,,,,,,,,,,,,,,,,,,,,,,,,,,,,,,,,,,,,,,,,,,,,,,,,,,,,,,,,,,,,,,,,,,,,,,,,,,,,,,,,,,,,,,,,,,,,,,,,,,,,,,,,,,,
1738755385.197058,1738755385.197826,16.000000,0.000000,4323.974121,4348.974121,4252.692383,4302.051270,4351.666504,4359.487305,4368.461426,4547.948730,4541.538574,4559.487305,4497.820313,5663.077148,4308.461426,4256.794922,0.000000,4.000000,75.000000,,,,0.000000,0.000000,0.000000,0.000000,0.000000,0.000000,0.000000,0.000000,0.000000,0.000000,0.000000,0.000000,0.000000,0.000000,0.000000,0.000000,,,,,,,,,,,,,,,,,4.000000,0.000000,0.785202,-0.615540,-0.061707,0.027588,0.062508,-0.967892,0.235869,4.610475,-15.452676,22.741932,,,,,,,,,,,,,,,,,,,,,,,,,,,,,,,,,,,,,,,,,,,,,,,,,,,,,,,,,,,,,,,,,,,,,,,,,,,,,,,,,,,,,,,,,,,,,,,,,,,,,
1738755385.204866,1738755385.205534,17.000000,0.000000,4319.615234,4351.922852,4254.871582,4299.102539,4350.897461,4360.641113,4361.153809,4547.051270,4540.512695,4561.025879,4497.820313,5664.358887,4311.025879,4259.102539,0.000000,4.000000,75.000000,,,,0.000000,0.000000,0.000000,0.000000,0.000000,0.000000,0.000000,0.000000,0.000000,0.000000,0.000000,0.000000,0.000000,0.000000,0.000000,0.000000,,,,,,,,,,,,,,,,,,,,,,,,,,,,,,,,,,,,,,,,,,,,,,,,,,,,,,,,,,,,,,,,,,,,,,,,,,,,,,,,,,,,,,,,,,,,,,,,,,,,,,,,,,,,,,,,,,,,,,,,,,,,,,,,,
1738755385.212674,1738755385.213342,18.000000,0.000000,4318.589844,4350.769043,4255.641113,4300.641113,4351.410156,4360.256348,4365.256348,4552.820313,4537.948730,4559.871582,4495.641113,5667.563965,4307.436035,4256.282227,0.000000,4.000000,75.000000,,,,0.000000,0.000000,0.000000,0.000000,0.000000,0.000000,0.000000,0.000000,0.000000,0.000000,0.000000,0.000000,0.000000,0.000000,0.000000,0.000000,,,,,,,,,,,,,,,,,,,,,,,,,,,,,,,,,,,,,,,,,,,,,,,,,,,,,,,,,,,,,,,,,,,,,,,,,,,,,,,,,,,,,,,,,,,,,,,,,,,,,,,,,,,,,,,,,,,,,,,,,,,,,,,,,
1738755385.220482,1738755385.221050,19.000000,0.000000,4323.846191,4350.384766,4252.436035,4302.307617,4353.077148,4358.846191,4366.538574,4551.538574,4539.615234,4558.717773,4498.461426,5661.538574,4308.205078,4257.948730,0.000000,4.000000,75.000000,,,,0.000000,0.000000,0.000000,0.000000,0.000000,0.000000,0.000000,0.000000,0.000000,0.000000,0.000000,0.000000,0.000000,0.000000,0.000000,0.000000,,,,,,,,,,,,,,,,,,,,,,,,,,,,,,,,,,,,,,,,,,,,,,,,,,,,,,,,,,,,,,,,,,,,,,,,,,,,,,,,,,,,,,,,,,,,,,,,,,,,,,,,,,,,,,,,,,,,,,,,,,,,,,,,,
1738755385.228290,1738755385.228858,20.000000,0.000000,4325.256348,4350.384766,4252.563965,4304.358887,4354.358887,4360.256348,4365.256348,4546.153809,4539.102539,4558.974121,4498.077148,5659.615234,4306.410156,4257.692383,0.000000,4.000000,75.000000,,,,0.000000,0.000000,0.000000,0.000000,0.000000,0.000000,0.000000,0.000000,0.000000,0.000000,0.000000,0.000000,0.000000,0.000000,0.000000,0.000000,,,,,,,,,,,,,,,,,5.000000,0.000000,0.785202,-0.615540,-0.061707,0.027588,0.064461,-0.981077,0.233427,4.566094,-15.357409,22.834406,,,,,,,,,,,,,,,,,,,,,,,,,,,,,,,,,,,,,,,,,,,,,,,,,,,,,,,,,,,,,,,,,,,,,,,,,,,,,,,,,,,,,,,,,,,,,,,,,,,,,
1738755385.236098,1738755385.236566,21.000000,0.000000,4322.307617,4350.384766,4253.461426,4304.358887,4354.358887,4359.871582,4365.256348,4547.051270,4537.948730,4557.948730,4495.512695,5661.153809,4304.743652,4255.769043,0.000000,4.000000,75.000000,,,,0.000000,0.000000,0.000000,0.000000,0.000000,0.000000,0.000000,0.000000,0.000000,0.000000,0.000000,0.000000,0.000000,0.000000,0.000000,0.000000,,,,,,,,,,,,,,,,,,,,,,,,,,,,,,,,,,,,,,,,,,,,,,,,,,,,,,,,,,,,,,,,,,,,,,,,,,,,,,,,,,,,,,,,,,,,,,,,,,,,,,,,,,,,,,,,,,,,,,,,,,,,,,,,,
1738755385.243906,1738755385.244374,22.000000,0.000000,4323.333496,4351.922852,4253.205078,4301.410156,4352.051270,4359.487305,4364.871582,4550.769043,4538.333496,4558.333496,4497.179688,5660.000000,4309.743652,4257.307617,0.000000,4.000000,75.000000,,,,0.000000,0.000000,0.000000,0.000000,0.000000,0.000000,0.000000,0.000000,0.000000,0.000000,0.000000,0.000000,0.000000,0.000000,0.000000,0.000000,,,,,,,,,,,,,,,,,,,,,,,,,,,,,,,,,,,,,,,,,,,,,,,,,,,,,,,,,,,,,,,,,,,,,,,,,,,,,,,,,,,,,,,,,,,,,,,,,,,,,,,,,,,,,,,,,,,,,,,,,,,,,,,,,
1738755385.251714,1738755385.252082,23.000000,0.000000,4324.743652,4351.666504,4253.333496,4302.563965,4351.153809,4359.743652,4366.025879,4551.153809,4539.358887,4560.256348,4497.563965,5662.563965,4308.205078,4257.307617,0.000000,4.000000,75.000000,,,,0.000000,0.000000,0.000000,0.000000,0.000000,0.000000,0.000000,0.000000,0.000000,0.000000,0.000000,0.000000,0.000000,0.000000,0.000000,0.000000,,,,,,,,,,,,,,,,,,,,,,,,,,,,,,,,,,,,,,,,,,,,,,,,,,,,,,,,,,,,,,,,,,,,,,,,,,,,,,,,,,,,,,,,,,,,,,,,,,,,,,,,,,,,,,,,,,,,,,,,,,,,,,,,,
1738755385.259523,1738755385.259991,24.000000,0.000000,4320.256348,4349.102539,4253.717773,4300.897461,4352.692383,4357.692383,4365.512695,4548.461426,4540.256348,4561.025879,4496.282227,5661.410156,4311.538574,4258.333496,0.000000,4.000000,75.000000,,,,0.000000,0.000000,0.000000,0.000000,0.000000,0.000000,0.000000,0.000000,0.000000,0.000000,0.000000,0.000000,0.000000,0.000000,0.000000,0.000000,,,,,,,,,,,,,,,,,6.000000,0.000000,0.785193,-0.615540,-0.061768,0.027710,0.067879,-0.971798,0.245635,4.676151,-15.421667,22.734299,,,,,,,,,,,,,,,,,,,,,,,,,,,,,,,,,,,,,,,,,,,,,,,,,,,,,,,,,,,,,,,,,,,,,,,,,,,,,,,,,,,,,,,,,,,,,,,,,,,,,
1738755385.267331,1738755385.267799,25.000000,0.000000,4319.102539,4348.461426,4254.358887,4298.846191,4354.230957,4357.307617,4365.256348,4549.102539,4539.358887,4559.358887,4496.794922,5659.743652,4315.384766,4257.692383,0.000000,4.000000,75.000000,,,,0.000000,0.000000,0.000000,0.000000,0.000000,0.000000,0.000000,0.000000,0.000000,0.000000,0.000000,0.000000,0.000000,0.000000,0.000000,0.000000,,,,,,,,,,,,,,,,,,,,,,,,,,,,,,,,,,,,,,,,,,,,,,,,,,,,,,,,,,,,,,,,,,,,,,,,,,,,,,,,,,,,,,,,,,,,,,,,,,,,,,,,,,,,,,,,,,,,,,,,,,,,,,,,,
1738755385.275139,1738755385.275707,26.000000,0.000000,4322.948730,4350.897461,4253.974121,4301.025879,4352.563965,4358.077148,4367.179688,4549.102539,4539.871582,4558.077148,4499.102539,5661.025879,4313.077148,4257.436035,0.000000,4.000000,75.000000,,,,0.000000,0.000000,0.000000,0.000000,0.000000,0.000000,0.000000,0.000000,0.000000,0.000000,0.000000,0.000000,0.000000,0.000000,0.000000,0.000000,,,,,,,,,,,,,,,,,,,,,,,,,,,,,,,,,,,,,,,,,,,,,,,,,,,,,,,,,,,,,,,,,,,,,,,,,,,,,,,,,,,,,,,,,,,,,,,,,,,,,,,,,,,,,,,,,,,,,,,,,,,,,,,,,
1738755385.282947,1738755385.283515,27.000000,0.000000,4323.077148,4352.948730,4253.974121,4304.358887,4351.538574,4357.692383,4368.077148,4546.922852,4539.358887,4560.128418,4498.846191,5661.794922,4312.820313,4258.077148,0.000000,4.000000,75.000000,,,,0.000000,0.000000,0.000000,0.000000,0.000000,0.000000,0.000000,0.000000,0.000000,0.000000,0.000000,0.000000,0.000000,0.000000,0.000000,0.000000,,,,,,,,,,,,,,,,,,,,,,,,,,,,,,,,,,,,,,,,,,,,,,,,,,,,,,,,,,,,,,,,,,,,,,,,,,,,,,,,,,,,,,,,,,,,,,,,,,,,,,,,,,,,,,,,,,,,,,,,,,,,,,,,,
1738755385.290755,1738755385.291423,28.000000,0.000000,4322.179688,4351.282227,4256.922852,4305.769043,4353.461426,4357.436035,4366.666504,4549.102539,4536.153809,4561.410156,4498.205078,5663.461426,4312.179688,4254.871582,0.000000,4.000000,75.000000,,,,0.000000,0.000000,0.000000,0.000000,0.000000,0.000000,0.000000,0.000000,0.000000,0.000000,0.000000,0.000000,0.000000,0.000000,0.000000,0.000000,,,,,,,,,,,,,,,,,7.000000,0.000000,0.785293,-0.615417,-0.061707,0.027710,0.068856,-0.972287,0.240264,4.641870,-15.346168,22.644201,,,,,,,,,,,,,,,,,,,,,,,,,,,,,,,,,,,,,,,,,,,,,,,,,,,,,,,,,,,,,,,,,,,,,,,,,,,,,,,,,,,,,,,,,,,,,,,,,,,,,
1738755385.298563,1738755385.299231,29.000000,0.000000,4323.589844,4350.897461,4256.538574,4303.077148,4353.077148,4360.384766,4365.897461,4550.000000,4537.820313,4560.000000,4499.102539,5661.794922,4314.743652,4257.307617,0.000000,4.000000,75.000000,,,,0.000000,0.000000,0.000000,0.000000,0.000000,0.000000,0.000000,0.000000,0.000000,0.000000,0.000000,0.000000,0.000000,0.000000,0.000000,0.000000,,,,,,,,,,,,,,,,,,,,,,,,,,,,,,,,,,,,,,,,,,,,,,,,,,,,,,,,,,,,,,,,,,,,,,,,,,,,,,,,,,,,,,,,,,,,,,,,,,,,,,,,,,,,,,,,,,,,,,,,,,,,,,,,,
1738755385.306371,1738755385.307139,30.000000,0.000000,4322.948730,4351.025879,4253.974121,4301.922852,4352.563965,4360.897461,4368.205078,4548.333496,4539.102539,4559.230957,4497.307617,5661.794922,4310.769043,4259.487305,0.000000,4.000000,75.000000,,,,0.000000,0.000000,0.000000,0.000000,0.000000,0.000000,0.000000,0.000000,0.000000,0.000000,0.000000,0.000000,0.000000,0.000000,0.000000,0.000000,1.000000,0.000000,0.000000,0.000000,0.000000,0.000000,0.000000,0.000000,0.000000,0.000000,0.000000,0.000000,0.000000,0.000000,0.000000,0.000000,,,,,,,,,,,,,,,,,,,,,,,,,,,,,,,,,,,,,,,,,,,,0.017774,0.018040,0.033660,0.019049,0.026429,0.019807,0.017610,0.022799,0.016459,0.015198,0.058239,0.040157,0.023887,0.018746,0.020194,0.033401,0.034221,0.026192,0.024383,0.023313,0.030140,0.008670,0.015990,0.011627,0.029207,0.019297,0.015824,0.012165,0.023571,0.026833,0.033512,0.048626,0.023637,0.030695,0.026876,0.032730,0.029351,0.016124,0.025310,0.022774,0.026699,0.026661,0.045010,0.017273,0.019131,0.013436,0.027396,0.025173,0.022825,0.021151,0.008533,0.040667,0.046817,0.018755,0.033759,0.022376,0.013921,0.017547,0.018859,0.024637,0.059023,0.024501,0.013323,0.040910,0.035430,0.034949,0.039118,0.012411,0.019283,0.031658
1738755385.314179,1738755385.314948,31.000000,0.000000,4322.051270,4350.512695,4256.282227,4303.717773,4352.820313,4357.948730,4366.922852,4548.717773,4536.922852,4558.974121,4496.794922,5662.820313,4307.307617,4256.666504,0.000000,4.000000,75.000000,,,,0.000000,0.000000,0.000000,0.000000,0.000000,0.000000,0.000000,0.000000,0.000000,0.000000,0.000000,0.000000,0.000000,0.000000,0.000000,0.000000,,,,,,,,,,,,,,,,,,,,,,,,,,,,,,,,,,,,,,,,,,,,,,,,,,,,,,,,,,,,,,,,,,,,,,,,,,,,,,,,,,,,,,,,,,,,,,,,,,,,,,,,,,,,,,,,,,,,,,,,,,,,,,,,,
1738755385.321987,1738755385.322856,32.000000,0.000000,4322.820313,4352.692383,4257.563965,4301.794922,4352.307617,4357.307617,4363.333496,4549.487305,4540.641113,4560.897461,4498.077148,5660.641113,4313.974121,4257.948730,0.000000,4.000000,75.000000,,,,0.000000,0.000000,0.000000,0.000000,0.000000,0.000000,0.000000,0.000000,0.000000,0.000000,0.000000,0.000000,0.000000,0.000000,0.000000,0.000000,,,,,,,,,,,,,,,,,8.000000,0.000000,0.785293,-0.615417,-0.061707,0.027710,0.063973,-0.966915,0.232939,4.594349,-15.261551,22.629782,,,,,,,,,,,,,,,,,,,,,,,,,,,,,,,,,,,,,,,,,,,,,,,,,,,,,,,,,,,,,,,,,,,,,,,,,,,,,,,,,,,,,,,,,,,,,,,,,,,,,
1738755385.329795,1738755385.330664,33.000000,0.000000,4323.077148,4352.307617,4253.717773,4302.307617,4352.948730,4358.974121,4366.282227,4550.128418,4543.205078,4561.922852,4496.153809,5663.717773,4312.307617,4257.948730,0.000000,4.000000,75.000000,,,,0.000000,0.000000,0.000000,0.000000,0.000000,0.000000,0.000000,0.000000,0.000000,0.000000,0.000000,0.000000,0.000000,0.000000,0.000000,0.000000,,,,,,,,,,,,,,,,,,,,,,,,,,,,,,,,,,,,,,,,,,,,,,,,,,,,,,,,,,,,,,,,,,,,,,,,,,,,,,,,,,,,,,,,,,,,,,,,,,,,,,,,,,,,,,,,,,,,,,,,,,,,,,,,,
1738755385.337603,1738755385.338372,34.000000,0.000000,4322.307617,4351.153809,4251.922852,4303.333496,4353.974121,4359.358887,4365.128418,4547.820313,4540.897461,4559.743652,4494.743652,5663.589844,4315.256348,4257.051270,0.000000,4.000000,75.000000,,,,0.000000,0.000000,0.000000,0.000000,0.000000,0.000000,0.000000,0.000000,0.000000,0.000000,0.000000,0.000000,0.000000,0.000000,0.000000,0.000000,,,,,,,,,,,,,,,,,,,,,,,,,,,,,,,,,,,,,,,,,,,,,,,,,,,,,,,,,,,,,,,,,,,,,,,,,,,,,,,,,,,,,,,,,,,,,,,,,,,,,,,,,,,,,,,,,,,,,,,,,,,,,,,,,
1738755385.345412,1738755385.346180,35.000000,0.000000,4323.205078,4351.025879,4256.153809,4300.384766,4353.717773,4358.461426,4361.410156,4546.794922,4538.205078,4558.846191,4494.230957,5660.128418,4317.948730,4257.563965,0.000000,4.000000,75.000000,,,,0.000000,0.000000,0.000000,0.000000,0.000000,0.000000,0.000000,0.000000,0.000000,0.000000,0.000000,0.000000,0.000000,0.000000,0.000000,0.000000,,,,,,,,,,,,,,,,,,,,,,,,,,,,,,,,,,,,,,,,,,,,,,,,,,,,,,,,,,,,,,,,,,,,,,,,,,,,,,,,,,,,,,,,,,,,,,,,,,,,,,,,,,,,,,,,,,,,,,,,,,,,,,,,,
1738755385.353220,1738755385.353889,36.000000,0.000000,4323.846191,4350.641113,4260.000000,4299.871582,4352.563965,4357.948730,4364.487305,4548.461426,4537.820313,4561.666504,4494.615234,5661.410156,4311.794922,4256.282227,0.000000,4.000000,75.000000,,,,0.000000,0.000000,0.000000,0.000000,0.000000,0.000000,0.000000,0.000000,0.000000,0.000000,0.000000,0.000000,0.000000,0.000000,0.000000,0.000000,,,,,,,,,,,,,,,,,9.000000,0.000000,0.785339,-0.615356,-0.061768,0.027649,0.059578,-0.968868,0.225613,4.618248,-15.068729,22.716805,,,,,,,,,,,,,,,,,,,,,,,,,,,,,,,,,,,,,,,,,,,,,,,,,,,,,,,,,,,,,,,,,,,,,,,,,,,,,,,,,,,,,,,,,,,,,,,,,,,,,
1738755385.361028,1738755385.361697,37.000000,0.000000,4321.153809,4351.153809,4258.077148,4302.307617,4351.282227,4358.717773,4364.615234,4547.692383,4541.025879,4560.128418,4496.666504,5661.794922,4311.282227,4256.153809,0.000000,4.000000,75.000000,,,,0.000000,0.000000,0.000000,0.000000,0.000000,0.000000,0.000000,0.000000,0.000000,0.000000,0.000000,0.000000,0.000000,0.000000,0.000000,0.000000,,,,,,,,,,,,,,,,,,,,,,,,,,,,,,,,,,,,,,,,,,,,,,,,,,,,,,,,,,,,,,,,,,,,,,,,,,,,,,,,,,,,,,,,,,,,,,,,,,,,,,,,,,,,,,,,,,,,,,,,,,,,,,,,,
1738755385.368836,1738755385.369405,38.000000,0.000000,4320.256348,4349.102539,4256.410156,4303.974121,4350.641113,4358.846191,4363.717773,4551.025879,4541.666504,4556.282227,4495.897461,5665.256348,4308.205078,4253.846191,0.000000,4.000000,75.000000,,,,0.000000,0.000000,0.000000,0.000000,0.000000,0.000000,0.000000,0.000000,0.000000,0.000000,0.000000,0.000000,0.000000,0.000000,0.000000,0.000000,,,,,,,,,,,,,,,,,,,,,,,,,,,,,,,,,,,,,,,,,,,,,,,,,,,,,,,,,,,,,,,,,,,,,,,,,,,,,,,,,,,,,,,,,,,,,,,,,,,,,,,,,,,,,,,,,,,,,,,,,,,,,,,,,
1738755385.376644,1738755385.377313,39.000000,0.000000,4319.743652,4350.000000,4257.179688,4300.128418,4351.794922,4357.051270,4363.333496,4550.769043,4540.384766,4561.025879,4496.153809,5665.641113,4307.436035,4253.205078,0.000000,4.000000,75.000000,,,,0.000000,0.000000,0.000000,0.000000,0.000000,0.000000,0.000000,0.000000,0.000000,0.000000,0.000000,0.000000,0.000000,0.000000,0.000000,0.000000,,,,,,,,,,,,,,,,,,,,,,,,,,,,,,,,,,,,,,,,,,,,,,,,,,,,,,,,,,,,,,,,,,,,,,,,,,,,,,,,,,,,,,,,,,,,,,,,,,,,,,,,,,,,,,,,,,,,,,,,,,,,,,,,,
1738755385.384452,1738755385.385121,40.000000,0.000000,4320.512695,4351.922852,4256.025879,4300.512695,4352.563965,4358.846191,4362.820313,4547.179688,4540.128418,4564.230957,4498.077148,5661.666504,4309.743652,4255.641113,0.000000,4.000000,75.000000,,,,0.000000,0.000000,0.000000,0.000000,0.000000,0.000000,0.000000,0.000000,0.000000,0.000000,0.000000,0.000000,0.000000,0.000000,0.000000,0.000000,,,,,,,,,,,,,,,,,10.000000,0.000000,0.785291,-0.615417,-0.061768,0.027649,0.069344,-0.976682,0.237334,4.689756,-15.045190,22.811790,,,,,,,,,,,,,,,,,,,,,,,,,,,,,,,,,,,,,,,,,,,,,,,,,,,,,,,,,,,,,,,,,,,,,,,,,,,,,,,,,,,,,,,,,,,,,,,,,,,,,
1738755385.392260,1738755385.393030,41.000000,0.000000,4323.205078,4350.256348,4254.487305,4305.897461,4351.153809,4361.282227,4366.922852,4549.871582,4539.230957,4560.384766,4497.179688,5664.743652,4308.846191,4256.666504,0.000000,4.000000,75.000000,,,,0.000000,0.000000,0.000000,0.000000,0.000000,0.000000,0.000000,0.000000,0.000000,0.000000,0.000000,0.000000,0.000000,0.000000,0.000000,0.000000,,,,,,,,,,,,,,,,,,,,,,,,,,,,,,,,,,,,,,,,,,,,,,,,,,,,,,,,,,,,,,,,,,,,,,,,,,,,,,,,,,,,,,,,,,,,,,,,,,,,,,,,,,,,,,,,,,,,,,,,,,,,,,,,,
1738755385.400068,1738755385.400838,42.000000,0.000000,4322.307617,4350.128418,4254.743652,4302.948730,4352.051270,4359.487305,4366.794922,4550.256348,4538.205078,4559.487305,4498.333496,5663.333496,4314.102539,4257.307617,0.000000,4.000000,75.000000,,,,0.000000,0.000000,0.000000,0.000000,0.000000,0.000000,0.000000,0.000000,0.000000,0.000000,0.000000,0.000000,0.000000,0.000000,0.000000,0.000000,,,,,,,,,,,,,,,,,,,,,,,,,,,,,,,,,,,,,,,,,,,,,,,,,,,,,,,,,,,,,,,,,,,,,,,,,,,,,,,,,,,,,,,,,,,,,,,,,,,,,,,,,,,,,,,,,,,,,,,,,,,,,,,,,
1738755385.407876,1738755385.408746,43.000000,0.000000,4324.743652,4351.153809,4255.641113,4300.256348,4352.436035,4359.230957,4364.102539,4548.846191,4538.205078,4560.641113,4499.358887,5662.051270,4310.769043,4253.205078,0.000000,4.000000,75.000000,,,,0.000000,0.000000,0.000000,0.000000,0.000000,0.000000,0.000000,0.000000,0.000000,0.000000,0.000000,0.000000,0.000000,0.000000,0.000000,0.000000,,,,,,,,,,,,,,,,,,,,,,,,,,,,,,,,,,,,,,,,,,,,,,,,,,,,,,,,,,,,,,,,,,,,,,,,,,,,,,,,,,,,,,,,,,,,,,,,,,,,,,,,,,,,,,,,,,,,,,,,,,,,,,,,,
1738755385.415685,1738755385.416554,44.000000,0.000000,4326.153809,4351.025879,4254.102539,4299.358887,4349.615234,4360.384766,4367.820313,4549.230957,4540.256348,4561.025879,4496.666504,5665.641113,4306.666504,4251.666504,0.000000,4.000000,75.000000,,,,0.000000,0.000000,0.000000,0.000000,0.000000,0.000000,0.000000,0.000000,0.000000,0.000000,0.000000,0.000000,0.000000,0.000000,0.000000,0.000000,,,,,,,,,,,,,,,,,11.000000,0.000000,0.785293,-0.615417,-0.061707,0.027710,0.062508,-0.976193,0.235869,4.637447,-15.074004,22.780611,,,,,,,,,,,,,,,,,,,,,,,,,,,,,,,,,,,,,,,,,,,,,,,,,,,,,,,,,,,,,,,,,,,,,,,,,,,,,,,,,,,,,,,,,,,,,,,,,,,,,
1738755385.423493,1738755385.424462,45.000000,0.000000,4322.692383,4350.256348,4252.179688,4298.461426,4350.000000,4357.563965,4368.461426,4548.589844,4542.820313,4561.153809,4494.487305,5665.128418,4311.538574,4255.512695,0.000000,4.000000,75.000000,,,,0.000000,0.000000,0.000000,0.000000,0.000000,0.000000,0.000000,0.000000,0.000000,0.000000,0.000000,0.000000,0.000000,0.000000,0.000000,0.000000,,,,,,,,,,,,,,,,,,,,,,,,,,,,,,,,,,,,,,,,,,,,,,,,,,,,,,,,,,,,,,,,,,,,,,,,,,,,,,,,,,,,,,,,,,,,,,,,,,,,,,,,,,,,,,,,,,,,,,,,,,,,,,,,,
1738755385.431301,1738755385.432270,46.000000,0.000000,4325.128418,4350.128418,4253.077148,4300.384766,4353.717773,4356.410156,4363.717773,4548.717773,4540.769043,4560.256348,4495.000000,5665.384766,4310.000000,4253.717773,0.000000,4.000000,75.000000,,,,0.000000,0.000000,0.000000,0.000000,0.000000,0.000000,0.000000,0.000000,0.000000,0.000000,0.000000,0.000000,0.000000,0.000000,0.000000,0.000000,,,,,,,,,,,,,,,,,,,,,,,,,,,,,,,,,,,,,,,,,,,,,,,,,,,,,,,,,,,,0.019743,0.016839,0.026086,0.016266,0.031031,0.019170,0.015233,0.025069,0.017875,0.015770,0.053501,0.049226,0.025052,0.016724,0.019488,0.033247,0.037026,0.026593,0.023759,0.023646,0.030650,0.010517,0.015731,0.011685,0.028673,0.016929,0.012530,0.010890,0.024198,0.028323,0.038520,0.050304,0.017752,0.026310,0.026098,0.031686,0.026833,0.013581,0.025222,0.023733,0.030256,0.024137,0.044927,0.016767,0.018447,0.013763,0.025040,0.027337,0.025314,0.020739,0.007845,0.038336,0.041927,0.019590,0.031749,0.021712,0.013033,0.019235,0.019201,0.024517,0.062508,0.025171,0.014679,0.039688,0.035114,0.029798,0.041207,0.014520,0.019741,0.031803
1738755385.439109,1738755385.440178,47.000000,0.000000,4325.897461,4351.025879,4252.051270,4300.384766,4354.871582,4358.077148,4361.410156,4549.358887,4538.974121,4561.025879,4498.717773,5663.717773,4313.333496,4255.128418,0.000000,4.000000,75.000000,,,,0.000000,0.000000,0.000000,0.000000,0.000000,0.000000,0.000000,0.000000,0.000000,0.000000,0.000000,0.000000,0.000000,0.000000,0.000000,0.000000,,,,,,,,,,,,,,,,,,,,,,,,,,,,,,,,,,,,,,,,,,,,,,,,,,,,,,,,,,,,,,,,,,,,,,,,,,,,,,,,,,,,,,,,,,,,,,,,,,,,,,,,,,,,,,,,,,,,,,,,,,,,,,,,,
1738755385.446917,1738755385.447987,48.000000,0.000000,4319.743652,4352.307617,4252.820313,4302.692383,4352.179688,4358.333496,4365.128418,4549.871582,4539.615234,4561.282227,4498.846191,5662.692383,4313.846191,4256.666504,0.000000,4.000000,75.000000,,,,0.000000,0.000000,0.000000,0.000000,0.000000,0.000000,0.000000,0.000000,0.000000,0.000000,0.000000,0.000000,0.000000,0.000000,0.000000,0.000000,,,,,,,,,,,,,,,,,12.000000,0.000000,0.785293,-0.615417,-0.061707,0.027710,0.062019,-0.979612,0.234404,4.590369,-15.049936,22.919216,,,,,,,,,,,,,,,,,,,,,,,,,,,,,,,,,,,,,,,,,,,,,,,,,,,,,,,,,,,,,,,,,,,,,,,,,,,,,,,,,,,,,,,,,,,,,,,,,,,,,
1738755385.454725,1738755385.455895,49.000000,0.000000,4321.282227,4352.051270,4254.487305,4303.077148,4350.512695,4358.333496,4366.153809,4548.077148,4540.128418,4561.025879,4496.282227,5663.846191,4310.384766,4255.769043,0.000000,4.000000,75.000000,,,,0.000000,0.000000,0.000000,0.000000,0.000000,0.000000,0.000000,0.000000,0.000000,0.000000,0.000000,0.000000,0.000000,0.000000,0.000000,0.000000,,,,,,,,,,,,,,,,,,,,,,,,,,,,,,,,,,,,,,,,,,,,,,,,,,,,,,,,,,,,,,,,,,,,,,,,,,,,,,,,,,,,,,,,,,,,,,,,,,,,,,,,,,,,,,,,,,,,,,,,,,,,,,,,,
1738755385.462533,1738755385.463703,50.000000,0.000000,4325.384766,4350.769043,4253.333496,4300.512695,4350.128418,4359.871582,4364.102539,4549.102539,4538.717773,4561.794922,4495.769043,5663.205078,4312.948730,4259.230957,0.000000,4.000000,75.000000,,,,0.000000,0.000000,0.000000,0.000000,0.000000,0.000000,0.000000,0.000000,0.000000,0.000000,0.000000,0.000000,0.000000,0.000000,0.000000,0.000000,,,,,,,,,,,,,,,,,,,,,,,,,,,,,,,,,,,,,,,,,,,,,,,,,,,,,,,,,,,,,,,,,,,,,,,,,,,,,,,,,,,,,,,,,,,,,,,,,,,,,,,,,,,,,,,,,,,,,,,,,,,,,,,,,
1738755385.470341,1738755385.471611,51.000000,0.000000,4321.025879,4349.871582,4253.717773,4302.436035,4350.641113,4361.025879,4365.512695,4553.077148,4536.282227,4561.538574,4494.358887,5665.000000,4307.051270,4258.717773,0.000000,4.000000,75.000000,,,,0.000000,0.000000,0.000000,0.000000,0.000000,0.000000,0.000000,0.000000,0.000000,0.000000,0.000000,0.000000,0.000000,0.000000,0.000000,0.000000,,,,,,,,,,,,,,,,,,,,,,,,,,,,,,,,,,,,,,,,,,,,,,,,,,,,,,,,,,,,,,,,,,,,,,,,,,,,,,,,,,,,,,,,,,,,,,,,,,,,,,,,,,,,,,,,,,,,,,,,,,,,,,,,,
1738755385.478149,1738755385.479419,52.000000,0.000000,4319.102539,4349.615234,4257.051270,4304.102539,4352.307617,4358.461426,4362.692383,4549.487305,4538.205078,4561.025879,4495.000000,5663.974121,4309.615234,4256.794922,0.000000,4.000000,75.000000,,,,0.000000,0.000000,0.000000,0.000000,0.000000,0.000000,0.000000,0.000000,0.000000,0.000000,0.000000,0.000000,0.000000,0.000000,0.000000,0.000000,,,,,,,,,,,,,,,,,13.000000,0.000000,0.785243,-0.615479,-0.061768,0.027649,0.070809,-0.970333,0.235869,4.381332,-15.128277,22.877295,,,,,,,,,,,,,,,,,,,,,,,,,,,,,,,,,,,,,,,,,,,,,,,,,,,,,,,,,,,,,,,,,,,,,,,,,,,,,,,,,,,,,,,,,,,,,,,,,,,,,
1738755385.485958,1738755385.487327,53.000000,0.000000,4322.948730,4350.384766,4259.615234,4303.589844,4354.230957,4357.307617,4363.461426,4547.051270,4538.974121,4559.230957,4497.820313,5662.692383,4313.333496,4257.563965,0.000000,4.000000,75.000000,,,,0.000000,0.000000,0.000000,0.000000,0.000000,0.000000,0.000000,0.000000,0.000000,0.000000,0.000000,0.000000,0.000000,0.000000,0.000000,0.000000,,,,,,,,,,,,,,,,,,,,,,,,,,,,,,,,,,,,,,,,,,,,,,,,,,,,,,,,,,,,,,,,,,,,,,,,,,,,,,,,,,,,,,,,,,,,,,,,,,,,,,,,,,,,,,,,,,,,,,,,,,,,,,,,,
1738755385.493765,1738755385.495136,54.000000,0.000000,4321.025879,4351.794922,4254.871582,4303.333496,4354.230957,4360.256348,4368.077148,4551.282227,4537.307617,4557.692383,4498.974121,5663.846191,4306.666504,4257.692383,0.000000,4.000000,75.000000,,,,0.000000,0.000000,0.000000,0.000000,0.000000,0.000000,0.000000,0.000000,0.000000,0.000000,0.000000,0.000000,0.000000,0.000000,0.000000,0.000000,,,,,,,,,,,,,,,,,,,,,,,,,,,,,,,,,,,,,,,,,,,,,,,,,,,,,,,,,,,,,,,,,,,,,,,,,,,,,,,,,,,,,,,,,,,,,,,,,,,,,,,,,,,,,,,,,,,,,,,,,,,,,,,,,
1738755385.501574,1738755385.503044,55.000000,0.000000,4319.871582,4352.179688,4250.897461,4301.410156,4352.948730,4358.974121,4365.256348,4550.897461,4538.974121,4558.846191,4500.512695,5660.512695,4308.077148,4258.717773,0.000000,4.000000,75.000000,,,,0.000000,0.000000,0.000000,0.000000,0.000000,0.000000,0.000000,0.000000,0.000000,0.000000,0.000000,0.000000,0.000000,0.000000,0.000000,0.000000,,,,,,,,,,,,,,,,,,,,,,,,,,,,,,,,,,,,,,,,,,,,,,,,,,,,,,,,,,,,,,,,,,,,,,,,,,,,,,,,,,,,,,,,,,,,,,,,,,,,,,,,,,,,,,,,,,,,,,,,,,,,,,,,,
1738755385.509382,1738755385.510852,56.000000,0.000000,4324.487305,4349.102539,4254.102539,4302.179688,4354.102539,4357.948730,4364.102539,4550.384766,4539.615234,4560.512695,4498.205078,5662.051270,4308.461426,4255.769043,0.000000,4.000000,75.000000,,,,0.000000,0.000000,0.000000,0.000000,0.000000,0.000000,0.000000,0.000000,0.000000,0.000000,0.000000,0.000000,0.000000,0.000000,0.000000,0.000000,,,,,,,,,,,,,,,,,,,,,,,,,,,,,,,,,,,,,,,,,,,,,,,,,,,,,,,,,,,,,,,,,,,,,,,,,,,,,,,,,,,,,,,,,,,,,,,,,,,,,,,,,,,,,,,,,,,,,,,,,,,,,,,,,
1738755385.517190,1738755385.518560,57.000000,0.000000,4322.179688,4347.948730,4253.717773,4302.307617,4354.358887,4360.641113,4364.358887,4551.153809,4539.102539,4560.000000,4495.128418,5662.436035,4310.256348,4255.897461,0.000000,4.000000,75.000000,,,,0.000000,0.000000,0.000000,0.000000,0.000000,0.000000,0.000000,0.000000,0.000000,0.000000,0.000000,0.000000,0.000000,0.000000,0.000000,0.000000,,,,,,,,,,,,,,,,,,,,,,,,,,,,,,,,,,,,,,,,,,,,,,,,,,,,,,,,,,,,,,,,,,,,,,,,,,,,,,,,,,,,,,,,,,,,,,,,,,,,,,,,,,,,,,,,,,,,,,,,,,,,,,,,,
1738755385.524998,1738755385.526368,58.000000,0.000000,4319.102539,4350.769043,4252.563965,4299.871582,4354.487305,4359.615234,4366.410156,4550.384766,4538.205078,4558.846191,4496.410156,5658.717773,4311.794922,4256.922852,0.000000,4.000000,75.000000,,,,0.000000,0.000000,0.000000,0.000000,0.000000,0.000000,0.000000,0.000000,0.000000,0.000000,0.000000,0.000000,0.000000,0.000000,0.000000,0.000000,,,,,,,,,,,,,,,,,,,,,,,,,,,,,,,,,,,,,,,,,,,,,,,,,,,,,,,,,,,,,,,,,,,,,,,,,,,,,,,,,,,,,,,,,,,,,,,,,,,,,,,,,,,,,,,,,,,,,,,,,,,,,,,,,
