title:bread1, start timestamp:1738755278.858561, stop timestamp:1738755279.881422, headset type:EPOCX, headset serial:E50208A5, headset firmware:720, channels:168, sampling rate:eeg_128;mot_32;pm_0.1;pow_8, samples:132       , version:2.2, 
Timestamp,OriginalTimestamp,EEG.Counter,EEG.Interpolated,EEG.AF3,EEG.F7,EEG.F3,EEG.FC5,EEG.T7,EEG.P7,EEG.O1,EEG.O2,EEG.P8,EEG.T8,EEG.FC6,EEG.F4,EEG.F8,EEG.AF4,EEG.RawCq,EEG.Battery,EEG.BatteryPercent,MarkerIndex,MarkerType,MarkerValueInt,EEG.MarkerHardware,CQ.AF3,CQ.F7,CQ.F3,CQ.FC5,CQ.T7,CQ.P7,CQ.O1,CQ.O2,CQ.P8,CQ.T8,CQ.FC6,CQ.F4,CQ.F8,CQ.AF4,CQ.Overall,EQ.SampleRateQuality,EQ.OVERALL,EQ.AF3,EQ.F7,EQ.F3,EQ.FC5,EQ.T7,EQ.P7,EQ.O1,EQ.O2,EQ.P8,EQ.T8,EQ.FC6,EQ.F4,EQ.F8,EQ.AF4,MOT.CounterMems,MOT.InterpolatedMems,MOT.Q0,MOT.Q1,MOT.Q2,MOT.Q3,MOT.AccX,MOT.AccY,MOT.AccZ,MOT.MagX,MOT.MagY,MOT.MagZ,PM.Attention.IsActive,PM.Attention.Scaled,PM.Attention.Raw,PM.Attention.Min,PM.Attention.Max,PM.Engagement.IsActive,PM.Engagement.Scaled,PM.Engagement.Raw,PM.Engagement.Min,PM.Engagement.Max,PM.Excitement.IsActive,PM.Excitement.Scaled,PM.Excitement.Raw,PM.Excitement.Min,PM.Excitement.Max,PM.LongTermExcitement,PM.Stress.IsActive,PM.Stress.Scaled,PM.Stress.Raw,PM.Stress.Min,PM.Stress.Max,PM.Relaxation.IsActive,PM.Relaxation.Scaled,PM.Relaxation.Raw,PM.Relaxation.Min,PM.Relaxation.Max,PM.Interest.IsActive,PM.Interest.Scaled,PM.Interest.Raw,PM.Interest.Min,PM.Interest.Max,POW.AF3.Theta,POW.AF3.Alpha,POW.AF3.BetaL,POW.AF3.BetaH,POW.AF3.Gamma,POW.F7.Theta,POW.F7.Alpha,POW.F7.BetaL,POW.F7.BetaH,POW.F7.Gamma,POW.F3.Theta,POW.F3.Alpha,POW.F3.BetaL,POW.F3.BetaH,POW.F3.Gamma,POW.FC5.Theta,POW.FC5.Alpha,POW.FC5.BetaL,POW.FC5.BetaH,POW.FC5.Gamma,POW.T7.Theta,POW.T7.Alpha,POW.T7.BetaL,POW.T7.BetaH,POW.T7.Gamma,POW.P7.Theta,POW.P7.Alpha,POW.P7.BetaL,POW.P7.BetaH,POW.P7.Gamma,POW.O1.Theta,POW.O1.Alpha,POW.O1.BetaL,POW.O1.BetaH,POW.O1.Gamma,POW.O2.Theta,POW.O2.Alpha,POW.O2.BetaL,POW.O2.BetaH,POW.O2.Gamma,POW.P8.Theta,POW.P8.Alpha,POW.P8.BetaL,POW.P8.BetaH,POW.P8.Gamma,POW.T8.Theta,POW.T8.Alpha,POW.T8.BetaL,POW.T8.BetaH,POW.T8.Gamma,POW.FC6.Theta,POW.FC6.Alpha,POW.FC6.BetaL,POW.FC6.BetaH,POW.FC6.Gamma,POW.F4.Theta,POW.F4.Alpha,POW.F4.BetaL,POW.F4.BetaH,POW.F4.Gamma,POW.F8.Theta,POW.F8.Alpha,POW.F8.BetaL,POW.F8.BetaH,POW.F8.Gamma,POW.AF4.Theta,POW.AF4.Alpha,POW.AF4.BetaL,POW.AF4.BetaH,POW.AF4.Gamma
1738755278.858561,1738755278.859439,93.000000,0.000000,4320.512695,4347.563965,4252.948730,4301.794922,4351.538574,4361.025879,4364.487305,4551.025879,4541.410156,4560.769043,4498.589844,5662.948730,4311.410156,4257.692383,0.000000,4.000000,75.000000,,,,0.000000,0.000000,0.000000,0.000000,0.000000,0.000000,0.000000,0.000000,0.000000,0.000000,0.000000,0.000000,0.000000,0.000000,0.000000,0.000000,,,,,,,,,,,,,,,,,,,,,,,,,,,,,,,,,,,,,,,,,,,,,,,,,,,,,,,,,,,,,,,,,,,,,,,,,,,,,,,,,,,,,,,,,,,,,,,,,,,,,,,,,,,,,,,,,,,,,,,,,,,,,,,,,
1738755278.866369,1738755278.867347,94.000000,0.000000,4320.641113,4348.205078,4252.948730,4301.922852,4350.512695,4361.922852,4363.205078,4553.205078,4541.282227,4558.717773,4497.307617,5663.589844,4310.897461,4255.384766,0.000000,4.000000,75.000000,,,,0.000000,0.000000,0.000000,0.000000,0.000000,0.000000,0.000000,0.000000,0.000000,0.000000,0.000000,0.000000,0.000000,0.000000,0.000000,0.000000,1.000000,0.000000,0.000000,0.000000,0.000000,0.000000,0.000000,0.000000,0.000000,0.000000,0.000000,0.000000,0.000000,0.000000,0.000000,0.000000,,,,,,,,,,,,,,,,,,,,,,,,,,,,,,,,,,,,,,,,,,,,0.032208,0.023161,0.021240,0.019316,0.022735,0.024157,0.047822,0.025140,0.022135,0.026875,0.041529,0.035528,0.008286,0.027272,0.033371,0.016652,0.038756,0.029477,0.023032,0.024129,0.024309,0.027454,0.019042,0.027208,0.052137,0.020378,0.018826,0.019712,0.027653,0.012374,0.051618,0.082691,0.081660,0.026003,0.033952,0.039984,0.026672,0.013170,0.016124,0.020116,0.035968,0.037010,0.012369,0.022698,0.035039,0.016806,0.017259,0.011432,0.010843,0.026318,0.026356,0.018789,0.017069,0.013441,0.017642,0.040605,0.033047,0.046354,0.022938,0.028194,0.054020,0.037354,0.026212,0.042382,0.036579,0.054066,0.041832,0.016060,0.025054,0.031552
1738755278.874178,1738755278.875155,95.000000,0.000000,4321.922852,4349.743652,4251.666504,4302.307617,4349.615234,4361.666504,4363.589844,4553.717773,4540.512695,4556.153809,4497.563965,5663.846191,4312.948730,4257.051270,0.000000,4.000000,75.000000,,,,0.000000,0.000000,0.000000,0.000000,0.000000,0.000000,0.000000,0.000000,0.000000,0.000000,0.000000,0.000000,0.000000,0.000000,0.000000,0.000000,,,,,,,,,,,,,,,,,,,,,,,,,,,,,,,,,,,,,,,,,,,,,,,,,,,,,,,,,,,,,,,,,,,,,,,,,,,,,,,,,,,,,,,,,,,,,,,,,,,,,,,,,,,,,,,,,,,,,,,,,,,,,,,,,
1738755278.881986,1738755278.883063,96.000000,0.000000,4322.051270,4351.538574,4250.641113,4301.666504,4351.410156,4360.512695,4365.000000,4549.871582,4539.358887,4557.692383,4496.794922,5660.384766,4316.538574,4260.000000,0.000000,4.000000,75.000000,,,,0.000000,0.000000,0.000000,0.000000,0.000000,0.000000,0.000000,0.000000,0.000000,0.000000,0.000000,0.000000,0.000000,0.000000,0.000000,0.000000,,,,,,,,,,,,,,,,,24.000000,0.000000,0.785210,-0.615662,-0.061584,0.024780,0.058113,-0.969845,0.237822,4.380263,-15.009157,22.814552,,,,,,,,,,,,,,,,,,,,,,,,,,,,,,,,,,,,,,,,,,,,,,,,,,,,,,,,,,,,,,,,,,,,,,,,,,,,,,,,,,,,,,,,,,,,,,,,,,,,,
1738755278.889794,1738755278.890872,97.000000,0.000000,4323.846191,4350.769043,4253.205078,4302.692383,4351.922852,4361.666504,4367.307617,4552.307617,4537.692383,4559.743652,4495.897461,5664.230957,4312.436035,4257.436035,0.000000,4.000000,75.000000,,,,0.000000,0.000000,0.000000,0.000000,0.000000,0.000000,0.000000,0.000000,0.000000,0.000000,0.000000,0.000000,0.000000,0.000000,0.000000,0.000000,,,,,,,,,,,,,,,,,,,,,,,,,,,,,,,,,,,,,,,,,,,,,,,,,,,,,,,,,,,,,,,,,,,,,,,,,,,,,,,,,,,,,,,,,,,,,,,,,,,,,,,,,,,,,,,,,,,,,,,,,,,,,,,,,
1738755278.897602,1738755278.898580,98.000000,0.000000,4322.948730,4347.307617,4254.230957,4301.666504,4350.256348,4362.307617,4365.384766,4552.179688,4540.128418,4560.384766,4496.538574,5665.897461,4312.436035,4257.179688,0.000000,4.000000,75.000000,,,,0.000000,0.000000,0.000000,0.000000,0.000000,0.000000,0.000000,0.000000,0.000000,0.000000,0.000000,0.000000,0.000000,0.000000,0.000000,0.000000,,,,,,,,,,,,,,,,,,,,,,,,,,,,,,,,,,,,,,,,,,,,,,,,,,,,,,,,,,,,,,,,,,,,,,,,,,,,,,,,,,,,,,,,,,,,,,,,,,,,,,,,,,,,,,,,,,,,,,,,,,,,,,,,,
1738755278.905410,1738755278.906388,99.000000,0.000000,4319.102539,4345.641113,4254.358887,4301.410156,4352.307617,4361.410156,4365.128418,4548.974121,4541.666504,4559.230957,4496.153809,5662.692383,4311.410156,4257.692383,0.000000,4.000000,75.000000,,,,0.000000,0.000000,0.000000,0.000000,0.000000,0.000000,0.000000,0.000000,0.000000,0.000000,0.000000,0.000000,0.000000,0.000000,0.000000,0.000000,,,,,,,,,,,,,,,,,,,,,,,,,,,,,,,,,,,,,,,,,,,,,,,,,,,,,,,,,,,,,,,,,,,,,,,,,,,,,,,,,,,,,,,,,,,,,,,,,,,,,,,,,,,,,,,,,,,,,,,,,,,,,,,,,
1738755278.913218,1738755278.914096,100.000000,0.000000,4320.256348,4346.282227,4255.256348,4304.358887,4353.333496,4361.025879,4366.410156,4552.436035,4540.384766,4558.205078,4497.179688,5662.307617,4307.948730,4257.820313,0.000000,4.000000,75.000000,,,,0.000000,0.000000,0.000000,0.000000,0.000000,0.000000,0.000000,0.000000,0.000000,0.000000,0.000000,0.000000,0.000000,0.000000,0.000000,0.000000,,,,,,,,,,,,,,,,,25.000000,0.000000,0.785210,-0.615662,-0.061584,0.024780,0.069344,-0.972287,0.234404,4.275570,-14.991575,22.783096,,,,,,,,,,,,,,,,,,,,,,,,,,,,,,,,,,,,,,,,,,,,,,,,,,,,,,,,,,,,,,,,,,,,,,,,,,,,,,,,,,,,,,,,,,,,,,,,,,,,,
1738755278.921026,1738755278.922005,101.000000,0.000000,4322.179688,4348.205078,4255.000000,4303.077148,4351.922852,4361.922852,4361.153809,4553.461426,4541.794922,4560.384766,4498.205078,5661.922852,4311.153809,4256.538574,0.000000,4.000000,75.000000,,,,0.000000,0.000000,0.000000,0.000000,0.000000,0.000000,0.000000,0.000000,0.000000,0.000000,0.000000,0.000000,0.000000,0.000000,0.000000,0.000000,,,,,,,,,,,,,,,,,,,,,,,,,,,,,,,,,,,,,,,,,,,,,,,,,,,,,,,,,,,,,,,,,,,,,,,,,,,,,,,,,,,,,,,,,,,,,,,,,,,,,,,,,,,,,,,,,,,,,,,,,,,,,,,,,
1738755278.928834,1738755278.929813,102.000000,0.000000,4321.666504,4347.436035,4254.230957,4301.153809,4352.436035,4361.538574,4359.230957,4552.179688,4540.641113,4560.769043,4496.025879,5663.077148,4311.410156,4253.333496,0.000000,4.000000,75.000000,,,,0.000000,0.000000,0.000000,0.000000,0.000000,0.000000,0.000000,0.000000,0.000000,0.000000,0.000000,0.000000,0.000000,0.000000,0.000000,0.000000,,,,,,,,,,,,,,,,,,,,,,,,,,,,,,,,,,,,,,,,,,,,,,,,,,,,,,,,,,,,,,,,,,,,,,,,,,,,,,,,,,,,,,,,,,,,,,,,,,,,,,,,,,,,,,,,,,,,,,,,,,,,,,,,,
1738755278.936642,1738755278.937621,103.000000,0.000000,4322.307617,4349.230957,4252.436035,4300.897461,4352.820313,4361.153809,4364.102539,4551.794922,4538.846191,4559.615234,4496.153809,5660.897461,4312.820313,4256.666504,0.000000,4.000000,75.000000,,,,0.000000,0.000000,0.000000,0.000000,0.000000,0.000000,0.000000,0.000000,0.000000,0.000000,0.000000,0.000000,0.000000,0.000000,0.000000,0.000000,,,,,,,,,,,,,,,,,,,,,,,,,,,,,,,,,,,,,,,,,,,,,,,,,,,,,,,,,,,,,,,,,,,,,,,,,,,,,,,,,,,,,,,,,,,,,,,,,,,,,,,,,,,,,,,,,,,,,,,,,,,,,,,,,
1738755278.944451,1738755278.945329,104.000000,0.000000,4324.871582,4353.205078,4251.666504,4302.051270,4352.179688,4361.794922,4368.717773,4552.179688,4540.512695,4559.487305,4497.051270,5659.615234,4311.794922,4260.512695,0.000000,4.000000,75.000000,,,,0.000000,0.000000,0.000000,0.000000,0.000000,0.000000,0.000000,0.000000,0.000000,0.000000,0.000000,0.000000,0.000000,0.000000,0.000000,0.000000,,,,,,,,,,,,,,,,,26.000000,0.000000,0.785206,-0.615662,-0.061584,0.024902,0.066903,-0.964962,0.241729,4.281346,-14.875751,22.771454,,,,,,,,,,,,,,,,,,,,,,,,,,,,,,,,,,,,,,,,,,,,,,,,,,,,,,,,,,,,,,,,,,,,,,,,,,,,,,,,,,,,,,,,,,,,,,,,,,,,,
1738755278.952258,1738755278.953137,105.000000,0.000000,4325.897461,4351.025879,4251.666504,4303.077148,4351.410156,4359.487305,4368.077148,4553.974121,4539.871582,4559.871582,4496.153809,5662.692383,4307.563965,4256.538574,0.000000,4.000000,75.000000,,,,0.000000,0.000000,0.000000,0.000000,0.000000,0.000000,0.000000,0.000000,0.000000,0.000000,0.000000,0.000000,0.000000,0.000000,0.000000,0.000000,,,,,,,,,,,,,,,,,,,,,,,,,,,,,,,,,,,,,,,,,,,,,,,,,,,,,,,,,,,,,,,,,,,,,,,,,,,,,,,,,,,,,,,,,,,,,,,,,,,,,,,,,,,,,,,,,,,,,,,,,,,,,,,,,
1738755278.960067,1738755278.960845,106.000000,0.000000,4322.179688,4348.717773,4251.922852,4302.692383,4352.820313,4357.436035,4363.461426,4552.179688,4539.743652,4560.769043,4496.410156,5660.897461,4311.410156,4254.102539,0.000000,4.000000,75.000000,,,,0.000000,0.000000,0.000000,0.000000,0.000000,0.000000,0.000000,0.000000,0.000000,0.000000,0.000000,0.000000,0.000000,0.000000,0.000000,0.000000,,,,,,,,,,,,,,,,,,,,,,,,,,,,,,,,,,,,,,,,,,,,,,,,,,,,,,,,,,,,,,,,,,,,,,,,,,,,,,,,,,,,,,,,,,,,,,,,,,,,,,,,,,,,,,,,,,,,,,,,,,,,,,,,,
1738755278.967875,1738755278.968653,107.000000,0.000000,4321.666504,4351.153809,4251.666504,4305.769043,4353.205078,4359.487305,4362.820313,4550.128418,4540.641113,4559.743652,4496.025879,5660.641113,4307.948730,4256.025879,0.000000,4.000000,75.000000,,,,0.000000,0.000000,0.000000,0.000000,0.000000,0.000000,0.000000,0.000000,0.000000,0.000000,0.000000,0.000000,0.000000,0.000000,0.000000,0.000000,,,,,,,,,,,,,,,,,,,,,,,,,,,,,,,,,,,,,,,,,,,,,,,,,,,,,,,,,,,,,,,,,,,,,,,,,,,,,,,,,,,,,,,,,,,,,,,,,,,,,,,,,,,,,,,,,,,,,,,,,,,,,,,,,
1738755278.975683,1738755278.976361,108.000000,0.000000,4324.230957,4350.641113,4252.179688,4305.512695,4350.769043,4361.025879,4363.717773,4550.384766,4540.512695,4559.358887,4497.051270,5662.307617,4305.512695,4257.179688,0.000000,4.000000,75.000000,,,,0.000000,0.000000,0.000000,0.000000,0.000000,0.000000,0.000000,0.000000,0.000000,0.000000,0.000000,0.000000,0.000000,0.000000,0.000000,0.000000,,,,,,,,,,,,,,,,,27.000000,0.000000,0.785214,-0.615662,-0.061523,0.024780,0.057136,-0.976193,0.239287,4.336545,-14.904842,22.760975,,,,,,,,,,,,,,,,,,,,,,,,,,,,,,,,,,,,,,,,,,,,,,,,,,,,,,,,,,,,,,,,,,,,,,,,,,,,,,,,,,,,,,,,,,,,,,,,,,,,,
1738755278.983491,1738755278.984169,109.000000,0.000000,4323.077148,4346.666504,4254.743652,4302.436035,4351.794922,4360.256348,4364.230957,4550.512695,4540.897461,4561.282227,4497.948730,5662.051270,4310.256348,4255.256348,0.000000,4.000000,75.000000,,,,0.000000,0.000000,0.000000,0.000000,0.000000,0.000000,0.000000,0.000000,0.000000,0.000000,0.000000,0.000000,0.000000,0.000000,0.000000,0.000000,,,,,,,,,,,,,,,,,,,,,,,,,,,,,,,,,,,,,,,,,,,,,,,,,,,,,,,,,,,,,,,,,,,,,,,,,,,,,,,,,,,,,,,,,,,,,,,,,,,,,,,,,,,,,,,,,,,,,,,,,,,,,,,,,
1738755278.991299,1738755278.991877,110.000000,0.000000,4322.179688,4346.666504,4254.487305,4302.820313,4353.974121,4360.641113,4366.666504,4547.820313,4539.230957,4561.153809,4495.897461,5662.948730,4307.948730,4253.846191,0.000000,4.000000,75.000000,,,,0.000000,0.000000,0.000000,0.000000,0.000000,0.000000,0.000000,0.000000,0.000000,0.000000,0.000000,0.000000,0.000000,0.000000,0.000000,0.000000,,,,,,,,,,,,,,,,,,,,,,,,,,,,,,,,,,,,,,,,,,,,,,,,,,,,,,,,,,,,0.028771,0.019879,0.019611,0.017050,0.023420,0.020392,0.042589,0.023648,0.022356,0.025075,0.043446,0.033701,0.009498,0.028484,0.033274,0.015501,0.033123,0.028230,0.020867,0.023115,0.027634,0.030346,0.020833,0.029117,0.051276,0.023059,0.017581,0.018804,0.028614,0.011155,0.045692,0.075281,0.085746,0.025246,0.032771,0.039098,0.030061,0.012674,0.016491,0.018101,0.041396,0.036861,0.013601,0.019625,0.034094,0.020061,0.020481,0.011880,0.010819,0.027380,0.026461,0.020323,0.018042,0.011702,0.018493,0.042313,0.037431,0.040044,0.020248,0.027428,0.054506,0.030045,0.026311,0.041555,0.035009,0.053529,0.037031,0.013622,0.026997,0.034055
1738755278.999107,1738755278.999685,111.000000,0.000000,4322.051270,4350.769043,4251.410156,4301.538574,4353.461426,4361.282227,4365.128418,4546.153809,4539.487305,4560.512695,4494.743652,5662.820313,4310.256348,4258.077148,0.000000,4.000000,75.000000,,,,0.000000,0.000000,0.000000,0.000000,0.000000,0.000000,0.000000,0.000000,0.000000,0.000000,0.000000,0.000000,0.000000,0.000000,0.000000,0.000000,,,,,,,,,,,,,,,,,,,,,,,,,,,,,,,,,,,,,,,,,,,,,,,,,,,,,,,,,,,,,,,,,,,,,,,,,,,,,,,,,,,,,,,,,,,,,,,,,,,,,,,,,,,,,,,,,,,,,,,,,,,,,,,,,
1738755279.006915,1738755279.007393,112.000000,0.000000,4322.307617,4350.000000,4251.922852,4303.077148,4352.051270,4360.512695,4364.487305,4550.384766,4541.794922,4561.282227,4495.128418,5664.615234,4311.282227,4257.948730,0.000000,4.000000,75.000000,,,,0.000000,0.000000,0.000000,0.000000,0.000000,0.000000,0.000000,0.000000,0.000000,0.000000,0.000000,0.000000,0.000000,0.000000,0.000000,0.000000,,,,,,,,,,,,,,,,,28.000000,0.000000,0.785301,-0.615540,-0.061584,0.024902,0.071298,-0.974240,0.239775,4.336224,-14.964358,22.751545,,,,,,,,,,,,,,,,,,,,,,,,,,,,,,,,,,,,,,,,,,,,,,,,,,,,,,,,,,,,,,,,,,,,,,,,,,,,,,,,,,,,,,,,,,,,,,,,,,,,,
1738755279.014723,1738755279.015301,113.000000,0.000000,4322.948730,4347.820313,4252.948730,4305.256348,4352.179688,4360.512695,4366.538574,4551.410156,4542.820313,4560.641113,4496.025879,5663.333496,4311.538574,4256.666504,0.000000,4.000000,75.000000,,,,0.000000,0.000000,0.000000,0.000000,0.000000,0.000000,0.000000,0.000000,0.000000,0.000000,0.000000,0.000000,0.000000,0.000000,0.000000,0.000000,,,,,,,,,,,,,,,,,,,,,,,,,,,,,,,,,,,,,,,,,,,,,,,,,,,,,,,,,,,,,,,,,,,,,,,,,,,,,,,,,,,,,,,,,,,,,,,,,,,,,,,,,,,,,,,,,,,,,,,,,,,,,,,,,
1738755279.022531,1738755279.023109,114.000000,0.000000,4325.897461,4348.589844,4250.769043,4301.153809,4352.948730,4360.769043,4365.384766,4547.563965,4542.307617,4558.974121,4495.897461,5660.512695,4314.358887,4259.743652,0.000000,4.000000,75.000000,,,,0.000000,0.000000,0.000000,0.000000,0.000000,0.000000,0.000000,0.000000,0.000000,0.000000,0.000000,0.000000,0.000000,0.000000,0.000000,0.000000,,,,,,,,,,,,,,,,,,,,,,,,,,,,,,,,,,,,,,,,,,,,,,,,,,,,,,,,,,,,,,,,,,,,,,,,,,,,,,,,,,,,,,,,,,,,,,,,,,,,,,,,,,,,,,,,,,,,,,,,,,,,,,,,,
1738755279.030340,1738755279.031018,115.000000,0.000000,4326.666504,4348.333496,4252.948730,4302.179688,4352.307617,4361.666504,4363.461426,4547.948730,4538.333496,4558.205078,4495.512695,5664.102539,4307.820313,4256.410156,0.000000,4.000000,75.000000,,,,0.000000,0.000000,0.000000,0.000000,0.000000,0.000000,0.000000,0.000000,0.000000,0.000000,0.000000,0.000000,0.000000,0.000000,0.000000,0.000000,,,,,,,,,,,,,,,,,,,,,,,,,,,,,,,,,,,,,,,,,,,,,,,,,,,,,,,,,,,,,,,,,,,,,,,,,,,,,,,,,,,,,,,,,,,,,,,,,,,,,,,,,,,,,,,,,,,,,,,,,,,,,,,,,
1738755279.038148,1738755279.038826,116.000000,0.000000,4321.666504,4346.794922,4255.897461,4306.922852,4351.794922,4362.692383,4361.410156,4550.384766,4538.077148,4557.563965,4496.666504,5662.692383,4310.897461,4255.897461,0.000000,4.000000,75.000000,,,,0.000000,0.000000,0.000000,0.000000,0.000000,0.000000,0.000000,0.000000,0.000000,0.000000,0.000000,0.000000,0.000000,0.000000,0.000000,0.000000,,,,,,,,,,,,,,,,,29.000000,0.000000,0.785303,-0.615540,-0.061584,0.024841,0.060554,-0.967892,0.233915,4.385935,-14.984590,22.609724,,,,,,,,,,,,,,,,,,,,,,,,,,,,,,,,,,,,,,,,,,,,,,,,,,,,,,,,,,,,,,,,,,,,,,,,,,,,,,,,,,,,,,,,,,,,,,,,,,,,,
1738755279.045956,1738755279.046734,117.000000,0.000000,4321.153809,4348.461426,4254.487305,4303.717773,4352.692383,4363.717773,4367.179688,4550.769043,4541.922852,4558.846191,4494.487305,5658.205078,4314.743652,4256.025879,0.000000,4.000000,75.000000,,,,0.000000,0.000000,0.000000,0.000000,0.000000,0.000000,0.000000,0.000000,0.000000,0.000000,0.000000,0.000000,0.000000,0.000000,0.000000,0.000000,,,,,,,,,,,,,,,,,,,,,,,,,,,,,,,,,,,,,,,,,,,,,,,,,,,,,,,,,,,,,,,,,,,,,,,,,,,,,,,,,,,,,,,,,,,,,,,,,,,,,,,,,,,,,,,,,,,,,,,,,,,,,,,,,
1738755279.053764,1738755279.054542,118.000000,0.000000,4324.487305,4351.666504,4253.077148,4298.077148,4353.974121,4362.692383,4372.436035,4549.615234,4541.282227,4561.025879,4492.436035,5660.384766,4307.436035,4253.333496,0.000000,4.000000,75.000000,,,,0.000000,0.000000,0.000000,0.000000,0.000000,0.000000,0.000000,0.000000,0.000000,0.000000,0.000000,0.000000,0.000000,0.000000,0.000000,0.000000,,,,,,,,,,,,,,,,,,,,,,,,,,,,,,,,,,,,,,,,,,,,,,,,,,,,,,,,,,,,,,,,,,,,,,,,,,,,,,,,,,,,,,,,,,,,,,,,,,,,,,,,,,,,,,,,,,,,,,,,,,,,,,,,,
1738755279.061572,1738755279.062450,119.000000,0.000000,4323.205078,4351.666504,4251.922852,4299.743652,4352.307617,4360.000000,4365.256348,4550.000000,4538.077148,4561.282227,4494.487305,5661.410156,4308.461426,4255.256348,0.000000,4.000000,75.000000,,,,0.000000,0.000000,0.000000,0.000000,0.000000,0.000000,0.000000,0.000000,0.000000,0.000000,0.000000,0.000000,0.000000,0.000000,0.000000,0.000000,,,,,,,,,,,,,,,,,,,,,,,,,,,,,,,,,,,,,,,,,,,,,,,,,,,,,,,,,,,,,,,,,,,,,,,,,,,,,,,,,,,,,,,,,,,,,,,,,,,,,,,,,,,,,,,,,,,,,,,,,,,,,,,,,
1738755279.069380,1738755279.070258,120.000000,0.000000,4321.922852,4351.025879,4250.769043,4303.589844,4350.128418,4360.256348,4363.974121,4551.282227,4540.000000,4560.384766,4496.922852,5660.128418,4311.922852,4253.974121,0.000000,4.000000,75.000000,,,,0.000000,0.000000,0.000000,0.000000,0.000000,0.000000,0.000000,0.000000,0.000000,0.000000,0.000000,0.000000,0.000000,0.000000,0.000000,0.000000,,,,,,,,,,,,,,,,,30.000000,0.000000,0.785313,-0.615540,-0.061462,0.024841,0.067391,-0.971310,0.244170,4.297341,-15.036130,22.648750,,,,,,,,,,,,,,,,,,,,,,,,,,,,,,,,,,,,,,,,,,,,,,,,,,,,,,,,,,,,,,,,,,,,,,,,,,,,,,,,,,,,,,,,,,,,,,,,,,,,,
1738755279.077188,1738755279.078067,121.000000,0.000000,4322.948730,4351.153809,4252.179688,4303.333496,4349.615234,4361.794922,4368.717773,4548.205078,4542.948730,4559.871582,4498.717773,5659.230957,4314.102539,4255.000000,0.000000,4.000000,75.000000,,,,0.000000,0.000000,0.000000,0.000000,0.000000,0.000000,0.000000,0.000000,0.000000,0.000000,0.000000,0.000000,0.000000,0.000000,0.000000,0.000000,,,,,,,,,,,,,,,,,,,,,,,,,,,,,,,,,,,,,,,,,,,,,,,,,,,,,,,,,,,,,,,,,,,,,,,,,,,,,,,,,,,,,,,,,,,,,,,,,,,,,,,,,,,,,,,,,,,,,,,,,,,,,,,,,
1738755279.084996,1738755279.085875,122.000000,0.000000,4324.102539,4352.948730,4254.230957,4302.948730,4349.615234,4362.051270,4369.487305,4547.051270,4537.563965,4559.743652,4496.794922,5662.307617,4311.410156,4256.410156,0.000000,4.000000,75.000000,,,,0.000000,0.000000,0.000000,0.000000,0.000000,0.000000,0.000000,0.000000,0.000000,0.000000,0.000000,0.000000,0.000000,0.000000,0.000000,0.000000,,,,,,,,,,,,,,,,,,,,,,,,,,,,,,,,,,,,,,,,,,,,,,,,,,,,,,,,,,,,,,,,,,,,,,,,,,,,,,,,,,,,,,,,,,,,,,,,,,,,,,,,,,,,,,,,,,,,,,,,,,,,,,,,,
1738755279.092804,1738755279.093583,123.000000,0.000000,4324.358887,4355.384766,4254.615234,4303.717773,4351.410156,4360.897461,4368.077148,4550.256348,4533.461426,4561.410156,4494.871582,5664.102539,4308.333496,4255.000000,0.000000,4.000000,75.000000,,,,0.000000,0.000000,0.000000,0.000000,0.000000,0.000000,0.000000,0.000000,0.000000,0.000000,0.000000,0.000000,0.000000,0.000000,0.000000,0.000000,,,,,,,,,,,,,,,,,,,,,,,,,,,,,,,,,,,,,,,,,,,,,,,,,,,,,,,,,,,,,,,,,,,,,,,,,,,,,,,,,,,,,,,,,,,,,,,,,,,,,,,,,,,,,,,,,,,,,,,,,,,,,,,,,
1738755279.100612,1738755279.101391,124.000000,0.000000,4322.307617,4350.769043,4254.871582,4303.846191,4349.102539,4359.871582,4367.820313,4551.282227,4538.974121,4562.179688,4499.487305,5658.589844,4312.179688,4256.153809,0.000000,4.000000,75.000000,,,,0.000000,0.000000,0.000000,0.000000,0.000000,0.000000,0.000000,0.000000,0.000000,0.000000,0.000000,0.000000,0.000000,0.000000,0.000000,0.000000,,,,,,,,,,,,,,,,,31.000000,0.000000,0.785313,-0.615540,-0.061462,0.024841,0.058601,-0.975705,0.238799,4.300941,-15.132517,22.600542,,,,,,,,,,,,,,,,,,,,,,,,,,,,,,,,,,,,,,,,,,,,,,,,,,,,,,,,,,,,,,,,,,,,,,,,,,,,,,,,,,,,,,,,,,,,,,,,,,,,,
1738755279.108420,1738755279.109099,125.000000,0.000000,4323.717773,4345.641113,4255.000000,4306.153809,4348.717773,4359.871582,4367.179688,4551.282227,4541.410156,4559.743652,4498.717773,5659.487305,4308.589844,4253.077148,0.000000,4.000000,75.000000,,,,0.000000,0.000000,0.000000,0.000000,0.000000,0.000000,0.000000,0.000000,0.000000,0.000000,0.000000,0.000000,0.000000,0.000000,0.000000,0.000000,,,,,,,,,,,,,,,,,,,,,,,,,,,,,,,,,,,,,,,,,,,,,,,,,,,,,,,,,,,,,,,,,,,,,,,,,,,,,,,,,,,,,,,,,,,,,,,,,,,,,,,,,,,,,,,,,,,,,,,,,,,,,,,,,
1738755279.116229,1738755279.116907,126.000000,0.000000,4325.384766,4349.615234,4254.615234,4305.256348,4353.077148,4359.230957,4362.948730,4549.871582,4537.436035,4560.641113,4493.333496,5664.230957,4308.589844,4255.128418,0.000000,4.000000,75.000000,,,,0.000000,0.000000,0.000000,0.000000,0.000000,0.000000,0.000000,0.000000,0.000000,0.000000,0.000000,0.000000,0.000000,0.000000,0.000000,0.000000,,,,,,,,,,,,,,,,,,,,,,,,,,,,,,,,,,,,,,,,,,,,,,,,,,,,,,,,,,,,0.028134,0.016611,0.017910,0.015716,0.023968,0.018394,0.034497,0.022740,0.021960,0.022416,0.044568,0.032165,0.011778,0.028806,0.032064,0.014626,0.026783,0.026117,0.018832,0.021719,0.033780,0.034707,0.023408,0.030430,0.048602,0.024600,0.015780,0.017231,0.027909,0.010370,0.042723,0.065270,0.086854,0.023843,0.031016,0.038320,0.035068,0.014160,0.016447,0.016847,0.043543,0.034603,0.015300,0.016922,0.032172,0.023078,0.022985,0.012263,0.011055,0.027115,0.025940,0.021841,0.019633,0.010184,0.019240,0.042591,0.038851,0.036956,0.018494,0.025842,0.052940,0.023610,0.023314,0.039128,0.032946,0.054653,0.031711,0.011581,0.030083,0.036245
1738755279.124037,1738755279.124615,127.000000,0.000000,4321.666504,4353.333496,4255.000000,4303.461426,4351.794922,4358.974121,4363.461426,4550.384766,4536.153809,4563.461426,4493.974121,5662.436035,4311.922852,4259.230957,75.000000,4.000000,75.000000,,,,0.000000,0.000000,0.000000,0.000000,0.000000,0.000000,0.000000,0.000000,0.000000,0.000000,0.000000,0.000000,0.000000,0.000000,0.000000,0.000000,,,,,,,,,,,,,,,,,,,,,,,,,,,,,,,,,,,,,,,,,,,,,,,,,,,,,,,,,,,,,,,,,,,,,,,,,,,,,,,,,,,,,,,,,,,,,,,,,,,,,,,,,,,,,,,,,,,,,,,,,,,,,,,,,
1738755279.131845,1738755279.132423,0.000000,0.000000,4319.487305,4348.717773,4253.333496,4304.230957,4348.717773,4360.384766,4367.179688,4552.820313,4538.205078,4562.307617,4496.025879,5660.897461,4309.615234,4255.897461,0.000000,4.000000,75.000000,,,,0.000000,0.000000,0.000000,0.000000,0.000000,0.000000,0.000000,0.000000,0.000000,0.000000,0.000000,0.000000,0.000000,0.000000,0.000000,0.000000,,,,,,,,,,,,,,,,,0.000000,0.000000,0.785315,-0.615540,-0.061462,0.024780,0.061531,-0.979123,0.237334,4.354180,-15.135932,22.607155,,,,,,,,,,,,,,,,,,,,,,,,,,,,,,,,,,,,,,,,,,,,,,,,,,,,,,,,,,,,,,,,,,,,,,,,,,,,,,,,,,,,,,,,,,,,,,,,,,,,,
1738755279.139653,1738755279.140132,1.000000,0.000000,4324.230957,4346.153809,4251.922852,4301.410156,4353.333496,4361.538574,4365.384766,4549.102539,4539.615234,4561.282227,4495.769043,5661.794922,4312.051270,4255.769043,0.000000,4.000000,75.000000,,,,0.000000,0.000000,0.000000,0.000000,0.000000,0.000000,0.000000,0.000000,0.000000,0.000000,0.000000,0.000000,0.000000,0.000000,0.000000,0.000000,,,,,,,,,,,,,,,,,,,,,,,,,,,,,,,,,,,,,,,,,,,,,,,,,,,,,,,,,,,,,,,,,,,,,,,,,,,,,,,,,,,,,,,,,,,,,,,,,,,,,,,,,,,,,,,,,,,,,,,,,,,,,,,,,
1738755279.147461,1738755279.147939,2.000000,0.000000,4327.563965,4347.307617,4254.871582,4300.641113,4356.282227,4359.102539,4364.487305,4547.051270,4538.589844,4561.538574,4495.897461,5662.820313,4309.615234,4256.538574,0.000000,4.000000,75.000000,,,,0.000000,0.000000,0.000000,0.000000,0.000000,0.000000,0.000000,0.000000,0.000000,0.000000,0.000000,0.000000,0.000000,0.000000,0.000000,0.000000,,,,,,,,,,,,,,,,,,,,,,,,,,,,,,,,,,,,,,,,,,,,,,,,,,,,,,,,,,,,,,,,,,,,,,,,,,,,,,,,,,,,,,,,,,,,,,,,,,,,,,,,,,,,,,,,,,,,,,,,,,,,,,,,,
1738755279.155269,1738755279.155648,3.000000,0.000000,4324.230957,4348.461426,4253.846191,4303.974121,4352.051270,4359.358887,4365.128418,4549.615234,4538.333496,4561.922852,4496.666504,5660.512695,4307.307617,4252.948730,0.000000,4.000000,75.000000,,,,0.000000,0.000000,0.000000,0.000000,0.000000,0.000000,0.000000,0.000000,0.000000,0.000000,0.000000,0.000000,0.000000,0.000000,0.000000,0.000000,,,,,,,,,,,,,,,,,,,,,,,,,,,,,,,,,,,,,,,,,,,,,,,,,,,,,,,,,,,,,,,,,,,,,,,,,,,,,,,,,,,,,,,,,,,,,,,,,,,,,,,,,,,,,,,,,,,,,,,,,,,,,,,,,
1738755279.163077,1738755279.163456,4.000000,0.000000,4322.692383,4349.487305,4250.384766,4304.358887,4351.794922,4362.692383,4364.487305,4549.230957,4539.871582,4562.307617,4495.641113,5659.871582,4310.769043,4252.692383,0.000000,4.000000,75.000000,,,,0.000000,0.000000,0.000000,0.000000,0.000000,0.000000,0.000000,0.000000,0.000000,0.000000,0.000000,0.000000,0.000000,0.000000,0.000000,0.000000,,,,,,,,,,,,,,,,,1.000000,0.000000,0.785372,-0.615479,-0.061340,0.024780,0.062019,-0.973752,0.247589,4.368762,-15.155672,22.629772,,,,,,,,,,,,,,,,,,,,,,,,,,,,,,,,,,,,,,,,,,,,,,,,,,,,,,,,,,,,,,,,,,,,,,,,,,,,,,,,,,,,,,,,,,,,,,,,,,,,,
1738755279.170885,1738755279.171164,5.000000,0.000000,4325.256348,4346.282227,4252.692383,4303.205078,4353.461426,4363.461426,4365.512695,4548.589844,4540.128418,4560.000000,4494.487305,5664.102539,4308.589844,4254.102539,0.000000,4.000000,75.000000,,,,0.000000,0.000000,0.000000,0.000000,0.000000,0.000000,0.000000,0.000000,0.000000,0.000000,0.000000,0.000000,0.000000,0.000000,0.000000,0.000000,,,,,,,,,,,,,,,,,,,,,,,,,,,,,,,,,,,,,,,,,,,,,,,,,,,,,,,,,,,,,,,,,,,,,,,,,,,,,,,,,,,,,,,,,,,,,,,,,,,,,,,,,,,,,,,,,,,,,,,,,,,,,,,,,
1738755279.178693,1738755279.178972,6.000000,0.000000,4324.102539,4346.794922,4254.102539,4304.358887,4351.153809,4362.948730,4363.461426,4548.589844,4539.743652,4557.948730,4496.153809,5662.692383,4309.358887,4255.128418,0.000000,4.000000,75.000000,,,,0.000000,0.000000,0.000000,0.000000,0.000000,0.000000,0.000000,0.000000,0.000000,0.000000,0.000000,0.000000,0.000000,0.000000,0.000000,0.000000,,,,,,,,,,,,,,,,,,,,,,,,,,,,,,,,,,,,,,,,,,,,,,,,,,,,,,,,,,,,,,,,,,,,,,,,,,,,,,,,,,,,,,,,,,,,,,,,,,,,,,,,,,,,,,,,,,,,,,,,,,,,,,,,,
1738755279.186502,1738755279.186680,7.000000,0.000000,4323.333496,4352.563965,4252.948730,4307.692383,4352.436035,4362.307617,4363.717773,4550.128418,4536.410156,4559.487305,4496.922852,5662.820313,4308.333496,4255.897461,0.000000,4.000000,75.000000,,,,0.000000,0.000000,0.000000,0.000000,0.000000,0.000000,0.000000,0.000000,0.000000,0.000000,0.000000,0.000000,0.000000,0.000000,0.000000,0.000000,,,,,,,,,,,,,,,,,,,,,,,,,,,,,,,,,,,,,,,,,,,,,,,,,,,,,,,,,,,,,,,,,,,,,,,,,,,,,,,,,,,,,,,,,,,,,,,,,,,,,,,,,,,,,,,,,,,,,,,,,,,,,,,,,
1738755279.194310,1738755279.194488,8.000000,0.000000,4324.487305,4351.025879,4253.974121,4304.615234,4354.230957,4360.769043,4368.205078,4551.538574,4535.000000,4560.769043,4496.794922,5665.384766,4306.410156,4254.487305,0.000000,4.000000,75.000000,,,,0.000000,0.000000,0.000000,0.000000,0.000000,0.000000,0.000000,0.000000,0.000000,0.000000,0.000000,0.000000,0.000000,0.000000,0.000000,0.000000,,,,,,,,,,,,,,,,,2.000000,0.000000,0.785420,-0.615417,-0.061340,0.024780,0.052252,-0.973263,0.242705,4.498552,-15.156772,22.750130,,,,,,,,,,,,,,,,,,,,,,,,,,,,,,,,,,,,,,,,,,,,,,,,,,,,,,,,,,,,,,,,,,,,,,,,,,,,,,,,,,,,,,,,,,,,,,,,,,,,,
1738755279.202118,1738755279.202196,9.000000,0.000000,4322.179688,4346.153809,4254.230957,4300.769043,4351.538574,4359.871582,4365.512695,4552.179688,4539.487305,4558.717773,4496.153809,5662.948730,4309.358887,4254.871582,0.000000,4.000000,75.000000,,,,0.000000,0.000000,0.000000,0.000000,0.000000,0.000000,0.000000,0.000000,0.000000,0.000000,0.000000,0.000000,0.000000,0.000000,0.000000,0.000000,,,,,,,,,,,,,,,,,,,,,,,,,,,,,,,,,,,,,,,,,,,,,,,,,,,,,,,,,,,,,,,,,,,,,,,,,,,,,,,,,,,,,,,,,,,,,,,,,,,,,,,,,,,,,,,,,,,,,,,,,,,,,,,,,
1738755279.209926,1738755279.210104,10.000000,0.000000,4320.000000,4348.974121,4254.487305,4305.641113,4352.436035,4360.384766,4363.333496,4552.436035,4539.230957,4558.717773,4495.384766,5664.487305,4306.794922,4256.282227,0.000000,4.000000,75.000000,,,,0.000000,0.000000,0.000000,0.000000,0.000000,0.000000,0.000000,0.000000,0.000000,0.000000,0.000000,0.000000,0.000000,0.000000,0.000000,0.000000,,,,,,,,,,,,,,,,,,,,,,,,,,,,,,,,,,,,,,,,,,,,,,,,,,,,,,,,,,,,,,,,,,,,,,,,,,,,,,,,,,,,,,,,,,,,,,,,,,,,,,,,,,,,,,,,,,,,,,,,,,,,,,,,,
1738755279.217734,1738755279.217912,11.000000,0.000000,4321.666504,4353.077148,4254.358887,4306.153809,4353.717773,4360.128418,4366.282227,4548.461426,4536.922852,4563.333496,4497.179688,5663.333496,4309.871582,4259.358887,0.000000,4.000000,75.000000,,,,0.000000,0.000000,0.000000,0.000000,0.000000,0.000000,0.000000,0.000000,0.000000,0.000000,0.000000,0.000000,0.000000,0.000000,0.000000,0.000000,,,,,,,,,,,,,,,,,,,,,,,,,,,,,,,,,,,,,,,,,,,,,,,,,,,,,,,,,,,,,,,,,,,,,,,,,,,,,,,,,,,,,,,,,,,,,,,,,,,,,,,,,,,,,,,,,,,,,,,,,,,,,,,,,
1738755279.225542,1738755279.225820,12.000000,0.000000,4324.487305,4350.641113,4251.410156,4302.307617,4352.051270,4360.897461,4366.025879,4548.717773,4538.974121,4562.436035,4497.436035,5660.897461,4311.410156,4258.717773,0.000000,4.000000,75.000000,,,,0.000000,0.000000,0.000000,0.000000,0.000000,0.000000,0.000000,0.000000,0.000000,0.000000,0.000000,0.000000,0.000000,0.000000,0.000000,0.000000,,,,,,,,,,,,,,,,,3.000000,0.000000,0.785456,-0.615356,-0.061462,0.024841,0.070321,-0.972775,0.230985,4.298697,-15.124428,22.725117,,,,,,,,,,,,,,,,,,,,,,,,,,,,,,,,,,,,,,,,,,,,,,,,,,,,,,,,,,,,,,,,,,,,,,,,,,,,,,,,,,,,,,,,,,,,,,,,,,,,,
1738755279.233350,1738755279.233628,13.000000,0.000000,4324.102539,4350.512695,4252.563965,4303.717773,4351.282227,4360.384766,4361.666504,4551.410156,4542.179688,4557.820313,4495.897461,5665.512695,4307.436035,4254.871582,0.000000,4.000000,75.000000,,,,0.000000,0.000000,0.000000,0.000000,0.000000,0.000000,0.000000,0.000000,0.000000,0.000000,0.000000,0.000000,0.000000,0.000000,0.000000,0.000000,,,,,,,,,,,,,,,,,,,,,,,,,,,,,,,,,,,,,,,,,,,,,,,,,,,,,,,,,,,,,,,,,,,,,,,,,,,,,,,,,,,,,,,,,,,,,,,,,,,,,,,,,,,,,,,,,,,,,,,,,,,,,,,,,
1738755279.241158,1738755279.241536,14.000000,0.000000,4322.820313,4352.436035,4256.794922,4304.102539,4351.410156,4357.820313,4362.179688,4549.871582,4541.922852,4558.974121,4495.769043,5665.641113,4308.717773,4257.051270,0.000000,4.000000,75.000000,,,,0.000000,0.000000,0.000000,0.000000,0.000000,0.000000,0.000000,0.000000,0.000000,0.000000,0.000000,0.000000,0.000000,0.000000,0.000000,0.000000,,,,,,,,,,,,,,,,,,,,,,,,,,,,,,,,,,,,,,,,,,,,,,,,,,,,,,,,,,,,0.029269,0.013411,0.016856,0.015057,0.024444,0.018815,0.025946,0.022111,0.021062,0.019397,0.042510,0.030282,0.015201,0.028823,0.030249,0.014066,0.020433,0.023663,0.017247,0.020465,0.041038,0.039477,0.026719,0.031504,0.044696,0.024902,0.013920,0.015286,0.025759,0.010184,0.041002,0.055245,0.085556,0.022720,0.029175,0.037840,0.039858,0.017256,0.016083,0.016429,0.041986,0.031074,0.017571,0.015374,0.029974,0.025384,0.025065,0.012995,0.011276,0.025718,0.025507,0.022874,0.021285,0.009130,0.019954,0.040572,0.036426,0.035679,0.018098,0.023874,0.048833,0.018331,0.018597,0.036151,0.031153,0.058876,0.026209,0.010397,0.033560,0.037250
1738755279.248966,1738755279.249345,15.000000,0.000000,4322.692383,4348.974121,4256.794922,4305.000000,4349.615234,4358.461426,4368.846191,4551.282227,4538.717773,4561.410156,4494.615234,5664.230957,4306.025879,4257.051270,0.000000,4.000000,75.000000,,,,0.000000,0.000000,0.000000,0.000000,0.000000,0.000000,0.000000,0.000000,0.000000,0.000000,0.000000,0.000000,0.000000,0.000000,0.000000,0.000000,,,,,,,,,,,,,,,,,,,,,,,,,,,,,,,,,,,,,,,,,,,,,,,,,,,,,,,,,,,,,,,,,,,,,,,,,,,,,,,,,,,,,,,,,,,,,,,,,,,,,,,,,,,,,,,,,,,,,,,,,,,,,,,,,
1738755279.256774,1738755279.257253,16.000000,0.000000,4320.384766,4347.307617,4253.846191,4304.743652,4348.846191,4360.897461,4366.410156,4552.948730,4538.589844,4561.538574,4494.230957,5663.077148,4308.205078,4256.794922,0.000000,4.000000,75.000000,,,,0.000000,0.000000,0.000000,0.000000,0.000000,0.000000,0.000000,0.000000,0.000000,0.000000,0.000000,0.000000,0.000000,0.000000,0.000000,0.000000,,,,,,,,,,,,,,,,,4.000000,0.000000,0.785452,-0.615356,-0.061462,0.024963,0.065926,-0.977658,0.235869,4.302161,-15.161985,22.719271,,,,,,,,,,,,,,,,,,,,,,,,,,,,,,,,,,,,,,,,,,,,,,,,,,,,,,,,,,,,,,,,,,,,,,,,,,,,,,,,,,,,,,,,,,,,,,,,,,,,,
1738755279.264583,1738755279.265061,17.000000,0.000000,4321.666504,4350.000000,4252.563965,4303.974121,4350.512695,4361.666504,4361.666504,4550.769043,4540.128418,4562.820313,4496.282227,5661.922852,4313.077148,4256.410156,0.000000,4.000000,75.000000,,,,0.000000,0.000000,0.000000,0.000000,0.000000,0.000000,0.000000,0.000000,0.000000,0.000000,0.000000,0.000000,0.000000,0.000000,0.000000,0.000000,,,,,,,,,,,,,,,,,,,,,,,,,,,,,,,,,,,,,,,,,,,,,,,,,,,,,,,,,,,,,,,,,,,,,,,,,,,,,,,,,,,,,,,,,,,,,,,,,,,,,,,,,,,,,,,,,,,,,,,,,,,,,,,,,
1738755279.272391,1738755279.272969,18.000000,0.000000,4323.333496,4349.487305,4251.794922,4306.282227,4351.922852,4361.282227,4364.358887,4550.641113,4541.794922,4561.538574,4498.333496,5663.077148,4310.641113,4254.615234,0.000000,4.000000,75.000000,,,,0.000000,0.000000,0.000000,0.000000,0.000000,0.000000,0.000000,0.000000,0.000000,0.000000,0.000000,0.000000,0.000000,0.000000,0.000000,0.000000,,,,,,,,,,,,,,,,,,,,,,,,,,,,,,,,,,,,,,,,,,,,,,,,,,,,,,,,,,,,,,,,,,,,,,,,,,,,,,,,,,,,,,,,,,,,,,,,,,,,,,,,,,,,,,,,,,,,,,,,,,,,,,,,,
1738755279.280199,1738755279.280777,19.000000,0.000000,4321.538574,4347.307617,4252.692383,4305.897461,4353.589844,4362.692383,4365.000000,4548.974121,4540.641113,4557.948730,4497.820313,5660.769043,4312.307617,4258.205078,0.000000,4.000000,75.000000,,,,0.000000,0.000000,0.000000,0.000000,0.000000,0.000000,0.000000,0.000000,0.000000,0.000000,0.000000,0.000000,0.000000,0.000000,0.000000,0.000000,,,,,,,,,,,,,,,,,,,,,,,,,,,,,,,,,,,,,,,,,,,,,,,,,,,,,,,,,,,,,,,,,,,,,,,,,,,,,,,,,,,,,,,,,,,,,,,,,,,,,,,,,,,,,,,,,,,,,,,,,,,,,,,,,
1738755279.288007,1738755279.288485,20.000000,0.000000,4323.974121,4350.128418,4255.256348,4304.615234,4354.230957,4363.589844,4362.820313,4548.974121,4538.333496,4558.205078,4494.871582,5661.538574,4314.230957,4258.589844,0.000000,4.000000,75.000000,,,,0.000000,0.000000,0.000000,0.000000,0.000000,0.000000,0.000000,0.000000,0.000000,0.000000,0.000000,0.000000,0.000000,0.000000,0.000000,0.000000,,,,,,,,,,,,,,,,,5.000000,0.000000,0.785459,-0.615356,-0.061401,0.024902,0.052741,-0.976193,0.235869,4.405278,-15.129120,22.647345,,,,,,,,,,,,,,,,,,,,,,,,,,,,,,,,,,,,,,,,,,,,,,,,,,,,,,,,,,,,,,,,,,,,,,,,,,,,,,,,,,,,,,,,,,,,,,,,,,,,,
1738755279.295815,1738755279.296293,21.000000,0.000000,4323.333496,4353.077148,4254.615234,4304.871582,4353.077148,4361.538574,4363.077148,4549.743652,4541.666504,4559.871582,4494.743652,5661.282227,4313.205078,4257.051270,0.000000,4.000000,75.000000,,,,0.000000,0.000000,0.000000,0.000000,0.000000,0.000000,0.000000,0.000000,0.000000,0.000000,0.000000,0.000000,0.000000,0.000000,0.000000,0.000000,,,,,,,,,,,,,,,,,,,,,,,,,,,,,,,,,,,,,,,,,,,,,,,,,,,,,,,,,,,,,,,,,,,,,,,,,,,,,,,,,,,,,,,,,,,,,,,,,,,,,,,,,,,,,,,,,,,,,,,,,,,,,,,,,
1738755279.303623,1738755279.304001,22.000000,0.000000,4318.461426,4352.051270,4253.846191,4305.128418,4353.589844,4359.102539,4367.051270,4546.410156,4542.307617,4559.230957,4496.282227,5659.743652,4310.256348,4256.282227,0.000000,4.000000,75.000000,,,,0.000000,0.000000,0.000000,0.000000,0.000000,0.000000,0.000000,0.000000,0.000000,0.000000,0.000000,0.000000,0.000000,0.000000,0.000000,0.000000,,,,,,,,,,,,,,,,,,,,,,,,,,,,,,,,,,,,,,,,,,,,,,,,,,,,,,,,,,,,,,,,,,,,,,,,,,,,,,,,,,,,,,,,,,,,,,,,,,,,,,,,,,,,,,,,,,,,,,,,,,,,,,,,,
1738755279.311431,1738755279.311909,23.000000,0.000000,4322.179688,4349.230957,4254.871582,4303.974121,4354.358887,4358.333496,4368.077148,4547.563965,4538.846191,4558.589844,4495.897461,5663.205078,4307.820313,4254.871582,0.000000,4.000000,75.000000,,,,0.000000,0.000000,0.000000,0.000000,0.000000,0.000000,0.000000,0.000000,0.000000,0.000000,0.000000,0.000000,0.000000,0.000000,0.000000,0.000000,,,,,,,,,,,,,,,,,,,,,,,,,,,,,,,,,,,,,,,,,,,,,,,,,,,,,,,,,,,,,,,,,,,,,,,,,,,,,,,,,,,,,,,,,,,,,,,,,,,,,,,,,,,,,,,,,,,,,,,,,,,,,,,,,
1738755279.319239,1738755279.319718,24.000000,0.000000,4325.512695,4349.230957,4253.974121,4302.692383,4351.538574,4359.871582,4365.384766,4551.538574,4540.384766,4559.743652,4496.794922,5664.102539,4312.307617,4257.948730,0.000000,4.000000,75.000000,,,,0.000000,0.000000,0.000000,0.000000,0.000000,0.000000,0.000000,0.000000,0.000000,0.000000,0.000000,0.000000,0.000000,0.000000,0.000000,0.000000,,,,,,,,,,,,,,,,,6.000000,0.000000,0.785405,-0.615417,-0.061462,0.024963,0.074228,-0.972775,0.224148,4.298083,-14.966208,22.549276,,,,,,,,,,,,,,,,,,,,,,,,,,,,,,,,,,,,,,,,,,,,,,,,,,,,,,,,,,,,,,,,,,,,,,,,,,,,,,,,,,,,,,,,,,,,,,,,,,,,,
1738755279.327047,1738755279.327526,25.000000,0.000000,4320.512695,4349.871582,4251.410156,4305.769043,4350.769043,4361.282227,4366.922852,4552.179688,4539.743652,4559.743652,4497.692383,5664.615234,4310.384766,4257.948730,0.000000,4.000000,75.000000,,,,0.000000,0.000000,0.000000,0.000000,0.000000,0.000000,0.000000,0.000000,0.000000,0.000000,0.000000,0.000000,0.000000,0.000000,0.000000,0.000000,,,,,,,,,,,,,,,,,,,,,,,,,,,,,,,,,,,,,,,,,,,,,,,,,,,,,,,,,,,,,,,,,,,,,,,,,,,,,,,,,,,,,,,,,,,,,,,,,,,,,,,,,,,,,,,,,,,,,,,,,,,,,,,,,
1738755279.334855,1738755279.335234,26.000000,0.000000,4320.384766,4348.077148,4251.794922,4306.153809,4353.333496,4360.641113,4367.307617,4549.358887,4537.820313,4560.384766,4499.102539,5665.000000,4309.487305,4255.512695,0.000000,4.000000,75.000000,,,,0.000000,0.000000,0.000000,0.000000,0.000000,0.000000,0.000000,0.000000,0.000000,0.000000,0.000000,0.000000,0.000000,0.000000,0.000000,0.000000,,,,,,,,,,,,,,,,,,,,,,,,,,,,,,,,,,,,,,,,,,,,,,,,,,,,,,,,,,,,,,,,,,,,,,,,,,,,,,,,,,,,,,,,,,,,,,,,,,,,,,,,,,,,,,,,,,,,,,,,,,,,,,,,,
1738755279.342664,1738755279.343142,27.000000,0.000000,4325.512695,4348.077148,4253.846191,4303.205078,4350.000000,4360.000000,4363.589844,4548.974121,4541.025879,4561.282227,4498.589844,5662.820313,4312.051270,4255.641113,0.000000,4.000000,75.000000,,,,0.000000,0.000000,0.000000,0.000000,0.000000,0.000000,0.000000,0.000000,0.000000,0.000000,0.000000,0.000000,0.000000,0.000000,0.000000,0.000000,,,,,,,,,,,,,,,,,,,,,,,,,,,,,,,,,,,,,,,,,,,,,,,,,,,,,,,,,,,,,,,,,,,,,,,,,,,,,,,,,,,,,,,,,,,,,,,,,,,,,,,,,,,,,,,,,,,,,,,,,,,,,,,,,
1738755279.350472,1738755279.350950,28.000000,0.000000,4324.487305,4349.358887,4252.948730,4303.589844,4347.307617,4360.769043,4364.487305,4551.538574,4541.153809,4560.384766,4494.871582,5662.948730,4307.820313,4253.846191,0.000000,4.000000,75.000000,,,,0.000000,0.000000,0.000000,0.000000,0.000000,0.000000,0.000000,0.000000,0.000000,0.000000,0.000000,0.000000,0.000000,0.000000,0.000000,0.000000,,,,,,,,,,,,,,,,,7.000000,0.000000,0.785409,-0.615417,-0.061401,0.024963,0.060066,-0.977658,0.232939,4.368275,-15.002920,22.627682,,,,,,,,,,,,,,,,,,,,,,,,,,,,,,,,,,,,,,,,,,,,,,,,,,,,,,,,,,,,,,,,,,,,,,,,,,,,,,,,,,,,,,,,,,,,,,,,,,,,,
1738755279.358280,1738755279.358858,29.000000,0.000000,4321.153809,4349.358887,4253.589844,4303.974121,4351.666504,4361.153809,4366.153809,4550.384766,4539.102539,4561.794922,4495.769043,5661.794922,4310.641113,4253.461426,0.000000,4.000000,75.000000,,,,0.000000,0.000000,0.000000,0.000000,0.000000,0.000000,0.000000,0.000000,0.000000,0.000000,0.000000,0.000000,0.000000,0.000000,0.000000,0.000000,,,,,,,,,,,,,,,,,,,,,,,,,,,,,,,,,,,,,,,,,,,,,,,,,,,,,,,,,,,,,,,,,,,,,,,,,,,,,,,,,,,,,,,,,,,,,,,,,,,,,,,,,,,,,,,,,,,,,,,,,,,,,,,,,
1738755279.366088,1738755279.366667,30.000000,0.000000,4323.333496,4350.128418,4256.666504,4304.615234,4355.256348,4361.025879,4365.000000,4549.743652,4538.205078,4561.025879,4498.589844,5662.051270,4311.025879,4253.461426,0.000000,4.000000,75.000000,,,,0.000000,0.000000,0.000000,0.000000,0.000000,0.000000,0.000000,0.000000,0.000000,0.000000,0.000000,0.000000,0.000000,0.000000,0.000000,0.000000,1.000000,0.000000,0.000000,0.000000,0.000000,0.000000,0.000000,0.000000,0.000000,0.000000,0.000000,0.000000,0.000000,0.000000,0.000000,0.000000,,,,,,,,,,,,,,,,,,,,,,,,,,,,,,,,,,,,,,,,,,,,0.030127,0.010326,0.017043,0.014916,0.024933,0.022220,0.019437,0.022211,0.019999,0.017160,0.036719,0.027930,0.019706,0.028982,0.028143,0.013599,0.014745,0.021593,0.016344,0.019884,0.047119,0.043367,0.030405,0.032593,0.040248,0.024652,0.012457,0.013492,0.022891,0.010520,0.038360,0.047440,0.081772,0.022934,0.027866,0.037677,0.042702,0.021865,0.015481,0.016764,0.037742,0.027306,0.020008,0.015126,0.028171,0.026919,0.026995,0.014427,0.011234,0.023600,0.025427,0.023003,0.022507,0.008960,0.020814,0.036838,0.031845,0.034375,0.018810,0.022039,0.043274,0.014276,0.014475,0.033365,0.029906,0.065191,0.021292,0.010336,0.036141,0.036696
1738755279.373896,1738755279.374575,31.000000,0.000000,4323.589844,4353.589844,4254.743652,4303.205078,4351.410156,4361.538574,4364.743652,4552.820313,4537.436035,4558.846191,4496.794922,5663.717773,4306.538574,4255.897461,0.000000,4.000000,75.000000,,,,0.000000,0.000000,0.000000,0.000000,0.000000,0.000000,0.000000,0.000000,0.000000,0.000000,0.000000,0.000000,0.000000,0.000000,0.000000,0.000000,,,,,,,,,,,,,,,,,,,,,,,,,,,,,,,,,,,,,,,,,,,,,,,,,,,,,,,,,,,,,,,,,,,,,,,,,,,,,,,,,,,,,,,,,,,,,,,,,,,,,,,,,,,,,,,,,,,,,,,,,,,,,,,,,
1738755279.381704,1738755279.382383,32.000000,0.000000,4318.205078,4353.974121,4253.717773,4300.641113,4348.717773,4361.922852,4364.102539,4552.179688,4539.358887,4560.769043,4495.128418,5663.205078,4309.102539,4259.871582,0.000000,4.000000,75.000000,,,,0.000000,0.000000,0.000000,0.000000,0.000000,0.000000,0.000000,0.000000,0.000000,0.000000,0.000000,0.000000,0.000000,0.000000,0.000000,0.000000,,,,,,,,,,,,,,,,,8.000000,0.000000,0.785411,-0.615417,-0.061401,0.024902,0.054694,-0.966915,0.238310,4.381448,-14.819295,22.531580,,,,,,,,,,,,,,,,,,,,,,,,,,,,,,,,,,,,,,,,,,,,,,,,,,,,,,,,,,,,,,,,,,,,,,,,,,,,,,,,,,,,,,,,,,,,,,,,,,,,,
1738755279.389512,1738755279.390291,33.000000,0.000000,4317.179688,4348.974121,4256.282227,4303.846191,4351.666504,4361.410156,4364.487305,4548.717773,4538.205078,4561.794922,4496.922852,5663.333496,4308.589844,4256.282227,0.000000,4.000000,75.000000,,,,0.000000,0.000000,0.000000,0.000000,0.000000,0.000000,0.000000,0.000000,0.000000,0.000000,0.000000,0.000000,0.000000,0.000000,0.000000,0.000000,,,,,,,,,,,,,,,,,,,,,,,,,,,,,,,,,,,,,,,,,,,,,,,,,,,,,,,,,,,,,,,,,,,,,,,,,,,,,,,,,,,,,,,,,,,,,,,,,,,,,,,,,,,,,,,,,,,,,,,,,,,,,,,,,
1738755279.397320,1738755279.398099,34.000000,0.000000,4320.512695,4349.615234,4253.333496,4304.230957,4353.205078,4360.000000,4364.487305,4548.333496,4536.794922,4559.358887,4497.179688,5664.358887,4308.333496,4253.846191,0.000000,4.000000,75.000000,,,,0.000000,0.000000,0.000000,0.000000,0.000000,0.000000,0.000000,0.000000,0.000000,0.000000,0.000000,0.000000,0.000000,0.000000,0.000000,0.000000,,,,,,,,,,,,,,,,,,,,,,,,,,,,,,,,,,,,,,,,,,,,,,,,,,,,,,,,,,,,,,,,,,,,,,,,,,,,,,,,,,,,,,,,,,,,,,,,,,,,,,,,,,,,,,,,,,,,,,,,,,,,,,,,,
1738755279.405128,1738755279.406007,35.000000,0.000000,4321.794922,4352.179688,4252.179688,4302.563965,4352.307617,4359.358887,4366.794922,4550.512695,4538.589844,4559.230957,4493.589844,5666.794922,4306.666504,4257.436035,0.000000,4.000000,75.000000,,,,0.000000,0.000000,0.000000,0.000000,0.000000,0.000000,0.000000,0.000000,0.000000,0.000000,0.000000,0.000000,0.000000,0.000000,0.000000,0.000000,,,,,,,,,,,,,,,,,,,,,,,,,,,,,,,,,,,,,,,,,,,,,,,,,,,,,,,,,,,,,,,,,,,,,,,,,,,,,,,,,,,,,,,,,,,,,,,,,,,,,,,,,,,,,,,,,,,,,,,,,,,,,,,,,
1738755279.412936,1738755279.413816,36.000000,0.000000,4321.153809,4350.384766,4255.897461,4303.974121,4354.102539,4360.769043,4366.025879,4549.487305,4540.128418,4560.000000,4495.128418,5665.256348,4306.153809,4259.358887,0.000000,4.000000,75.000000,,,,0.000000,0.000000,0.000000,0.000000,0.000000,0.000000,0.000000,0.000000,0.000000,0.000000,0.000000,0.000000,0.000000,0.000000,0.000000,0.000000,,,,,,,,,,,,,,,,,9.000000,0.000000,0.785364,-0.615479,-0.061401,0.024902,0.072763,-0.972287,0.222195,4.159969,-14.937366,22.578423,,,,,,,,,,,,,,,,,,,,,,,,,,,,,,,,,,,,,,,,,,,,,,,,,,,,,,,,,,,,,,,,,,,,,,,,,,,,,,,,,,,,,,,,,,,,,,,,,,,,,
1738755279.420745,1738755279.421724,37.000000,0.000000,4321.538574,4350.000000,4254.615234,4303.333496,4355.128418,4361.538574,4359.743652,4547.820313,4540.641113,4558.974121,4499.102539,5661.794922,4314.487305,4258.589844,0.000000,4.000000,75.000000,,,,0.000000,0.000000,0.000000,0.000000,0.000000,0.000000,0.000000,0.000000,0.000000,0.000000,0.000000,0.000000,0.000000,0.000000,0.000000,0.000000,,,,,,,,,,,,,,,,,,,,,,,,,,,,,,,,,,,,,,,,,,,,,,,,,,,,,,,,,,,,,,,,,,,,,,,,,,,,,,,,,,,,,,,,,,,,,,,,,,,,,,,,,,,,,,,,,,,,,,,,,,,,,,,,,
1738755279.428553,1738755279.429532,38.000000,0.000000,4321.538574,4348.589844,4253.589844,4303.461426,4351.922852,4361.025879,4361.794922,4551.282227,4538.717773,4559.487305,4495.769043,5667.820313,4312.436035,4255.769043,0.000000,4.000000,75.000000,,,,0.000000,0.000000,0.000000,0.000000,0.000000,0.000000,0.000000,0.000000,0.000000,0.000000,0.000000,0.000000,0.000000,0.000000,0.000000,0.000000,,,,,,,,,,,,,,,,,,,,,,,,,,,,,,,,,,,,,,,,,,,,,,,,,,,,,,,,,,,,,,,,,,,,,,,,,,,,,,,,,,,,,,,,,,,,,,,,,,,,,,,,,,,,,,,,,,,,,,,,,,,,,,,,,
1738755279.436361,1738755279.437440,39.000000,0.000000,4318.589844,4348.589844,4255.641113,4303.974121,4351.025879,4360.384766,4363.717773,4553.077148,4540.128418,4561.282227,4494.230957,5669.230957,4309.743652,4256.538574,0.000000,4.000000,75.000000,,,,0.000000,0.000000,0.000000,0.000000,0.000000,0.000000,0.000000,0.000000,0.000000,0.000000,0.000000,0.000000,0.000000,0.000000,0.000000,0.000000,,,,,,,,,,,,,,,,,,,,,,,,,,,,,,,,,,,,,,,,,,,,,,,,,,,,,,,,,,,,,,,,,,,,,,,,,,,,,,,,,,,,,,,,,,,,,,,,,,,,,,,,,,,,,,,,,,,,,,,,,,,,,,,,,
1738755279.444169,1738755279.445248,40.000000,0.000000,4320.000000,4351.410156,4256.538574,4303.717773,4351.025879,4360.384766,4361.794922,4550.256348,4541.410156,4560.000000,4497.692383,5664.743652,4315.128418,4259.230957,0.000000,4.000000,75.000000,,,,0.000000,0.000000,0.000000,0.000000,0.000000,0.000000,0.000000,0.000000,0.000000,0.000000,0.000000,0.000000,0.000000,0.000000,0.000000,0.000000,,,,,,,,,,,,,,,,,10.000000,0.000000,0.785411,-0.615417,-0.061401,0.024902,0.063973,-0.965450,0.241240,4.110639,-14.893629,22.737247,,,,,,,,,,,,,,,,,,,,,,,,,,,,,,,,,,,,,,,,,,,,,,,,,,,,,,,,,,,,,,,,,,,,,,,,,,,,,,,,,,,,,,,,,,,,,,,,,,,,,
1738755279.451977,1738755279.453156,41.000000,0.000000,4324.230957,4351.410156,4255.512695,4303.205078,4350.128418,4360.769043,4364.102539,4550.641113,4539.102539,4559.230957,4497.051270,5666.282227,4313.846191,4259.358887,0.000000,4.000000,75.000000,,,,0.000000,0.000000,0.000000,0.000000,0.000000,0.000000,0.000000,0.000000,0.000000,0.000000,0.000000,0.000000,0.000000,0.000000,0.000000,0.000000,,,,,,,,,,,,,,,,,,,,,,,,,,,,,,,,,,,,,,,,,,,,,,,,,,,,,,,,,,,,,,,,,,,,,,,,,,,,,,,,,,,,,,,,,,,,,,,,,,,,,,,,,,,,,,,,,,,,,,,,,,,,,,,,,
1738755279.459785,1738755279.460964,42.000000,0.000000,4322.179688,4350.512695,4253.589844,4300.769043,4352.436035,4360.769043,4365.256348,4550.769043,4540.512695,4560.769043,4495.384766,5664.487305,4312.179688,4258.333496,0.000000,4.000000,75.000000,,,,0.000000,0.000000,0.000000,0.000000,0.000000,0.000000,0.000000,0.000000,0.000000,0.000000,0.000000,0.000000,0.000000,0.000000,0.000000,0.000000,,,,,,,,,,,,,,,,,,,,,,,,,,,,,,,,,,,,,,,,,,,,,,,,,,,,,,,,,,,,,,,,,,,,,,,,,,,,,,,,,,,,,,,,,,,,,,,,,,,,,,,,,,,,,,,,,,,,,,,,,,,,,,,,,
1738755279.467593,1738755279.468673,43.000000,0.000000,4320.512695,4348.974121,4255.128418,4302.307617,4353.589844,4361.666504,4365.641113,4552.051270,4540.384766,4558.205078,4494.743652,5661.794922,4310.769043,4253.974121,0.000000,4.000000,75.000000,,,,0.000000,0.000000,0.000000,0.000000,0.000000,0.000000,0.000000,0.000000,0.000000,0.000000,0.000000,0.000000,0.000000,0.000000,0.000000,0.000000,,,,,,,,,,,,,,,,,,,,,,,,,,,,,,,,,,,,,,,,,,,,,,,,,,,,,,,,,,,,,,,,,,,,,,,,,,,,,,,,,,,,,,,,,,,,,,,,,,,,,,,,,,,,,,,,,,,,,,,,,,,,,,,,,
1738755279.475401,1738755279.476581,44.000000,0.000000,4322.820313,4349.615234,4256.282227,4303.333496,4350.256348,4362.179688,4363.717773,4551.282227,4536.922852,4558.333496,4494.230957,5662.948730,4314.743652,4254.102539,0.000000,4.000000,75.000000,,,,0.000000,0.000000,0.000000,0.000000,0.000000,0.000000,0.000000,0.000000,0.000000,0.000000,0.000000,0.000000,0.000000,0.000000,0.000000,0.000000,,,,,,,,,,,,,,,,,11.000000,0.000000,0.785407,-0.615417,-0.061462,0.024902,0.073251,-0.982542,0.234404,4.132909,-14.920933,22.646856,,,,,,,,,,,,,,,,,,,,,,,,,,,,,,,,,,,,,,,,,,,,,,,,,,,,,,,,,,,,,,,,,,,,,,,,,,,,,,,,,,,,,,,,,,,,,,,,,,,,,
1738755279.483209,1738755279.484389,45.000000,0.000000,4323.333496,4351.538574,4251.025879,4300.384766,4349.358887,4362.692383,4362.820313,4547.179688,4536.922852,4562.948730,4495.897461,5663.333496,4317.948730,4258.717773,0.000000,4.000000,75.000000,,,,0.000000,0.000000,0.000000,0.000000,0.000000,0.000000,0.000000,0.000000,0.000000,0.000000,0.000000,0.000000,0.000000,0.000000,0.000000,0.000000,,,,,,,,,,,,,,,,,,,,,,,,,,,,,,,,,,,,,,,,,,,,,,,,,,,,,,,,,,,,,,,,,,,,,,,,,,,,,,,,,,,,,,,,,,,,,,,,,,,,,,,,,,,,,,,,,,,,,,,,,,,,,,,,,
1738755279.491017,1738755279.492197,46.000000,0.000000,4321.666504,4350.897461,4248.461426,4303.205078,4353.717773,4363.846191,4366.025879,4549.615234,4538.846191,4562.051270,4495.641113,5665.641113,4308.461426,4256.922852,0.000000,4.000000,75.000000,,,,0.000000,0.000000,0.000000,0.000000,0.000000,0.000000,0.000000,0.000000,0.000000,0.000000,0.000000,0.000000,0.000000,0.000000,0.000000,0.000000,,,,,,,,,,,,,,,,,,,,,,,,,,,,,,,,,,,,,,,,,,,,,,,,,,,,,,,,,,,,0.029232,0.007377,0.018600,0.015414,0.025528,0.028581,0.016530,0.023414,0.019258,0.016993,0.028754,0.025568,0.025031,0.029374,0.025856,0.012961,0.010606,0.020617,0.016156,0.020335,0.050544,0.045507,0.033918,0.033545,0.035874,0.024852,0.011949,0.011996,0.020239,0.011084,0.034218,0.042544,0.075020,0.025115,0.027749,0.037893,0.042847,0.027685,0.014647,0.017569,0.032419,0.024142,0.021850,0.015744,0.027208,0.028047,0.028809,0.016407,0.010930,0.021223,0.025723,0.022161,0.022934,0.009905,0.021832,0.032818,0.027619,0.031751,0.019870,0.020748,0.038570,0.011556,0.013068,0.030966,0.028997,0.070540,0.018102,0.011359,0.036754,0.034700
1738755279.498826,1738755279.499905,47.000000,0.000000,4320.000000,4350.256348,4253.846191,4306.282227,4351.666504,4361.538574,4364.230957,4551.922852,4539.102539,4557.436035,4496.153809,5665.256348,4308.205078,4255.641113,0.000000,4.000000,75.000000,,,,0.000000,0.000000,0.000000,0.000000,0.000000,0.000000,0.000000,0.000000,0.000000,0.000000,0.000000,0.000000,0.000000,0.000000,0.000000,0.000000,,,,,,,,,,,,,,,,,,,,,,,,,,,,,,,,,,,,,,,,,,,,,,,,,,,,,,,,,,,,,,,,,,,,,,,,,,,,,,,,,,,,,,,,,,,,,,,,,,,,,,,,,,,,,,,,,,,,,,,,,,,,,,,,,
1738755279.506634,1738755279.507713,48.000000,0.000000,4320.769043,4351.410156,4256.025879,4302.179688,4348.205078,4360.256348,4363.077148,4550.128418,4537.820313,4557.563965,4497.948730,5667.436035,4312.820313,4257.051270,0.000000,4.000000,75.000000,,,,0.000000,0.000000,0.000000,0.000000,0.000000,0.000000,0.000000,0.000000,0.000000,0.000000,0.000000,0.000000,0.000000,0.000000,0.000000,0.000000,,,,,,,,,,,,,,,,,12.000000,0.000000,0.785356,-0.615479,-0.061523,0.024841,0.064949,-0.957148,0.230985,4.136284,-15.045506,22.632170,,,,,,,,,,,,,,,,,,,,,,,,,,,,,,,,,,,,,,,,,,,,,,,,,,,,,,,,,,,,,,,,,,,,,,,,,,,,,,,,,,,,,,,,,,,,,,,,,,,,,
1738755279.514442,1738755279.515421,49.000000,0.000000,4322.051270,4351.666504,4253.077148,4298.589844,4352.179688,4362.051270,4365.384766,4549.871582,4538.974121,4560.128418,4497.948730,5667.948730,4313.717773,4259.102539,0.000000,4.000000,75.000000,,,,0.000000,0.000000,0.000000,0.000000,0.000000,0.000000,0.000000,0.000000,0.000000,0.000000,0.000000,0.000000,0.000000,0.000000,0.000000,0.000000,,,,,,,,,,,,,,,,,,,,,,,,,,,,,,,,,,,,,,,,,,,,,,,,,,,,,,,,,,,,,,,,,,,,,,,,,,,,,,,,,,,,,,,,,,,,,,,,,,,,,,,,,,,,,,,,,,,,,,,,,,,,,,,,,
1738755279.522250,1738755279.523229,50.000000,0.000000,4322.820313,4349.615234,4251.666504,4300.512695,4353.974121,4360.641113,4365.769043,4549.871582,4540.897461,4559.358887,4495.384766,5660.897461,4314.102539,4259.102539,0.000000,4.000000,75.000000,,,,0.000000,0.000000,0.000000,0.000000,0.000000,0.000000,0.000000,0.000000,0.000000,0.000000,0.000000,0.000000,0.000000,0.000000,0.000000,0.000000,,,,,,,,,,,,,,,,,,,,,,,,,,,,,,,,,,,,,,,,,,,,,,,,,,,,,,,,,,,,,,,,,,,,,,,,,,,,,,,,,,,,,,,,,,,,,,,,,,,,,,,,,,,,,,,,,,,,,,,,,,,,,,,,,
1738755279.530058,1738755279.530937,51.000000,0.000000,4322.692383,4349.743652,4253.846191,4303.205078,4347.948730,4359.102539,4365.384766,4550.384766,4537.820313,4556.922852,4493.461426,5662.820313,4309.487305,4256.410156,0.000000,4.000000,75.000000,,,,0.000000,0.000000,0.000000,0.000000,0.000000,0.000000,0.000000,0.000000,0.000000,0.000000,0.000000,0.000000,0.000000,0.000000,0.000000,0.000000,,,,,,,,,,,,,,,,,,,,,,,,,,,,,,,,,,,,,,,,,,,,,,,,,,,,,,,,,,,,,,,,,,,,,,,,,,,,,,,,,,,,,,,,,,,,,,,,,,,,,,,,,,,,,,,,,,,,,,,,,,,,,,,,,
1738755279.537866,1738755279.538745,52.000000,0.000000,4320.512695,4352.179688,4256.538574,4302.820313,4345.897461,4362.692383,4366.282227,4549.743652,4536.410156,4558.974121,4496.153809,5666.922852,4312.307617,4257.948730,0.000000,4.000000,75.000000,,,,0.000000,0.000000,0.000000,0.000000,0.000000,0.000000,0.000000,0.000000,0.000000,0.000000,0.000000,0.000000,0.000000,0.000000,0.000000,0.000000,,,,,,,,,,,,,,,,,13.000000,0.000000,0.785349,-0.615479,-0.061584,0.024902,0.078135,-0.970333,0.232450,4.172656,-15.024289,22.618954,,,,,,,,,,,,,,,,,,,,,,,,,,,,,,,,,,,,,,,,,,,,,,,,,,,,,,,,,,,,,,,,,,,,,,,,,,,,,,,,,,,,,,,,,,,,,,,,,,,,,
1738755279.545674,1738755279.546454,53.000000,0.000000,4321.025879,4351.922852,4253.974121,4302.307617,4351.666504,4364.102539,4369.358887,4549.743652,4540.897461,4562.179688,4497.051270,5665.897461,4312.948730,4255.128418,0.000000,4.000000,75.000000,,,,0.000000,0.000000,0.000000,0.000000,0.000000,0.000000,0.000000,0.000000,0.000000,0.000000,0.000000,0.000000,0.000000,0.000000,0.000000,0.000000,,,,,,,,,,,,,,,,,,,,,,,,,,,,,,,,,,,,,,,,,,,,,,,,,,,,,,,,,,,,,,,,,,,,,,,,,,,,,,,,,,,,,,,,,,,,,,,,,,,,,,,,,,,,,,,,,,,,,,,,,,,,,,,,,
1738755279.553482,1738755279.554261,54.000000,0.000000,4321.410156,4349.743652,4249.743652,4301.410156,4352.948730,4361.922852,4369.487305,4549.358887,4541.410156,4560.641113,4495.256348,5665.641113,4308.205078,4251.538574,0.000000,4.000000,75.000000,,,,0.000000,0.000000,0.000000,0.000000,0.000000,0.000000,0.000000,0.000000,0.000000,0.000000,0.000000,0.000000,0.000000,0.000000,0.000000,0.000000,,,,,,,,,,,,,,,,,,,,,,,,,,,,,,,,,,,,,,,,,,,,,,,,,,,,,,,,,,,,,,,,,,,,,,,,,,,,,,,,,,,,,,,,,,,,,,,,,,,,,,,,,,,,,,,,,,,,,,,,,,,,,,,,,
1738755279.561290,1738755279.561970,55.000000,0.000000,4320.641113,4350.128418,4253.077148,4300.000000,4349.871582,4363.205078,4365.384766,4547.948730,4538.077148,4557.820313,4495.769043,5663.333496,4310.641113,4256.794922,0.000000,4.000000,75.000000,,,,0.000000,0.000000,0.000000,0.000000,0.000000,0.000000,0.000000,0.000000,0.000000,0.000000,0.000000,0.000000,0.000000,0.000000,0.000000,0.000000,,,,,,,,,,,,,,,,,,,,,,,,,,,,,,,,,,,,,,,,,,,,,,,,,,,,,,,,,,,,,,,,,,,,,,,,,,,,,,,,,,,,,,,,,,,,,,,,,,,,,,,,,,,,,,,,,,,,,,,,,,,,,,,,,
1738755279.569098,1738755279.569778,56.000000,0.000000,4322.692383,4351.922852,4258.205078,4305.000000,4350.641113,4364.615234,4364.102539,4550.897461,4537.307617,4558.077148,4497.820313,5663.846191,4308.333496,4257.820313,0.000000,4.000000,75.000000,,,,0.000000,0.000000,0.000000,0.000000,0.000000,0.000000,0.000000,0.000000,0.000000,0.000000,0.000000,0.000000,0.000000,0.000000,0.000000,0.000000,,,,,,,,,,,,,,,,,14.000000,0.000000,0.785404,-0.615417,-0.061523,0.024841,0.066414,-0.973752,0.237822,4.205390,-15.005194,22.557058,,,,,,,,,,,,,,,,,,,,,,,,,,,,,,,,,,,,,,,,,,,,,,,,,,,,,,,,,,,,,,,,,,,,,,,,,,,,,,,,,,,,,,,,,,,,,,,,,,,,,
1738755279.576907,1738755279.577486,57.000000,0.000000,4321.922852,4350.641113,4255.000000,4304.358887,4353.717773,4361.153809,4366.025879,4550.512695,4539.743652,4560.384766,4499.743652,5665.128418,4309.871582,4257.692383,0.000000,4.000000,75.000000,,,,0.000000,0.000000,0.000000,0.000000,0.000000,0.000000,0.000000,0.000000,0.000000,0.000000,0.000000,0.000000,0.000000,0.000000,0.000000,0.000000,,,,,,,,,,,,,,,,,,,,,,,,,,,,,,,,,,,,,,,,,,,,,,,,,,,,,,,,,,,,,,,,,,,,,,,,,,,,,,,,,,,,,,,,,,,,,,,,,,,,,,,,,,,,,,,,,,,,,,,,,,,,,,,,,
1738755279.584715,1738755279.585394,58.000000,0.000000,4319.743652,4347.563965,4253.461426,4299.743652,4355.128418,4360.897461,4367.436035,4549.230957,4541.410156,4561.153809,4499.358887,5663.333496,4313.205078,4257.051270,0.000000,4.000000,75.000000,,,,0.000000,0.000000,0.000000,0.000000,0.000000,0.000000,0.000000,0.000000,0.000000,0.000000,0.000000,0.000000,0.000000,0.000000,0.000000,0.000000,,,,,,,,,,,,,,,,,,,,,,,,,,,,,,,,,,,,,,,,,,,,,,,,,,,,,,,,,,,,,,,,,,,,,,,,,,,,,,,,,,,,,,,,,,,,,,,,,,,,,,,,,,,,,,,,,,,,,,,,,,,,,,,,,
1738755279.592523,1738755279.593202,59.000000,0.000000,4321.410156,4347.179688,4255.641113,4301.794922,4354.743652,4362.948730,4366.538574,4552.051270,4539.871582,4560.000000,4499.102539,5660.769043,4308.205078,4255.512695,0.000000,4.000000,75.000000,,,,0.000000,0.000000,0.000000,0.000000,0.000000,0.000000,0.000000,0.000000,0.000000,0.000000,0.000000,0.000000,0.000000,0.000000,0.000000,0.000000,,,,,,,,,,,,,,,,,,,,,,,,,,,,,,,,,,,,,,,,,,,,,,,,,,,,,,,,,,,,,,,,,,,,,,,,,,,,,,,,,,,,,,,,,,,,,,,,,,,,,,,,,,,,,,,,,,,,,,,,,,,,,,,,,
1738755279.600331,1738755279.601110,60.000000,0.000000,4320.641113,4349.743652,4254.358887,4303.461426,4353.846191,4360.641113,4363.461426,4551.153809,4540.128418,4559.487305,4499.358887,5661.538574,4311.666504,4258.717773,0.000000,4.000000,75.000000,,,,0.000000,0.000000,0.000000,0.000000,0.000000,0.000000,0.000000,0.000000,0.000000,0.000000,0.000000,0.000000,0.000000,0.000000,0.000000,0.000000,,,,,,,,,,,,,,,,,15.000000,0.000000,0.785410,-0.615417,-0.061462,0.024780,0.063973,-0.979123,0.242705,4.218185,-15.021340,22.484686,,,,,,,,,,,,,,,,,,,,,,,,,,,,,,,,,,,,,,,,,,,,,,,,,,,,,,,,,,,,,,,,,,,,,,,,,,,,,,,,,,,,,,,,,,,,,,,,,,,,,
1738755279.608139,1738755279.608918,61.000000,0.000000,4319.358887,4348.846191,4253.461426,4302.307617,4353.717773,4359.487305,4364.487305,4547.948730,4542.051270,4559.102539,4496.410156,5665.897461,4313.974121,4256.153809,0.000000,4.000000,75.000000,,,,0.000000,0.000000,0.000000,0.000000,0.000000,0.000000,0.000000,0.000000,0.000000,0.000000,0.000000,0.000000,0.000000,0.000000,0.000000,0.000000,,,,,,,,,,,,,,,,,,,,,,,,,,,,,,,,,,,,,,,,,,,,,,,,,,,,,,,,,,,,,,,,,,,,,,,,,,,,,,,,,,,,,,,,,,,,,,,,,,,,,,,,,,,,,,,,,,,,,,,,,,,,,,,,,
1738755279.615947,1738755279.616826,62.000000,0.000000,4321.794922,4348.974121,4255.256348,4299.871582,4351.282227,4362.563965,4366.922852,4548.461426,4540.384766,4558.846191,4495.512695,5664.358887,4313.589844,4253.589844,0.000000,4.000000,75.000000,,,,0.000000,0.000000,0.000000,0.000000,0.000000,0.000000,0.000000,0.000000,0.000000,0.000000,0.000000,0.000000,0.000000,0.000000,0.000000,0.000000,,,,,,,,,,,,,,,,,,,,,,,,,,,,,,,,,,,,,,,,,,,,,,,,,,,,,,,,,,,,0.026215,0.004945,0.021323,0.016722,0.026386,0.037339,0.017775,0.025754,0.019157,0.019581,0.020927,0.023781,0.030554,0.029762,0.023424,0.011964,0.008742,0.021037,0.016369,0.021796,0.051132,0.045858,0.036647,0.033939,0.032094,0.025984,0.012942,0.010758,0.018475,0.011508,0.029735,0.039734,0.065626,0.028898,0.029257,0.038273,0.040457,0.033911,0.013647,0.018545,0.027502,0.022035,0.022440,0.016561,0.027183,0.029139,0.030375,0.018409,0.010653,0.019010,0.025784,0.020605,0.022250,0.011844,0.022792,0.030793,0.025871,0.027871,0.020553,0.020195,0.037290,0.010151,0.015418,0.028817,0.028121,0.071629,0.017408,0.013139,0.035106,0.031713
1738755279.623755,1738755279.624635,63.000000,0.000000,4322.563965,4352.051270,4255.769043,4300.256348,4348.077148,4363.205078,4365.769043,4553.846191,4537.307617,4558.333496,4497.436035,5662.307617,4313.589844,4256.282227,0.000000,4.000000,75.000000,,,,0.000000,0.000000,0.000000,0.000000,0.000000,0.000000,0.000000,0.000000,0.000000,0.000000,0.000000,0.000000,0.000000,0.000000,0.000000,0.000000,,,,,,,,,,,,,,,,,,,,,,,,,,,,,,,,,,,,,,,,,,,,,,,,,,,,,,,,,,,,,,,,,,,,,,,,,,,,,,,,,,,,,,,,,,,,,,,,,,,,,,,,,,,,,,,,,,,,,,,,,,,,,,,,,
1738755279.631563,1738755279.632543,64.000000,0.000000,4320.128418,4351.666504,4254.358887,4302.820313,4349.230957,4360.769043,4365.641113,4553.461426,4535.000000,4559.230957,4497.051270,5664.615234,4308.974121,4256.410156,0.000000,4.000000,75.000000,,,,0.000000,0.000000,0.000000,0.000000,0.000000,0.000000,0.000000,0.000000,0.000000,0.000000,0.000000,0.000000,0.000000,0.000000,0.000000,0.000000,,,,,,,,,,,,,,,,,16.000000,0.000000,0.785408,-0.615417,-0.061523,0.024719,0.064461,-0.964473,0.234892,4.379700,-15.002540,22.602882,,,,,,,,,,,,,,,,,,,,,,,,,,,,,,,,,,,,,,,,,,,,,,,,,,,,,,,,,,,,,,,,,,,,,,,,,,,,,,,,,,,,,,,,,,,,,,,,,,,,,
1738755279.639371,1738755279.640351,65.000000,0.000000,4318.846191,4350.384766,4253.333496,4301.025879,4352.307617,4360.897461,4364.871582,4547.820313,4538.717773,4561.922852,4498.077148,5664.487305,4314.487305,4258.589844,0.000000,4.000000,75.000000,,,,0.000000,0.000000,0.000000,0.000000,0.000000,0.000000,0.000000,0.000000,0.000000,0.000000,0.000000,0.000000,0.000000,0.000000,0.000000,0.000000,,,,,,,,,,,,,,,,,,,,,,,,,,,,,,,,,,,,,,,,,,,,,,,,,,,,,,,,,,,,,,,,,,,,,,,,,,,,,,,,,,,,,,,,,,,,,,,,,,,,,,,,,,,,,,,,,,,,,,,,,,,,,,,,,
1738755279.647179,1738755279.648059,66.000000,0.000000,4321.538574,4348.846191,4254.358887,4301.153809,4352.948730,4360.897461,4366.025879,4552.179688,4541.410156,4562.307617,4498.205078,5666.922852,4316.410156,4258.461426,0.000000,4.000000,75.000000,,,,0.000000,0.000000,0.000000,0.000000,0.000000,0.000000,0.000000,0.000000,0.000000,0.000000,0.000000,0.000000,0.000000,0.000000,0.000000,0.000000,,,,,,,,,,,,,,,,,,,,,,,,,,,,,,,,,,,,,,,,,,,,,,,,,,,,,,,,,,,,,,,,,,,,,,,,,,,,,,,,,,,,,,,,,,,,,,,,,,,,,,,,,,,,,,,,,,,,,,,,,,,,,,,,,
1738755279.654987,1738755279.655867,67.000000,0.000000,4322.179688,4349.102539,4254.615234,4302.179688,4352.948730,4359.102539,4365.512695,4553.333496,4538.205078,4561.410156,4496.153809,5666.025879,4311.538574,4257.179688,0.000000,4.000000,75.000000,,,,0.000000,0.000000,0.000000,0.000000,0.000000,0.000000,0.000000,0.000000,0.000000,0.000000,0.000000,0.000000,0.000000,0.000000,0.000000,0.000000,,,,,,,,,,,,,,,,,,,,,,,,,,,,,,,,,,,,,,,,,,,,,,,,,,,,,,,,,,,,,,,,,,,,,,,,,,,,,,,,,,,,,,,,,,,,,,,,,,,,,,,,,,,,,,,,,,,,,,,,,,,,,,,,,
1738755279.662796,1738755279.663575,68.000000,0.000000,4320.256348,4349.871582,4253.077148,4301.666504,4353.846191,4360.512695,4362.692383,4547.307617,4537.692383,4560.641113,4499.358887,5662.179688,4312.307617,4258.974121,0.000000,4.000000,75.000000,,,,0.000000,0.000000,0.000000,0.000000,0.000000,0.000000,0.000000,0.000000,0.000000,0.000000,0.000000,0.000000,0.000000,0.000000,0.000000,0.000000,,,,,,,,,,,,,,,,,17.000000,0.000000,0.785412,-0.615417,-0.061462,0.024719,0.069344,-0.973263,0.224637,4.358396,-15.085619,22.709261,,,,,,,,,,,,,,,,,,,,,,,,,,,,,,,,,,,,,,,,,,,,,,,,,,,,,,,,,,,,,,,,,,,,,,,,,,,,,,,,,,,,,,,,,,,,,,,,,,,,,
1738755279.670604,1738755279.671383,69.000000,0.000000,4321.282227,4349.487305,4253.333496,4305.128418,4353.205078,4362.051270,4363.589844,4549.871582,4538.589844,4560.256348,4500.769043,5668.077148,4311.282227,4257.436035,0.000000,4.000000,75.000000,,,,0.000000,0.000000,0.000000,0.000000,0.000000,0.000000,0.000000,0.000000,0.000000,0.000000,0.000000,0.000000,0.000000,0.000000,0.000000,0.000000,,,,,,,,,,,,,,,,,,,,,,,,,,,,,,,,,,,,,,,,,,,,,,,,,,,,,,,,,,,,,,,,,,,,,,,,,,,,,,,,,,,,,,,,,,,,,,,,,,,,,,,,,,,,,,,,,,,,,,,,,,,,,,,,,
1738755279.678412,1738755279.679092,70.000000,0.000000,4322.692383,4350.512695,4255.000000,4305.897461,4353.589844,4360.512695,4363.077148,4551.025879,4539.487305,4561.666504,4496.282227,5667.948730,4312.948730,4257.948730,0.000000,4.000000,75.000000,,,,0.000000,0.000000,0.000000,0.000000,0.000000,0.000000,0.000000,0.000000,0.000000,0.000000,0.000000,0.000000,0.000000,0.000000,0.000000,0.000000,,,,,,,,,,,,,,,,,,,,,,,,,,,,,,,,,,,,,,,,,,,,,,,,,,,,,,,,,,,,,,,,,,,,,,,,,,,,,,,,,,,,,,,,,,,,,,,,,,,,,,,,,,,,,,,,,,,,,,,,,,,,,,,,,
1738755279.686220,1738755279.686899,71.000000,0.000000,4321.538574,4348.589844,4254.358887,4303.589844,4353.974121,4360.769043,4364.358887,4548.846191,4540.000000,4560.384766,4494.615234,5662.436035,4311.666504,4260.769043,0.000000,4.000000,75.000000,,,,0.000000,0.000000,0.000000,0.000000,0.000000,0.000000,0.000000,0.000000,0.000000,0.000000,0.000000,0.000000,0.000000,0.000000,0.000000,0.000000,,,,,,,,,,,,,,,,,,,,,,,,,,,,,,,,,,,,,,,,,,,,,,,,,,,,,,,,,,,,,,,,,,,,,,,,,,,,,,,,,,,,,,,,,,,,,,,,,,,,,,,,,,,,,,,,,,,,,,,,,,,,,,,,,
1738755279.694028,1738755279.694608,72.000000,0.000000,4321.153809,4348.205078,4251.922852,4304.102539,4351.025879,4362.436035,4367.307617,4550.000000,4539.358887,4557.820313,4497.051270,5662.563965,4310.384766,4259.487305,0.000000,4.000000,75.000000,,,,0.000000,0.000000,0.000000,0.000000,0.000000,0.000000,0.000000,0.000000,0.000000,0.000000,0.000000,0.000000,0.000000,0.000000,0.000000,0.000000,,,,,,,,,,,,,,,,,18.000000,0.000000,0.785371,-0.615479,-0.061401,0.024658,0.072274,-0.975217,0.241240,4.322556,-15.043724,22.705002,,,,,,,,,,,,,,,,,,,,,,,,,,,,,,,,,,,,,,,,,,,,,,,,,,,,,,,,,,,,,,,,,,,,,,,,,,,,,,,,,,,,,,,,,,,,,,,,,,,,,
1738755279.701836,1738755279.702516,73.000000,0.000000,4323.846191,4351.410156,4251.025879,4302.820313,4350.769043,4362.051270,4367.563965,4547.307617,4537.307617,4559.615234,4497.051270,5664.487305,4312.051270,4256.282227,0.000000,4.000000,75.000000,,,,0.000000,0.000000,0.000000,0.000000,0.000000,0.000000,0.000000,0.000000,0.000000,0.000000,0.000000,0.000000,0.000000,0.000000,0.000000,0.000000,,,,,,,,,,,,,,,,,,,,,,,,,,,,,,,,,,,,,,,,,,,,,,,,,,,,,,,,,,,,,,,,,,,,,,,,,,,,,,,,,,,,,,,,,,,,,,,,,,,,,,,,,,,,,,,,,,,,,,,,,,,,,,,,,
1738755279.709644,1738755279.710324,74.000000,0.000000,4323.077148,4350.641113,4252.179688,4302.692383,4352.563965,4361.410156,4367.692383,4546.666504,4536.794922,4560.897461,4495.897461,5666.666504,4307.436035,4256.153809,0.000000,4.000000,75.000000,,,,0.000000,0.000000,0.000000,0.000000,0.000000,0.000000,0.000000,0.000000,0.000000,0.000000,0.000000,0.000000,0.000000,0.000000,0.000000,0.000000,,,,,,,,,,,,,,,,,,,,,,,,,,,,,,,,,,,,,,,,,,,,,,,,,,,,,,,,,,,,,,,,,,,,,,,,,,,,,,,,,,,,,,,,,,,,,,,,,,,,,,,,,,,,,,,,,,,,,,,,,,,,,,,,,
1738755279.717452,1738755279.718132,75.000000,0.000000,4319.743652,4349.358887,4253.461426,4305.384766,4353.461426,4360.769043,4362.436035,4549.871582,4539.743652,4558.717773,4498.077148,5663.589844,4312.948730,4260.384766,0.000000,4.000000,75.000000,,,,0.000000,0.000000,0.000000,0.000000,0.000000,0.000000,0.000000,0.000000,0.000000,0.000000,0.000000,0.000000,0.000000,0.000000,0.000000,0.000000,,,,,,,,,,,,,,,,,,,,,,,,,,,,,,,,,,,,,,,,,,,,,,,,,,,,,,,,,,,,,,,,,,,,,,,,,,,,,,,,,,,,,,,,,,,,,,,,,,,,,,,,,,,,,,,,,,,,,,,,,,,,,,,,,
1738755279.725260,1738755279.725840,76.000000,0.000000,4322.307617,4349.230957,4255.512695,4307.692383,4354.615234,4359.871582,4363.461426,4550.256348,4539.230957,4558.974121,4498.461426,5661.666504,4317.692383,4258.846191,0.000000,4.000000,75.000000,,,,0.000000,0.000000,0.000000,0.000000,0.000000,0.000000,0.000000,0.000000,0.000000,0.000000,0.000000,0.000000,0.000000,0.000000,0.000000,0.000000,,,,,,,,,,,,,,,,,19.000000,0.000000,0.785366,-0.615479,-0.061523,0.024536,0.052741,-0.984984,0.227567,4.373634,-15.006019,22.534502,,,,,,,,,,,,,,,,,,,,,,,,,,,,,,,,,,,,,,,,,,,,,,,,,,,,,,,,,,,,,,,,,,,,,,,,,,,,,,,,,,,,,,,,,,,,,,,,,,,,,
1738755279.733069,1738755279.733648,77.000000,0.000000,4324.102539,4348.589844,4253.205078,4305.641113,4353.717773,4360.769043,4369.871582,4549.487305,4537.948730,4562.563965,4496.282227,5664.230957,4311.410156,4254.487305,0.000000,4.000000,75.000000,,,,0.000000,0.000000,0.000000,0.000000,0.000000,0.000000,0.000000,0.000000,0.000000,0.000000,0.000000,0.000000,0.000000,0.000000,0.000000,0.000000,,,,,,,,,,,,,,,,,,,,,,,,,,,,,,,,,,,,,,,,,,,,,,,,,,,,,,,,,,,,,,,,,,,,,,,,,,,,,,,,,,,,,,,,,,,,,,,,,,,,,,,,,,,,,,,,,,,,,,,,,,,,,,,,,
1738755279.740877,1738755279.741356,78.000000,0.000000,4320.512695,4350.641113,4251.282227,4300.128418,4351.794922,4360.897461,4365.769043,4550.512695,4539.230957,4562.692383,4498.846191,5663.205078,4311.025879,4259.615234,0.000000,4.000000,75.000000,,,,0.000000,0.000000,0.000000,0.000000,0.000000,0.000000,0.000000,0.000000,0.000000,0.000000,0.000000,0.000000,0.000000,0.000000,0.000000,0.000000,,,,,,,,,,,,,,,,,,,,,,,,,,,,,,,,,,,,,,,,,,,,,,,,,,,,,,,,,,,,0.022050,0.003807,0.024618,0.018800,0.027591,0.047168,0.022340,0.028974,0.019663,0.024554,0.015265,0.022680,0.035477,0.029702,0.021063,0.010628,0.008970,0.022726,0.016578,0.023852,0.049825,0.044741,0.037694,0.033298,0.029406,0.027587,0.015616,0.009848,0.017697,0.011531,0.026631,0.037756,0.055314,0.033065,0.032252,0.038291,0.036338,0.039355,0.012635,0.019549,0.023979,0.020879,0.021658,0.017071,0.027873,0.030080,0.031305,0.019779,0.010778,0.017293,0.025164,0.018810,0.020505,0.014386,0.023411,0.031406,0.027153,0.023641,0.020519,0.020367,0.041476,0.009916,0.021100,0.026663,0.027343,0.067123,0.019134,0.015217,0.031851,0.028534
1738755279.748685,1738755279.749164,79.000000,0.000000,4319.358887,4350.256348,4257.563965,4300.128418,4354.487305,4358.589844,4363.205078,4551.153809,4538.077148,4559.487305,4499.230957,5664.102539,4310.512695,4261.025879,0.000000,4.000000,75.000000,,,,0.000000,0.000000,0.000000,0.000000,0.000000,0.000000,0.000000,0.000000,0.000000,0.000000,0.000000,0.000000,0.000000,0.000000,0.000000,0.000000,,,,,,,,,,,,,,,,,,,,,,,,,,,,,,,,,,,,,,,,,,,,,,,,,,,,,,,,,,,,,,,,,,,,,,,,,,,,,,,,,,,,,,,,,,,,,,,,,,,,,,,,,,,,,,,,,,,,,,,,,,,,,,,,,
1738755279.756493,1738755279.756872,80.000000,0.000000,4320.128418,4349.230957,4258.205078,4303.461426,4355.769043,4357.563965,4367.051270,4547.948730,4538.717773,4560.384766,4497.436035,5663.974121,4309.358887,4254.358887,0.000000,4.000000,75.000000,,,,0.000000,0.000000,0.000000,0.000000,0.000000,0.000000,0.000000,0.000000,0.000000,0.000000,0.000000,0.000000,0.000000,0.000000,0.000000,0.000000,,,,,,,,,,,,,,,,,20.000000,0.000000,0.785369,-0.615479,-0.061523,0.024414,0.075204,-0.979123,0.231474,4.469604,-14.988750,22.531052,,,,,,,,,,,,,,,,,,,,,,,,,,,,,,,,,,,,,,,,,,,,,,,,,,,,,,,,,,,,,,,,,,,,,,,,,,,,,,,,,,,,,,,,,,,,,,,,,,,,,
1738755279.764301,1738755279.764780,81.000000,0.000000,4319.743652,4351.282227,4251.153809,4303.461426,4350.256348,4359.487305,4367.948730,4550.128418,4539.743652,4562.051270,4500.384766,5664.487305,4312.179688,4254.487305,0.000000,4.000000,75.000000,,,,0.000000,0.000000,0.000000,0.000000,0.000000,0.000000,0.000000,0.000000,0.000000,0.000000,0.000000,0.000000,0.000000,0.000000,0.000000,0.000000,,,,,,,,,,,,,,,,,,,,,,,,,,,,,,,,,,,,,,,,,,,,,,,,,,,,,,,,,,,,,,,,,,,,,,,,,,,,,,,,,,,,,,,,,,,,,,,,,,,,,,,,,,,,,,,,,,,,,,,,,,,,,,,,,
1738755279.772109,1738755279.772589,82.000000,0.000000,4322.051270,4352.563965,4251.922852,4301.922852,4351.025879,4360.769043,4366.410156,4555.384766,4537.436035,4558.846191,4500.000000,5668.589844,4314.487305,4256.666504,0.000000,4.000000,75.000000,,,,0.000000,0.000000,0.000000,0.000000,0.000000,0.000000,0.000000,0.000000,0.000000,0.000000,0.000000,0.000000,0.000000,0.000000,0.000000,0.000000,,,,,,,,,,,,,,,,,,,,,,,,,,,,,,,,,,,,,,,,,,,,,,,,,,,,,,,,,,,,,,,,,,,,,,,,,,,,,,,,,,,,,,,,,,,,,,,,,,,,,,,,,,,,,,,,,,,,,,,,,,,,,,,,,
1738755279.779917,1738755279.780497,83.000000,0.000000,4322.436035,4352.563965,4256.025879,4300.384766,4354.743652,4360.000000,4365.897461,4551.410156,4539.358887,4558.333496,4498.333496,5665.256348,4315.897461,4255.256348,0.000000,4.000000,75.000000,,,,0.000000,0.000000,0.000000,0.000000,0.000000,0.000000,0.000000,0.000000,0.000000,0.000000,0.000000,0.000000,0.000000,0.000000,0.000000,0.000000,,,,,,,,,,,,,,,,,,,,,,,,,,,,,,,,,,,,,,,,,,,,,,,,,,,,,,,,,,,,,,,,,,,,,,,,,,,,,,,,,,,,,,,,,,,,,,,,,,,,,,,,,,,,,,,,,,,,,,,,,,,,,,,,,
1738755279.787725,1738755279.788305,84.000000,0.000000,4321.282227,4351.410156,4253.333496,4302.563965,4349.615234,4359.743652,4367.307617,4549.102539,4541.410156,4560.897461,4498.589844,5663.846191,4311.410156,4253.205078,0.000000,4.000000,75.000000,,,,0.000000,0.000000,0.000000,0.000000,0.000000,0.000000,0.000000,0.000000,0.000000,0.000000,0.000000,0.000000,0.000000,0.000000,0.000000,0.000000,,,,,,,,,,,,,,,,,21.000000,0.000000,0.785277,-0.615601,-0.061462,0.024475,0.063484,-0.975217,0.235869,4.472644,-15.023208,22.611280,,,,,,,,,,,,,,,,,,,,,,,,,,,,,,,,,,,,,,,,,,,,,,,,,,,,,,,,,,,,,,,,,,,,,,,,,,,,,,,,,,,,,,,,,,,,,,,,,,,,,
1738755279.795533,1738755279.796213,85.000000,0.000000,4322.307617,4350.256348,4248.589844,4305.128418,4347.436035,4360.512695,4366.538574,4552.563965,4540.384766,4560.897461,4500.256348,5665.512695,4312.307617,4258.717773,0.000000,4.000000,75.000000,,,,0.000000,0.000000,0.000000,0.000000,0.000000,0.000000,0.000000,0.000000,0.000000,0.000000,0.000000,0.000000,0.000000,0.000000,0.000000,0.000000,,,,,,,,,,,,,,,,,,,,,,,,,,,,,,,,,,,,,,,,,,,,,,,,,,,,,,,,,,,,,,,,,,,,,,,,,,,,,,,,,,,,,,,,,,,,,,,,,,,,,,,,,,,,,,,,,,,,,,,,,,,,,,,,,
1738755279.803342,1738755279.804021,86.000000,0.000000,4322.820313,4349.230957,4250.512695,4304.487305,4352.820313,4361.666504,4367.051270,4551.025879,4540.000000,4559.743652,4498.846191,5663.333496,4314.871582,4260.256348,0.000000,4.000000,75.000000,,,,0.000000,0.000000,0.000000,0.000000,0.000000,0.000000,0.000000,0.000000,0.000000,0.000000,0.000000,0.000000,0.000000,0.000000,0.000000,0.000000,,,,,,,,,,,,,,,,,,,,,,,,,,,,,,,,,,,,,,,,,,,,,,,,,,,,,,,,,,,,,,,,,,,,,,,,,,,,,,,,,,,,,,,,,,,,,,,,,,,,,,,,,,,,,,,,,,,,,,,,,,,,,,,,,
1738755279.811149,1738755279.811929,87.000000,0.000000,4323.333496,4349.871582,4254.102539,4303.589844,4352.179688,4362.436035,4369.615234,4547.563965,4537.820313,4557.179688,4494.871582,5664.871582,4309.230957,4252.948730,0.000000,4.000000,75.000000,,,,0.000000,0.000000,0.000000,0.000000,0.000000,0.000000,0.000000,0.000000,0.000000,0.000000,0.000000,0.000000,0.000000,0.000000,0.000000,0.000000,,,,,,,,,,,,,,,,,,,,,,,,,,,,,,,,,,,,,,,,,,,,,,,,,,,,,,,,,,,,,,,,,,,,,,,,,,,,,,,,,,,,,,,,,,,,,,,,,,,,,,,,,,,,,,,,,,,,,,,,,,,,,,,,,
1738755279.818958,1738755279.819737,88.000000,0.000000,4322.692383,4350.384766,4253.077148,4303.205078,4348.717773,4361.025879,4368.077148,4549.615234,4539.487305,4556.666504,4496.153809,5665.000000,4312.436035,4255.897461,0.000000,4.000000,75.000000,,,,0.000000,0.000000,0.000000,0.000000,0.000000,0.000000,0.000000,0.000000,0.000000,0.000000,0.000000,0.000000,0.000000,0.000000,0.000000,0.000000,,,,,,,,,,,,,,,,,22.000000,0.000000,0.785278,-0.615601,-0.061462,0.024414,0.059578,-0.973263,0.233427,4.592046,-15.070888,22.700151,,,,,,,,,,,,,,,,,,,,,,,,,,,,,,,,,,,,,,,,,,,,,,,,,,,,,,,,,,,,,,,,,,,,,,,,,,,,,,,,,,,,,,,,,,,,,,,,,,,,,
1738755279.826766,1738755279.827646,89.000000,0.000000,4320.512695,4347.436035,4251.666504,4303.333496,4350.769043,4358.974121,4368.333496,4552.692383,4541.922852,4559.102539,4495.512695,5664.102539,4313.205078,4258.461426,0.000000,4.000000,75.000000,,,,0.000000,0.000000,0.000000,0.000000,0.000000,0.000000,0.000000,0.000000,0.000000,0.000000,0.000000,0.000000,0.000000,0.000000,0.000000,0.000000,,,,,,,,,,,,,,,,,,,,,,,,,,,,,,,,,,,,,,,,,,,,,,,,,,,,,,,,,,,,,,,,,,,,,,,,,,,,,,,,,,,,,,,,,,,,,,,,,,,,,,,,,,,,,,,,,,,,,,,,,,,,,,,,,
1738755279.834574,1738755279.835454,90.000000,0.000000,4320.256348,4348.333496,4252.948730,4303.846191,4350.384766,4360.769043,4367.179688,4551.410156,4539.102539,4560.641113,4495.769043,5664.743652,4310.769043,4257.692383,0.000000,4.000000,75.000000,,,,0.000000,0.000000,0.000000,0.000000,0.000000,0.000000,0.000000,0.000000,0.000000,0.000000,0.000000,0.000000,0.000000,0.000000,0.000000,0.000000,,,,,,,,,,,,,,,,,,,,,,,,,,,,,,,,,,,,,,,,,,,,,,,,,,,,,,,,,,,,,,,,,,,,,,,,,,,,,,,,,,,,,,,,,,,,,,,,,,,,,,,,,,,,,,,,,,,,,,,,,,,,,,,,,
1738755279.842382,1738755279.843162,91.000000,0.000000,4321.153809,4351.794922,4252.820313,4303.461426,4350.256348,4362.820313,4364.358887,4549.743652,4536.153809,4557.948730,4498.846191,5665.384766,4313.846191,4259.871582,0.000000,4.000000,75.000000,,,,0.000000,0.000000,0.000000,0.000000,0.000000,0.000000,0.000000,0.000000,0.000000,0.000000,0.000000,0.000000,0.000000,0.000000,0.000000,0.000000,,,,,,,,,,,,,,,,,,,,,,,,,,,,,,,,,,,,,,,,,,,,,,,,,,,,,,,,,,,,,,,,,,,,,,,,,,,,,,,,,,,,,,,,,,,,,,,,,,,,,,,,,,,,,,,,,,,,,,,,,,,,,,,,,
1738755279.850190,1738755279.850970,92.000000,0.000000,4321.410156,4349.487305,4251.025879,4304.615234,4355.384766,4360.769043,4368.077148,4550.384766,4538.589844,4555.897461,4497.820313,5667.436035,4309.487305,4257.051270,0.000000,4.000000,75.000000,,,,0.000000,0.000000,0.000000,0.000000,0.000000,0.000000,0.000000,0.000000,0.000000,0.000000,0.000000,0.000000,0.000000,0.000000,0.000000,0.000000,,,,,,,,,,,,,,,,,23.000000,0.000000,0.785315,-0.615540,-0.061584,0.024475,0.068856,-0.977658,0.232450,4.566175,-15.080465,22.863470,,,,,,,,,,,,,,,,,,,,,,,,,,,,,,,,,,,,,,,,,,,,,,,,,,,,,,,,,,,,,,,,,,,,,,,,,,,,,,,,,,,,,,,,,,,,,,,,,,,,,
1738755279.857998,1738755279.858678,93.000000,0.000000,4321.153809,4349.102539,4250.897461,4304.743652,4355.769043,4359.358887,4367.436035,4549.871582,4544.102539,4558.333496,4497.051270,5664.743652,4309.230957,4254.743652,0.000000,4.000000,75.000000,,,,0.000000,0.000000,0.000000,0.000000,0.000000,0.000000,0.000000,0.000000,0.000000,0.000000,0.000000,0.000000,0.000000,0.000000,0.000000,0.000000,,,,,,,,,,,,,,,,,,,,,,,,,,,,,,,,,,,,,,,,,,,,,,,,,,,,,,,,,,,,,,,,,,,,,,,,,,,,,,,,,,,,,,,,,,,,,,,,,,,,,,,,,,,,,,,,,,,,,,,,,,,,,,,,,
1738755279.865806,1738755279.866486,94.000000,0.000000,4320.512695,4351.666504,4252.692383,4304.358887,4351.666504,4360.769043,4364.743652,4550.641113,4541.666504,4560.128418,4497.307617,5662.820313,4311.666504,4252.692383,0.000000,4.000000,75.000000,,,,0.000000,0.000000,0.000000,0.000000,0.000000,0.000000,0.000000,0.000000,0.000000,0.000000,0.000000,0.000000,0.000000,0.000000,0.000000,0.000000,1.000000,0.000000,0.000000,0.000000,0.000000,0.000000,0.000000,0.000000,0.000000,0.000000,0.000000,0.000000,0.000000,0.000000,0.000000,0.000000,,,,,,,,,,,,,,,,,,,,,,,,,,,,,,,,,,,,,,,,,,,,0.018325,0.004331,0.027500,0.021305,0.029027,0.055791,0.027810,0.032451,0.020245,0.030396,0.012794,0.021718,0.038968,0.028801,0.019425,0.009412,0.010332,0.025095,0.016524,0.025962,0.048077,0.043266,0.036599,0.031474,0.028212,0.028622,0.019641,0.009452,0.017526,0.011155,0.026588,0.035427,0.046380,0.036161,0.035933,0.037223,0.031201,0.042844,0.011868,0.020610,0.022175,0.020147,0.019853,0.016941,0.028957,0.030317,0.031126,0.019981,0.011515,0.016321,0.023674,0.017370,0.018724,0.017029,0.023480,0.033695,0.030580,0.020448,0.019998,0.021155,0.051828,0.010982,0.028239,0.024547,0.027127,0.058518,0.022501,0.017263,0.028169,0.026100
1738755279.873614,1738755279.874194,95.000000,0.000000,4318.974121,4349.743652,4253.077148,4303.205078,4350.128418,4360.128418,4365.641113,4549.871582,4538.846191,4561.410156,4498.846191,5665.641113,4310.769043,4252.820313,0.000000,4.000000,75.000000,,,,0.000000,0.000000,0.000000,0.000000,0.000000,0.000000,0.000000,0.000000,0.000000,0.000000,0.000000,0.000000,0.000000,0.000000,0.000000,0.000000,,,,,,,,,,,,,,,,,,,,,,,,,,,,,,,,,,,,,,,,,,,,,,,,,,,,,,,,,,,,,,,,,,,,,,,,,,,,,,,,,,,,,,,,,,,,,,,,,,,,,,,,,,,,,,,,,,,,,,,,,,,,,,,,,
1738755279.881422,1738755279.882002,96.000000,0.000000,4319.743652,4348.333496,4251.538574,4301.666504,4350.256348,4358.974121,4365.256348,4548.333496,4541.794922,4563.589844,4499.871582,5665.641113,4311.153809,4258.461426,0.000000,4.000000,75.000000,,,,0.000000,0.000000,0.000000,0.000000,0.000000,0.000000,0.000000,0.000000,0.000000,0.000000,0.000000,0.000000,0.000000,0.000000,0.000000,0.000000,,,,,,,,,,,,,,,,,,,,,,,,,,,,,,,,,,,,,,,,,,,,,,,,,,,,,,,,,,,,,,,,,,,,,,,,,,,,,,,,,,,,,,,,,,,,,,,,,,,,,,,,,,,,,,,,,,,,,,,,,,,,,,,,,
