title:bread1, start timestamp:1737283053.413292, stop timestamp:1737283056.442831, headset type:EPOCX, headset serial:E50208A5, headset firmware:720, channels:168, sampling rate:eeg_128;mot_32;pm_0.1;pow_8, samples:389       , version:2.2, 
Timestamp,OriginalTimestamp,EEG.Counter,EEG.Interpolated,EEG.AF3,EEG.F7,EEG.F3,EEG.FC5,EEG.T7,EEG.P7,EEG.O1,EEG.O2,EEG.P8,EEG.T8,EEG.FC6,EEG.F4,EEG.F8,EEG.AF4,EEG.RawCq,EEG.Battery,EEG.BatteryPercent,MarkerIndex,MarkerType,MarkerValueInt,EEG.MarkerHardware,CQ.AF3,CQ.F7,CQ.F3,CQ.FC5,CQ.T7,CQ.P7,CQ.O1,CQ.O2,CQ.P8,CQ.T8,CQ.FC6,CQ.F4,CQ.F8,CQ.AF4,CQ.Overall,EQ.SampleRateQuality,EQ.OVERALL,EQ.AF3,EQ.F7,EQ.F3,EQ.FC5,EQ.T7,EQ.P7,EQ.O1,EQ.O2,EQ.P8,EQ.T8,EQ.FC6,EQ.F4,EQ.F8,EQ.AF4,MOT.CounterMems,MOT.InterpolatedMems,MOT.Q0,MOT.Q1,MOT.Q2,MOT.Q3,MOT.AccX,MOT.AccY,MOT.AccZ,MOT.MagX,MOT.MagY,MOT.MagZ,PM.Attention.IsActive,PM.Attention.Scaled,PM.Attention.Raw,PM.Attention.Min,PM.Attention.Max,PM.Engagement.IsActive,PM.Engagement.Scaled,PM.Engagement.Raw,PM.Engagement.Min,PM.Engagement.Max,PM.Excitement.IsActive,PM.Excitement.Scaled,PM.Excitement.Raw,PM.Excitement.Min,PM.Excitement.Max,PM.LongTermExcitement,PM.Stress.IsActive,PM.Stress.Scaled,PM.Stress.Raw,PM.Stress.Min,PM.Stress.Max,PM.Relaxation.IsActive,PM.Relaxation.Scaled,PM.Relaxation.Raw,PM.Relaxation.Min,PM.Relaxation.Max,PM.Interest.IsActive,PM.Interest.Scaled,PM.Interest.Raw,PM.Interest.Min,PM.Interest.Max,POW.AF3.Theta,POW.AF3.Alpha,POW.AF3.BetaL,POW.AF3.BetaH,POW.AF3.Gamma,POW.F7.Theta,POW.F7.Alpha,POW.F7.BetaL,POW.F7.BetaH,POW.F7.Gamma,POW.F3.Theta,POW.F3.Alpha,POW.F3.BetaL,POW.F3.BetaH,POW.F3.Gamma,POW.FC5.Theta,POW.FC5.Alpha,POW.FC5.BetaL,POW.FC5.BetaH,POW.FC5.Gamma,POW.T7.Theta,POW.T7.Alpha,POW.T7.BetaL,POW.T7.BetaH,POW.T7.Gamma,POW.P7.Theta,POW.P7.Alpha,POW.P7.BetaL,POW.P7.BetaH,POW.P7.Gamma,POW.O1.Theta,POW.O1.Alpha,POW.O1.BetaL,POW.O1.BetaH,POW.O1.Gamma,POW.O2.Theta,POW.O2.Alpha,POW.O2.BetaL,POW.O2.BetaH,POW.O2.Gamma,POW.P8.Theta,POW.P8.Alpha,POW.P8.BetaL,POW.P8.BetaH,POW.P8.Gamma,POW.T8.Theta,POW.T8.Alpha,POW.T8.BetaL,POW.T8.BetaH,POW.T8.Gamma,POW.FC6.Theta,POW.FC6.Alpha,POW.FC6.BetaL,POW.FC6.BetaH,POW.FC6.Gamma,POW.F4.Theta,POW.F4.Alpha,POW.F4.BetaL,POW.F4.BetaH,POW.F4.Gamma,POW.F8.Theta,POW.F8.Alpha,POW.F8.BetaL,POW.F8.BetaH,POW.F8.Gamma,POW.AF4.Theta,POW.AF4.Alpha,POW.AF4.BetaL,POW.AF4.BetaH,POW.AF4.Gamma
1737283053.413292,1737283053.413899,110.000000,0.000000,4330.641113,4352.179688,4266.922852,4324.102539,4352.692383,4360.769043,4361.922852,4555.256348,4551.153809,4558.077148,4496.153809,5642.307617,4303.333496,4261.538574,0.000000,2.000000,36.000000,,,,0.000000,0.000000,0.000000,0.000000,0.000000,0.000000,0.000000,0.000000,0.000000,0.000000,0.000000,0.000000,0.000000,0.000000,0.000000,0.000000,,,,,,,,,,,,,,,,,,,,,,,,,,,,,,,,,,,,,,,,,,,,,,,,,,,,,,,,,,,,,,,,,,,,,,,,,,,,,,,,,,,,,,,,,,,,,,,,,,,,,,,,,,,,,,,,,,,,,,,,,,,,,,,,,
1737283053.421100,1737283053.421607,111.000000,0.000000,4333.461426,4353.333496,4270.897461,4320.641113,4354.487305,4358.846191,4364.615234,4553.717773,4553.461426,4559.871582,4495.641113,5643.077148,4305.000000,4263.846191,0.000000,2.000000,36.000000,,,,0.000000,0.000000,0.000000,0.000000,0.000000,0.000000,0.000000,0.000000,0.000000,0.000000,0.000000,0.000000,0.000000,0.000000,0.000000,0.000000,,,,,,,,,,,,,,,,,,,,,,,,,,,,,,,,,,,,,,,,,,,,,,,,,,,,,,,,,,,,,,,,,,,,,,,,,,,,,,,,,,,,,,,,,,,,,,,,,,,,,,,,,,,,,,,,,,,,,,,,,,,,,,,,,
1737283053.428908,1737283053.429415,112.000000,0.000000,4330.512695,4351.153809,4267.436035,4318.717773,4354.743652,4358.461426,4366.794922,4554.358887,4550.384766,4557.820313,4492.820313,5635.897461,4303.077148,4259.743652,0.000000,2.000000,36.000000,,,,0.000000,0.000000,0.000000,0.000000,0.000000,0.000000,0.000000,0.000000,0.000000,0.000000,0.000000,0.000000,0.000000,0.000000,0.000000,0.000000,,,,,,,,,,,,,,,,,28.000000,0.000000,0.661412,-0.748291,0.036560,0.035461,-0.094250,-0.978635,-0.119155,15.091606,-31.009996,16.714798,,,,,,,,,,,,,,,,,,,,,,,,,,,,,,,,,,,,,,,,,,,,,,,,,,,,,,,,,,,,,,,,,,,,,,,,,,,,,,,,,,,,,,,,,,,,,,,,,,,,,
1737283053.436716,1737283053.437123,113.000000,0.000000,4333.333496,4352.179688,4268.333496,4323.333496,4352.820313,4358.974121,4359.743652,4553.205078,4548.205078,4555.897461,4494.615234,5641.153809,4303.717773,4265.256348,0.000000,2.000000,36.000000,,,,0.000000,0.000000,0.000000,0.000000,0.000000,0.000000,0.000000,0.000000,0.000000,0.000000,0.000000,0.000000,0.000000,0.000000,0.000000,0.000000,,,,,,,,,,,,,,,,,,,,,,,,,,,,,,,,,,,,,,,,,,,,,,,,,,,,,,,,,,,,,,,,,,,,,,,,,,,,,,,,,,,,,,,,,,,,,,,,,,,,,,,,,,,,,,,,,,,,,,,,,,,,,,,,,
1737283053.444524,1737283053.444931,114.000000,0.000000,4335.128418,4350.256348,4265.641113,4320.641113,4352.563965,4359.615234,4358.846191,4553.333496,4550.641113,4559.615234,4495.384766,5640.897461,4301.410156,4264.102539,0.000000,2.000000,36.000000,,,,0.000000,0.000000,0.000000,0.000000,0.000000,0.000000,0.000000,0.000000,0.000000,0.000000,0.000000,0.000000,0.000000,0.000000,0.000000,0.000000,,,,,,,,,,,,,,,,,,,,,,,,,,,,,,,,,,,,,,,,,,,,,,,,,,,,,,,,,,,,,,,,,,,,,,,,,,,,,,,,,,,,,,,,,,,,,,,,,,,,,,,,,,,,,,,,,,,,,,,,,,,,,,,,,
1737283053.452333,1737283053.452639,115.000000,0.000000,4333.589844,4350.512695,4267.436035,4318.205078,4355.000000,4358.589844,4361.794922,4554.871582,4550.512695,4561.025879,4498.077148,5640.000000,4303.589844,4264.358887,0.000000,2.000000,36.000000,,,,0.000000,0.000000,0.000000,0.000000,0.000000,0.000000,0.000000,0.000000,0.000000,0.000000,0.000000,0.000000,0.000000,0.000000,0.000000,0.000000,,,,,,,,,,,,,,,,,,,,,,,,,,,,,,,,,,,,,,,,,,,,,,,,,,,,,,,,,,,,,,,,,,,,,,,,,,,,,,,,,,,,,,,,,,,,,,,,,,,,,,,,,,,,,,,,,,,,,,,,,,,,,,,,,
1737283053.460141,1737283053.460447,116.000000,0.000000,4331.410156,4353.846191,4271.282227,4320.769043,4353.974121,4358.461426,4363.461426,4555.256348,4550.897461,4557.307617,4497.436035,5644.487305,4304.615234,4266.025879,0.000000,2.000000,36.000000,,,,0.000000,0.000000,0.000000,0.000000,0.000000,0.000000,0.000000,0.000000,0.000000,0.000000,0.000000,0.000000,0.000000,0.000000,0.000000,0.000000,,,,,,,,,,,,,,,,,29.000000,0.000000,0.661551,-0.748169,0.036499,0.035522,-0.106947,-0.973263,-0.109388,15.099113,-30.975662,16.743319,,,,,,,,,,,,,,,,,,,,,,,,,,,,,,,,,,,,,,,,,,,,,,,,,,,,,,,,,,,,,,,,,,,,,,,,,,,,,,,,,,,,,,,,,,,,,,,,,,,,,
1737283053.467949,1737283053.468155,117.000000,0.000000,4330.128418,4349.358887,4266.025879,4321.025879,4351.410156,4360.384766,4365.128418,4554.230957,4551.538574,4558.846191,4493.461426,5640.897461,4299.615234,4259.871582,0.000000,2.000000,36.000000,,,,0.000000,0.000000,0.000000,0.000000,0.000000,0.000000,0.000000,0.000000,0.000000,0.000000,0.000000,0.000000,0.000000,0.000000,0.000000,0.000000,,,,,,,,,,,,,,,,,,,,,,,,,,,,,,,,,,,,,,,,,,,,,,,,,,,,,,,,,,,,,,,,,,,,,,,,,,,,,,,,,,,,,,,,,,,,,,,,,,,,,,,,,,,,,,,,,,,,,,,,,,,,,,,,,
1737283053.475757,1737283053.476063,118.000000,0.000000,4332.820313,4348.333496,4267.820313,4322.179688,4352.692383,4358.846191,4361.410156,4552.179688,4548.205078,4563.205078,4498.974121,5642.179688,4303.589844,4265.384766,0.000000,2.000000,36.000000,,,,0.000000,0.000000,0.000000,0.000000,0.000000,0.000000,0.000000,0.000000,0.000000,0.000000,0.000000,0.000000,0.000000,0.000000,0.000000,0.000000,,,,,,,,,,,,,,,,,,,,,,,,,,,,,,,,,,,,,,,,,,,,,,,,,,,,,,,,,,,,,,,,,,,,,,,,,,,,,,,,,,,,,,,,,,,,,,,,,,,,,,,,,,,,,,,,,,,,,,,,,,,,,,,,,
1737283053.483565,1737283053.483872,119.000000,0.000000,4330.256348,4351.794922,4267.948730,4320.384766,4353.077148,4357.436035,4364.358887,4554.230957,4547.948730,4561.282227,4497.948730,5640.769043,4302.692383,4263.717773,0.000000,2.000000,36.000000,,,,0.000000,0.000000,0.000000,0.000000,0.000000,0.000000,0.000000,0.000000,0.000000,0.000000,0.000000,0.000000,0.000000,0.000000,0.000000,0.000000,,,,,,,,,,,,,,,,,,,,,,,,,,,,,,,,,,,,,,,,,,,,,,,,,,,,,,,,,,,,,,,,,,,,,,,,,,,,,,,,,,,,,,,,,,,,,,,,,,,,,,,,,,,,,,,,,,,,,,,,,,,,,,,,,
1737283053.491373,1737283053.491780,120.000000,0.000000,4327.436035,4354.102539,4266.025879,4320.256348,4353.846191,4358.461426,4365.769043,4553.461426,4550.128418,4559.102539,4491.922852,5637.563965,4300.641113,4260.128418,0.000000,2.000000,36.000000,,,,0.000000,0.000000,0.000000,0.000000,0.000000,0.000000,0.000000,0.000000,0.000000,0.000000,0.000000,0.000000,0.000000,0.000000,0.000000,0.000000,,,,,,,,,,,,,,,,,30.000000,0.000000,0.661485,-0.748230,0.036499,0.035461,-0.091320,-0.968868,-0.118178,15.122535,-30.978096,16.835653,,,,,,,,,,,,,,,,,,,,,,,,,,,,,,,,,,,,,,,,,,,,,,,,,,,,,,,,,,,,,,,,,,,,,,,,,,,,,,,,,,,,,,,,,,,,,,,,,,,,,
1737283053.499181,1737283053.499588,121.000000,0.000000,4330.000000,4354.230957,4268.846191,4323.589844,4356.794922,4358.717773,4362.307617,4549.615234,4548.846191,4559.615234,4494.230957,5641.153809,4301.922852,4263.461426,0.000000,2.000000,36.000000,,,,0.000000,0.000000,0.000000,0.000000,0.000000,0.000000,0.000000,0.000000,0.000000,0.000000,0.000000,0.000000,0.000000,0.000000,0.000000,0.000000,,,,,,,,,,,,,,,,,,,,,,,,,,,,,,,,,,,,,,,,,,,,,,,,,,,,,,,,,,,,,,,,,,,,,,,,,,,,,,,,,,,,,,,,,,,,,,,,,,,,,,,,,,,,,,,,,,,,,,,,,,,,,,,,,
1737283053.506989,1737283053.507496,122.000000,0.000000,4331.153809,4351.410156,4266.410156,4321.666504,4354.487305,4358.333496,4365.384766,4554.102539,4551.794922,4559.230957,4495.641113,5641.025879,4300.000000,4255.641113,0.000000,2.000000,36.000000,,,,0.000000,0.000000,0.000000,0.000000,0.000000,0.000000,0.000000,0.000000,0.000000,0.000000,0.000000,0.000000,0.000000,0.000000,0.000000,0.000000,,,,,,,,,,,,,,,,,,,,,,,,,,,,,,,,,,,,,,,,,,,,,,,,,,,,,,,,,,,,,,,,,,,,,,,,,,,,,,,,,,,,,,,,,,,,,,,,,,,,,,,,,,,,,,,,,,,,,,,,,,,,,,,,,
1737283053.514797,1737283053.515304,123.000000,0.000000,4335.000000,4353.205078,4266.025879,4322.820313,4351.538574,4358.846191,4362.692383,4557.563965,4555.769043,4557.692383,4497.563965,5643.077148,4304.871582,4261.153809,0.000000,2.000000,36.000000,,,,0.000000,0.000000,0.000000,0.000000,0.000000,0.000000,0.000000,0.000000,0.000000,0.000000,0.000000,0.000000,0.000000,0.000000,0.000000,0.000000,,,,,,,,,,,,,,,,,,,,,,,,,,,,,,,,,,,,,,,,,,,,,,,,,,,,,,,,,,,,,,,,,,,,,,,,,,,,,,,,,,,,,,,,,,,,,,,,,,,,,,,,,,,,,,,,,,,,,,,,,,,,,,,,,
1737283053.522605,1737283053.523212,124.000000,0.000000,4335.000000,4352.820313,4266.922852,4322.563965,4353.205078,4359.615234,4361.794922,4553.974121,4551.794922,4557.692383,4495.897461,5641.410156,4303.846191,4265.512695,0.000000,2.000000,36.000000,,,,0.000000,0.000000,0.000000,0.000000,0.000000,0.000000,0.000000,0.000000,0.000000,0.000000,0.000000,0.000000,0.000000,0.000000,0.000000,0.000000,,,,,,,,,,,,,,,,,31.000000,0.000000,0.661561,-0.748169,0.036438,0.035400,-0.105482,-0.983030,-0.110853,15.143615,-30.980288,16.835421,,,,,,,,,,,,,,,,,,,,,,,,,,,,,,,,0.016002,0.039153,0.019258,0.032939,0.024471,0.030378,0.015982,0.021653,0.013361,0.019790,0.016420,0.018320,0.021989,0.030934,0.032157,0.028148,0.019028,0.019686,0.012860,0.021058,0.014101,0.033716,0.014769,0.036407,0.020229,0.019444,0.030507,0.017835,0.015644,0.027197,0.048485,0.042983,0.027950,0.026630,0.036374,0.031530,0.019001,0.019785,0.021364,0.020978,0.010066,0.027488,0.033207,0.019266,0.023327,0.051258,0.018513,0.052520,0.036553,0.040878,0.017756,0.014932,0.039718,0.027315,0.017700,0.023838,0.023473,0.023035,0.022715,0.023385,0.017345,0.018381,0.017311,0.020962,0.018900,0.038272,0.023391,0.020129,0.043734,0.022010
1737283053.530414,1737283053.531019,125.000000,0.000000,4333.846191,4349.743652,4266.538574,4319.487305,4353.589844,4357.436035,4365.641113,4552.051270,4548.974121,4560.512695,4492.436035,5639.615234,4299.487305,4260.000000,0.000000,2.000000,36.000000,,,,0.000000,0.000000,0.000000,0.000000,0.000000,0.000000,0.000000,0.000000,0.000000,0.000000,0.000000,0.000000,0.000000,0.000000,0.000000,0.000000,,,,,,,,,,,,,,,,,,,,,,,,,,,,,,,,,,,,,,,,,,,,,,,,,,,,,,,,,,,,,,,,,,,,,,,,,,,,,,,,,,,,,,,,,,,,,,,,,,,,,,,,,,,,,,,,,,,,,,,,,,,,,,,,,
1737283053.538221,1737283053.538927,126.000000,0.000000,4335.897461,4349.487305,4269.102539,4323.077148,4351.922852,4356.153809,4363.461426,4554.230957,4552.307617,4563.461426,4495.897461,5643.077148,4303.846191,4263.974121,0.000000,2.000000,36.000000,,,,0.000000,0.000000,0.000000,0.000000,0.000000,0.000000,0.000000,0.000000,0.000000,0.000000,0.000000,0.000000,0.000000,0.000000,0.000000,0.000000,,,,,,,,,,,,,,,,,,,,,,,,,,,,,,,,,,,,,,,,,,,,,,,,,,,,,,,,,,,,,,,,,,,,,,,,,,,,,,,,,,,,,,,,,,,,,,,,,,,,,,,,,,,,,,,,,,,,,,,,,,,,,,,,,
1737283053.546030,1737283053.546735,127.000000,0.000000,4331.153809,4349.743652,4267.563965,4321.410156,4352.436035,4358.461426,4365.256348,4555.512695,4552.051270,4561.794922,4495.256348,5638.589844,4302.692383,4261.666504,36.000000,2.000000,36.000000,,,,0.000000,0.000000,0.000000,0.000000,0.000000,0.000000,0.000000,0.000000,0.000000,0.000000,0.000000,0.000000,0.000000,0.000000,0.000000,0.000000,,,,,,,,,,,,,,,,,,,,,,,,,,,,,,,,,,,,,,,,,,,,,,,,,,,,,,,,,,,,,,,,,,,,,,,,,,,,,,,,,,,,,,,,,,,,,,,,,,,,,,,,,,,,,,,,,,,,,,,,,,,,,,,,,
1737283053.553838,1737283053.554443,0.000000,0.000000,4331.410156,4354.487305,4268.846191,4318.461426,4354.358887,4359.871582,4364.871582,4552.307617,4548.461426,4558.461426,4495.897461,5639.615234,4302.436035,4262.563965,0.000000,2.000000,36.000000,,,,0.000000,0.000000,0.000000,0.000000,0.000000,0.000000,0.000000,0.000000,0.000000,0.000000,0.000000,0.000000,0.000000,0.000000,0.000000,0.000000,,,,,,,,,,,,,,,,,0.000000,0.000000,0.661554,-0.748169,0.036560,0.035400,-0.104017,-0.977658,-0.120132,15.095920,-30.865591,16.768545,,,,,,,,,,,,,,,,,,,,,,,,,,,,,,,,,,,,,,,,,,,,,,,,,,,,,,,,,,,,,,,,,,,,,,,,,,,,,,,,,,,,,,,,,,,,,,,,,,,,,
1737283053.561646,1737283053.562251,1.000000,0.000000,4334.358887,4355.128418,4268.589844,4321.666504,4353.589844,4361.538574,4363.589844,4551.153809,4549.615234,4557.820313,4496.025879,5640.897461,4305.769043,4263.205078,0.000000,2.000000,36.000000,,,,0.000000,0.000000,0.000000,0.000000,0.000000,0.000000,0.000000,0.000000,0.000000,0.000000,0.000000,0.000000,0.000000,0.000000,0.000000,0.000000,,,,,,,,,,,,,,,,,,,,,,,,,,,,,,,,,,,,,,,,,,,,,,,,,,,,,,,,,,,,,,,,,,,,,,,,,,,,,,,,,,,,,,,,,,,,,,,,,,,,,,,,,,,,,,,,,,,,,,,,,,,,,,,,,
1737283053.569454,1737283053.569959,2.000000,0.000000,4332.692383,4350.384766,4266.410156,4322.307617,4352.307617,4361.666504,4364.102539,4556.153809,4552.820313,4560.256348,4493.077148,5637.820313,4305.128418,4261.922852,0.000000,2.000000,36.000000,,,,0.000000,0.000000,0.000000,0.000000,0.000000,0.000000,0.000000,0.000000,0.000000,0.000000,0.000000,0.000000,0.000000,0.000000,0.000000,0.000000,,,,,,,,,,,,,,,,,,,,,,,,,,,,,,,,,,,,,,,,,,,,,,,,,,,,,,,,,,,,,,,,,,,,,,,,,,,,,,,,,,,,,,,,,,,,,,,,,,,,,,,,,,,,,,,,,,,,,,,,,,,,,,,,,
1737283053.577262,1737283053.577767,3.000000,0.000000,4336.282227,4350.000000,4270.384766,4321.538574,4352.436035,4358.846191,4362.179688,4558.589844,4552.436035,4561.153809,4495.256348,5641.153809,4304.487305,4266.666504,0.000000,2.000000,36.000000,,,,0.000000,0.000000,0.000000,0.000000,0.000000,0.000000,0.000000,0.000000,0.000000,0.000000,0.000000,0.000000,0.000000,0.000000,0.000000,0.000000,,,,,,,,,,,,,,,,,,,,,,,,,,,,,,,,,,,,,,,,,,,,,,,,,,,,,,,,,,,,,,,,,,,,,,,,,,,,,,,,,,,,,,,,,,,,,,,,,,,,,,,,,,,,,,,,,,,,,,,,,,,,,,,,,
1737283053.585070,1737283053.585475,4.000000,0.000000,4334.871582,4349.743652,4268.077148,4322.051270,4352.179688,4360.128418,4365.000000,4556.025879,4549.871582,4558.461426,4495.641113,5639.871582,4301.666504,4259.358887,0.000000,2.000000,36.000000,,,,0.000000,0.000000,0.000000,0.000000,0.000000,0.000000,0.000000,0.000000,0.000000,0.000000,0.000000,0.000000,0.000000,0.000000,0.000000,0.000000,,,,,,,,,,,,,,,,,1.000000,0.000000,0.661620,-0.748108,0.036560,0.035461,-0.104017,-0.985960,-0.124039,14.886328,-30.845699,16.875025,,,,,,,,,,,,,,,,,,,,,,,,,,,,,,,,,,,,,,,,,,,,,,,,,,,,,,,,,,,,,,,,,,,,,,,,,,,,,,,,,,,,,,,,,,,,,,,,,,,,,
1737283053.592878,1737283053.593283,5.000000,0.000000,4332.051270,4351.922852,4268.461426,4324.871582,4352.948730,4363.461426,4365.512695,4553.077148,4548.077148,4556.666504,4495.769043,5641.666504,4302.692383,4261.538574,0.000000,2.000000,36.000000,,,,0.000000,0.000000,0.000000,0.000000,0.000000,0.000000,0.000000,0.000000,0.000000,0.000000,0.000000,0.000000,0.000000,0.000000,0.000000,0.000000,,,,,,,,,,,,,,,,,,,,,,,,,,,,,,,,,,,,,,,,,,,,,,,,,,,,,,,,,,,,,,,,,,,,,,,,,,,,,,,,,,,,,,,,,,,,,,,,,,,,,,,,,,,,,,,,,,,,,,,,,,,,,,,,,
1737283053.600686,1737283053.600992,6.000000,0.000000,4332.692383,4351.666504,4269.102539,4321.922852,4353.717773,4361.410156,4365.256348,4554.230957,4549.743652,4558.205078,4494.743652,5639.743652,4304.871582,4267.563965,0.000000,2.000000,36.000000,,,,0.000000,0.000000,0.000000,0.000000,0.000000,0.000000,0.000000,0.000000,0.000000,0.000000,0.000000,0.000000,0.000000,0.000000,0.000000,0.000000,,,,,,,,,,,,,,,,,,,,,,,,,,,,,,,,,,,,,,,,,,,,,,,,,,,,,,,,,,,,,,,,,,,,,,,,,,,,,,,,,,,,,,,,,,,,,,,,,,,,,,,,,,,,,,,,,,,,,,,,,,,,,,,,,
1737283053.608494,1737283053.608800,7.000000,0.000000,4332.820313,4349.358887,4262.820313,4317.051270,4354.102539,4359.487305,4366.666504,4555.384766,4550.641113,4558.589844,4492.692383,5632.948730,4303.461426,4260.512695,0.000000,2.000000,36.000000,,,,0.000000,0.000000,0.000000,0.000000,0.000000,0.000000,0.000000,0.000000,0.000000,0.000000,0.000000,0.000000,0.000000,0.000000,0.000000,0.000000,,,,,,,,,,,,,,,,,,,,,,,,,,,,,,,,,,,,,,,,,,,,,,,,,,,,,,,,,,,,,,,,,,,,,,,,,,,,,,,,,,,,,,,,,,,,,,,,,,,,,,,,,,,,,,,,,,,,,,,,,,,,,,,,,
1737283053.616302,1737283053.616508,8.000000,0.000000,4332.179688,4353.846191,4267.307617,4320.000000,4353.461426,4362.179688,4362.948730,4552.948730,4547.948730,4557.820313,4496.282227,5640.897461,4306.025879,4263.589844,0.000000,2.000000,36.000000,,,,0.000000,0.000000,0.000000,0.000000,0.000000,0.000000,0.000000,0.000000,0.000000,0.000000,0.000000,0.000000,0.000000,0.000000,0.000000,0.000000,,,,,,,,,,,,,,,,,2.000000,0.000000,0.661544,-0.748169,0.036621,0.035522,-0.091320,-0.979123,-0.117202,14.831028,-30.927795,16.970856,,,,,,,,,,,,,,,,,,,,,,,,,,,,,,,,,,,,,,,,,,,,,,,,,,,,,,,,,,,,,,,,,,,,,,,,,,,,,,,,,,,,,,,,,,,,,,,,,,,,,
1737283053.624111,1737283053.624416,9.000000,0.000000,4327.820313,4351.666504,4268.589844,4320.384766,4353.205078,4362.948730,4363.846191,4553.846191,4550.128418,4557.692383,4494.358887,5642.051270,4303.077148,4264.871582,0.000000,2.000000,36.000000,,,,0.000000,0.000000,0.000000,0.000000,0.000000,0.000000,0.000000,0.000000,0.000000,0.000000,0.000000,0.000000,0.000000,0.000000,0.000000,0.000000,,,,,,,,,,,,,,,,,,,,,,,,,,,,,,,,,,,,,,,,,,,,,,,,,,,,,,,,,,,,,,,,,,,,,,,,,,,,,,,,,,,,,,,,,,,,,,,,,,,,,,,,,,,,,,,,,,,,,,,,,,,,,,,,,
1737283053.631919,1737283053.632224,10.000000,0.000000,4331.666504,4348.974121,4264.871582,4319.358887,4353.717773,4358.077148,4365.000000,4553.333496,4553.589844,4558.974121,4492.820313,5639.102539,4302.820313,4265.000000,0.000000,2.000000,36.000000,,,,0.000000,0.000000,0.000000,0.000000,0.000000,0.000000,0.000000,0.000000,0.000000,0.000000,0.000000,0.000000,0.000000,0.000000,0.000000,0.000000,,,,,,,,,,,,,,,,,,,,,,,,,,,,,,,,,,,,,,,,,,,,,,,,,,,,,,,,,,,,,,,,,,,,,,,,,,,,,,,,,,,,,,,,,,,,,,,,,,,,,,,,,,,,,,,,,,,,,,,,,,,,,,,,,
1737283053.639727,1737283053.640132,11.000000,0.000000,4336.666504,4352.307617,4265.000000,4320.769043,4352.307617,4356.282227,4362.948730,4551.153809,4550.384766,4559.487305,4495.512695,5640.641113,4305.641113,4267.820313,0.000000,2.000000,36.000000,,,,0.000000,0.000000,0.000000,0.000000,0.000000,0.000000,0.000000,0.000000,0.000000,0.000000,0.000000,0.000000,0.000000,0.000000,0.000000,0.000000,,,,,,,,,,,,,,,,,,,,,,,,,,,,,,,,,,,,,,,,,,,,,,,,,,,,,,,,,,,,,,,,,,,,,,,,,,,,,,,,,,,,,,,,,,,,,,,,,,,,,,,,,,,,,,,,,,,,,,,,,,,,,,,,,
1737283053.647535,1737283053.647940,12.000000,0.000000,4332.051270,4351.666504,4266.282227,4319.743652,4351.666504,4361.153809,4363.333496,4553.589844,4547.820313,4557.436035,4494.358887,5636.282227,4301.666504,4263.461426,0.000000,2.000000,36.000000,,,,0.000000,0.000000,0.000000,0.000000,0.000000,0.000000,0.000000,0.000000,0.000000,0.000000,0.000000,0.000000,0.000000,0.000000,0.000000,0.000000,,,,,,,,,,,,,,,,,3.000000,0.000000,0.661620,-0.748108,0.036560,0.035461,-0.102552,-0.978147,-0.109877,14.864593,-30.901684,16.940437,,,,,,,,,,,,,,,,,,,,,,,,,,,,,,,,0.016006,0.039100,0.019401,0.036937,0.026183,0.027922,0.015803,0.022451,0.012882,0.019654,0.016348,0.021802,0.020731,0.027403,0.031150,0.029557,0.015819,0.021417,0.012470,0.022497,0.013996,0.034047,0.013348,0.031818,0.019005,0.014730,0.037376,0.019360,0.015408,0.029346,0.050203,0.045820,0.024870,0.030509,0.037769,0.029224,0.020592,0.023224,0.021445,0.019305,0.011449,0.027571,0.032783,0.019108,0.026560,0.049180,0.019692,0.052421,0.036332,0.039751,0.020575,0.015176,0.034297,0.026992,0.017624,0.021540,0.024630,0.024936,0.022538,0.024670,0.015731,0.015203,0.020549,0.024471,0.018950,0.038937,0.028496,0.019674,0.038950,0.020121
1737283053.655343,1737283053.655848,13.000000,0.000000,4332.820313,4352.563965,4270.641113,4319.358887,4353.333496,4361.538574,4361.282227,4552.820313,4549.102539,4556.538574,4495.384766,5638.974121,4305.000000,4264.102539,0.000000,2.000000,36.000000,,,,0.000000,0.000000,0.000000,0.000000,0.000000,0.000000,0.000000,0.000000,0.000000,0.000000,0.000000,0.000000,0.000000,0.000000,0.000000,0.000000,,,,,,,,,,,,,,,,,,,,,,,,,,,,,,,,,,,,,,,,,,,,,,,,,,,,,,,,,,,,,,,,,,,,,,,,,,,,,,,,,,,,,,,,,,,,,,,,,,,,,,,,,,,,,,,,,,,,,,,,,,,,,,,,,
1737283053.663151,1737283053.663657,14.000000,0.000000,4332.051270,4353.205078,4267.948730,4318.205078,4352.820313,4359.615234,4364.615234,4551.794922,4552.436035,4559.487305,4493.077148,5637.563965,4306.153809,4259.615234,0.000000,2.000000,36.000000,,,,0.000000,0.000000,0.000000,0.000000,0.000000,0.000000,0.000000,0.000000,0.000000,0.000000,0.000000,0.000000,0.000000,0.000000,0.000000,0.000000,,,,,,,,,,,,,,,,,,,,,,,,,,,,,,,,,,,,,,,,,,,,,,,,,,,,,,,,,,,,,,,,,,,,,,,,,,,,,,,,,,,,,,,,,,,,,,,,,,,,,,,,,,,,,,,,,,,,,,,,,,,,,,,,,
1737283053.670959,1737283053.671465,15.000000,0.000000,4330.000000,4352.436035,4269.102539,4320.384766,4352.051270,4360.769043,4364.871582,4553.974121,4551.666504,4561.794922,4491.282227,5635.384766,4302.179688,4260.512695,0.000000,2.000000,36.000000,,,,0.000000,0.000000,0.000000,0.000000,0.000000,0.000000,0.000000,0.000000,0.000000,0.000000,0.000000,0.000000,0.000000,0.000000,0.000000,0.000000,,,,,,,,,,,,,,,,,,,,,,,,,,,,,,,,,,,,,,,,,,,,,,,,,,,,,,,,,,,,,,,,,,,,,,,,,,,,,,,,,,,,,,,,,,,,,,,,,,,,,,,,,,,,,,,,,,,,,,,,,,,,,,,,,
1737283053.678767,1737283053.679173,16.000000,0.000000,4334.230957,4353.333496,4274.358887,4323.205078,4353.205078,4360.256348,4358.974121,4554.358887,4547.563965,4561.025879,4497.051270,5641.922852,4301.922852,4268.205078,0.000000,2.000000,36.000000,,,,0.000000,0.000000,0.000000,0.000000,0.000000,0.000000,0.000000,0.000000,0.000000,0.000000,0.000000,0.000000,0.000000,0.000000,0.000000,0.000000,,,,,,,,,,,,,,,,,4.000000,0.000000,0.661613,-0.748108,0.036560,0.035583,-0.118178,-0.994262,-0.121109,14.844800,-30.978182,16.913059,,,,,,,,,,,,,,,,,,,,,,,,,,,,,,,,,,,,,,,,,,,,,,,,,,,,,,,,,,,,,,,,,,,,,,,,,,,,,,,,,,,,,,,,,,,,,,,,,,,,,
1737283053.686575,1737283053.687081,17.000000,0.000000,4334.230957,4350.897461,4267.179688,4319.871582,4352.051270,4361.153809,4363.461426,4554.102539,4549.871582,4561.153809,4496.025879,5637.563965,4302.948730,4260.641113,0.000000,2.000000,36.000000,,,,0.000000,0.000000,0.000000,0.000000,0.000000,0.000000,0.000000,0.000000,0.000000,0.000000,0.000000,0.000000,0.000000,0.000000,0.000000,0.000000,,,,,,,,,,,,,,,,,,,,,,,,,,,,,,,,,,,,,,,,,,,,,,,,,,,,,,,,,,,,,,,,,,,,,,,,,,,,,,,,,,,,,,,,,,,,,,,,,,,,,,,,,,,,,,,,,,,,,,,,,,,,,,,,,
1737283053.694383,1737283053.694889,18.000000,0.000000,4333.077148,4350.384766,4267.051270,4321.153809,4350.769043,4361.922852,4365.256348,4553.589844,4553.461426,4562.692383,4491.666504,5635.512695,4307.563965,4261.922852,0.000000,2.000000,36.000000,,,,0.000000,0.000000,0.000000,0.000000,0.000000,0.000000,0.000000,0.000000,0.000000,0.000000,0.000000,0.000000,0.000000,0.000000,0.000000,0.000000,,,,,,,,,,,,,,,,,,,,,,,,,,,,,,,,,,,,,,,,,,,,,,,,,,,,,,,,,,,,,,,,,,,,,,,,,,,,,,,,,,,,,,,,,,,,,,,,,,,,,,,,,,,,,,,,,,,,,,,,,,,,,,,,,
1737283053.702191,1737283053.702797,19.000000,0.000000,4331.153809,4351.410156,4270.000000,4323.333496,4352.436035,4359.615234,4363.974121,4552.436035,4549.615234,4560.897461,4492.307617,5639.615234,4305.512695,4263.846191,0.000000,2.000000,36.000000,,,,0.000000,0.000000,0.000000,0.000000,0.000000,0.000000,0.000000,0.000000,0.000000,0.000000,0.000000,0.000000,0.000000,0.000000,0.000000,0.000000,,,,,,,,,,,,,,,,,,,,,,,,,,,,,,,,,,,,,,,,,,,,,,,,,,,,,,,,,,,,,,,,,,,,,,,,,,,,,,,,,,,,,,,,,,,,,,,,,,,,,,,,,,,,,,,,,,,,,,,,,,,,,,,,,
1737283053.709999,1737283053.710605,20.000000,0.000000,4330.000000,4348.077148,4266.153809,4320.641113,4351.794922,4359.487305,4364.871582,4554.743652,4547.436035,4559.743652,4493.589844,5639.743652,4300.769043,4260.512695,0.000000,2.000000,36.000000,,,,0.000000,0.000000,0.000000,0.000000,0.000000,0.000000,0.000000,0.000000,0.000000,0.000000,0.000000,0.000000,0.000000,0.000000,0.000000,0.000000,,,,,,,,,,,,,,,,,5.000000,0.000000,0.661748,-0.747986,0.036560,0.035645,-0.111342,-0.985472,-0.123062,14.876987,-30.947029,16.805086,,,,,,,,,,,,,,,,,,,,,,,,,,,,,,,,,,,,,,,,,,,,,,,,,,,,,,,,,,,,,,,,,,,,,,,,,,,,,,,,,,,,,,,,,,,,,,,,,,,,,
1737283053.717808,1737283053.718513,21.000000,0.000000,4331.922852,4345.000000,4266.410156,4318.846191,4350.641113,4361.282227,4363.589844,4556.794922,4550.128418,4562.307617,4492.563965,5639.871582,4302.436035,4268.077148,0.000000,2.000000,36.000000,,,,0.000000,0.000000,0.000000,0.000000,0.000000,0.000000,0.000000,0.000000,0.000000,0.000000,0.000000,0.000000,0.000000,0.000000,0.000000,0.000000,,,,,,,,,,,,,,,,,,,,,,,,,,,,,,,,,,,,,,,,,,,,,,,,,,,,,,,,,,,,,,,,,,,,,,,,,,,,,,,,,,,,,,,,,,,,,,,,,,,,,,,,,,,,,,,,,,,,,,,,,,,,,,,,,
1737283053.725616,1737283053.726321,22.000000,0.000000,4328.461426,4348.974121,4266.666504,4319.358887,4353.717773,4362.307617,4365.256348,4555.512695,4551.538574,4558.974121,4490.512695,5637.051270,4301.922852,4263.717773,0.000000,2.000000,36.000000,,,,0.000000,0.000000,0.000000,0.000000,0.000000,0.000000,0.000000,0.000000,0.000000,0.000000,0.000000,0.000000,0.000000,0.000000,0.000000,0.000000,,,,,,,,,,,,,,,,,,,,,,,,,,,,,,,,,,,,,,,,,,,,,,,,,,,,,,,,,,,,,,,,,,,,,,,,,,,,,,,,,,,,,,,,,,,,,,,,,,,,,,,,,,,,,,,,,,,,,,,,,,,,,,,,,
1737283053.733424,1737283053.734229,23.000000,0.000000,4330.128418,4356.282227,4269.615234,4322.179688,4356.794922,4360.384766,4363.333496,4553.589844,4551.410156,4554.871582,4495.256348,5640.769043,4304.487305,4261.282227,0.000000,2.000000,36.000000,,,,0.000000,0.000000,0.000000,0.000000,0.000000,0.000000,0.000000,0.000000,0.000000,0.000000,0.000000,0.000000,0.000000,0.000000,0.000000,0.000000,,,,,,,,,,,,,,,,,,,,,,,,,,,,,,,,,,,,,,,,,,,,,,,,,,,,,,,,,,,,,,,,,,,,,,,,,,,,,,,,,,,,,,,,,,,,,,,,,,,,,,,,,,,,,,,,,,,,,,,,,,,,,,,,,
1737283053.741232,1737283053.742037,24.000000,0.000000,4332.563965,4351.153809,4268.717773,4321.410156,4353.974121,4358.846191,4362.436035,4554.743652,4549.487305,4560.128418,4498.461426,5641.282227,4305.512695,4265.769043,0.000000,2.000000,36.000000,,,,0.000000,0.000000,0.000000,0.000000,0.000000,0.000000,0.000000,0.000000,0.000000,0.000000,0.000000,0.000000,0.000000,0.000000,0.000000,0.000000,,,,,,,,,,,,,,,,,6.000000,0.000000,0.661672,-0.748047,0.036560,0.035767,-0.095715,-0.982542,-0.122085,14.922621,-31.085661,16.841246,,,,,,,,,,,,,,,,,,,,,,,,,,,,,,,,,,,,,,,,,,,,,,,,,,,,,,,,,,,,,,,,,,,,,,,,,,,,,,,,,,,,,,,,,,,,,,,,,,,,,
1737283053.749040,1737283053.749944,25.000000,0.000000,4328.461426,4345.256348,4264.230957,4320.769043,4350.000000,4360.128418,4365.769043,4555.000000,4547.820313,4561.922852,4497.692383,5637.179688,4303.846191,4261.922852,0.000000,2.000000,36.000000,,,,0.000000,0.000000,0.000000,0.000000,0.000000,0.000000,0.000000,0.000000,0.000000,0.000000,0.000000,0.000000,0.000000,0.000000,0.000000,0.000000,,,,,,,,,,,,,,,,,,,,,,,,,,,,,,,,,,,,,,,,,,,,,,,,,,,,,,,,,,,,,,,,,,,,,,,,,,,,,,,,,,,,,,,,,,,,,,,,,,,,,,,,,,,,,,,,,,,,,,,,,,,,,,,,,
1737283053.756848,1737283053.757752,26.000000,0.000000,4330.000000,4351.153809,4269.230957,4325.769043,4350.512695,4362.692383,4363.717773,4552.179688,4550.384766,4558.077148,4499.102539,5641.282227,4307.948730,4263.077148,0.000000,2.000000,36.000000,,,,0.000000,0.000000,0.000000,0.000000,0.000000,0.000000,0.000000,0.000000,0.000000,0.000000,0.000000,0.000000,0.000000,0.000000,0.000000,0.000000,,,,,,,,,,,,,,,,,,,,,,,,,,,,,,,,,,,,,,,,,,,,,,,,,,,,,,,,,,,,,,,,,,,,,,,,,,,,,,,,,,,,,,,,,,,,,,,,,,,,,,,,,,,,,,,,,,,,,,,,,,,,,,,,,
1737283053.764656,1737283053.765461,27.000000,0.000000,4330.897461,4350.128418,4268.461426,4324.102539,4351.538574,4363.077148,4365.128418,4554.230957,4553.205078,4559.487305,4497.307617,5640.512695,4306.410156,4263.205078,0.000000,2.000000,36.000000,,,,0.000000,0.000000,0.000000,0.000000,0.000000,0.000000,0.000000,0.000000,0.000000,0.000000,0.000000,0.000000,0.000000,0.000000,0.000000,0.000000,,,,,,,,,,,,,,,,,,,,,,,,,,,,,,,,,,,,,,,,,,,,,,,,,,,,,,,,,,,,,,,,,,,,,,,,,,,,,,,,,,,,,,,,,,,,,,,,,,,,,,,,,,,,,,,,,,,,,,,,,,,,,,,,,
1737283053.772464,1737283053.773369,28.000000,0.000000,4328.846191,4348.077148,4267.051270,4319.615234,4352.179688,4359.615234,4367.179688,4556.538574,4553.846191,4561.410156,4498.974121,5641.794922,4301.922852,4265.128418,0.000000,2.000000,36.000000,,,,0.000000,0.000000,0.000000,0.000000,0.000000,0.000000,0.000000,0.000000,0.000000,0.000000,0.000000,0.000000,0.000000,0.000000,0.000000,0.000000,,,,,,,,,,,,,,,,,7.000000,0.000000,0.661534,-0.748169,0.036560,0.035767,-0.094250,-0.974240,-0.126480,14.963693,-31.027094,16.757120,,,,,,,,,,,,,,,,,,,,,,,,,,,,,,,,0.015550,0.038693,0.021579,0.039361,0.028711,0.026590,0.017818,0.023251,0.013135,0.019318,0.016596,0.027512,0.019626,0.023226,0.029408,0.029907,0.014358,0.024284,0.011623,0.024614,0.014005,0.033464,0.013043,0.025586,0.018730,0.011220,0.046176,0.021136,0.014925,0.031492,0.047499,0.048846,0.024629,0.033570,0.038550,0.025825,0.020066,0.026588,0.021724,0.019152,0.013214,0.028039,0.031355,0.018651,0.029531,0.044543,0.021661,0.050641,0.035918,0.037928,0.022735,0.016209,0.028329,0.026440,0.018712,0.018758,0.025162,0.025729,0.021703,0.026637,0.016801,0.013870,0.024656,0.027144,0.019055,0.039314,0.030883,0.018918,0.034900,0.018835
1737283053.780272,1737283053.781177,29.000000,0.000000,4327.948730,4351.538574,4269.743652,4322.051270,4352.692383,4358.333496,4367.051270,4555.000000,4552.563965,4558.717773,4498.333496,5643.205078,4302.307617,4263.077148,0.000000,2.000000,36.000000,,,,0.000000,0.000000,0.000000,0.000000,0.000000,0.000000,0.000000,0.000000,0.000000,0.000000,0.000000,0.000000,0.000000,0.000000,0.000000,0.000000,,,,,,,,,,,,,,,,,,,,,,,,,,,,,,,,,,,,,,,,,,,,,,,,,,,,,,,,,,,,,,,,,,,,,,,,,,,,,,,,,,,,,,,,,,,,,,,,,,,,,,,,,,,,,,,,,,,,,,,,,,,,,,,,,
1737283053.788080,1737283053.788985,30.000000,0.000000,4328.974121,4351.922852,4267.179688,4323.333496,4350.512695,4358.461426,4368.717773,4555.256348,4550.384766,4558.333496,4491.794922,5635.641113,4302.307617,4255.384766,0.000000,2.000000,36.000000,,,,0.000000,0.000000,0.000000,0.000000,0.000000,0.000000,0.000000,0.000000,0.000000,0.000000,0.000000,0.000000,0.000000,0.000000,0.000000,0.000000,,,,,,,,,,,,,,,,,,,,,,,,,,,,,,,,,,,,,,,,,,,,,,,,,,,,,,,,,,,,,,,,,,,,,,,,,,,,,,,,,,,,,,,,,,,,,,,,,,,,,,,,,,,,,,,,,,,,,,,,,,,,,,,,,
1737283053.795889,1737283053.796693,31.000000,0.000000,4331.666504,4353.846191,4268.846191,4322.563965,4348.974121,4358.717773,4364.743652,4555.256348,4549.743652,4559.615234,4493.589844,5639.358887,4304.358887,4263.461426,0.000000,2.000000,36.000000,,,,0.000000,0.000000,0.000000,0.000000,0.000000,0.000000,0.000000,0.000000,0.000000,0.000000,0.000000,0.000000,0.000000,0.000000,0.000000,0.000000,,,,,,,,,,,,,,,,,,,,,,,,,,,,,,,,,,,,,,,,,,,,,,,,,,,,,,,,,,,,,,,,,,,,,,,,,,,,,,,,,,,,,,,,,,,,,,,,,,,,,,,,,,,,,,,,,,,,,,,,,,,,,,,,,
1737283053.803697,1737283053.804501,32.000000,0.000000,4329.102539,4352.307617,4270.512695,4319.230957,4351.922852,4361.922852,4364.102539,4553.717773,4549.615234,4556.666504,4495.512695,5640.512695,4301.410156,4265.128418,0.000000,2.000000,36.000000,,,,0.000000,0.000000,0.000000,0.000000,0.000000,0.000000,0.000000,0.000000,0.000000,0.000000,0.000000,0.000000,0.000000,0.000000,0.000000,0.000000,,,,,,,,,,,,,,,,,8.000000,0.000000,0.661537,-0.748169,0.036499,0.035767,-0.105482,-0.976682,-0.120132,14.950656,-30.974384,16.714741,,,,,,,,,,,,,,,,,,,,,,,,,,,,,,,,,,,,,,,,,,,,,,,,,,,,,,,,,,,,,,,,,,,,,,,,,,,,,,,,,,,,,,,,,,,,,,,,,,,,,
1737283053.811505,1737283053.812209,33.000000,0.000000,4332.820313,4348.846191,4271.410156,4319.487305,4356.538574,4360.641113,4364.743652,4552.051270,4547.051270,4556.282227,4495.000000,5636.282227,4300.897461,4263.333496,0.000000,2.000000,36.000000,,,,0.000000,0.000000,0.000000,0.000000,0.000000,0.000000,0.000000,0.000000,0.000000,0.000000,0.000000,0.000000,0.000000,0.000000,0.000000,0.000000,,,,,,,,,,,,,,,,,,,,,,,,,,,,,,,,,,,,,,,,,,,,,,,,,,,,,,,,,,,,,,,,,,,,,,,,,,,,,,,,,,,,,,,,,,,,,,,,,,,,,,,,,,,,,,,,,,,,,,,,,,,,,,,,,
1737283053.819313,1737283053.820017,34.000000,0.000000,4337.051270,4349.230957,4271.282227,4322.820313,4354.615234,4357.436035,4362.307617,4553.333496,4547.820313,4558.461426,4496.538574,5637.307617,4304.871582,4266.153809,0.000000,2.000000,36.000000,,,,0.000000,0.000000,0.000000,0.000000,0.000000,0.000000,0.000000,0.000000,0.000000,0.000000,0.000000,0.000000,0.000000,0.000000,0.000000,0.000000,,,,,,,,,,,,,,,,,,,,,,,,,,,,,,,,,,,,,,,,,,,,,,,,,,,,,,,,,,,,,,,,,,,,,,,,,,,,,,,,,,,,,,,,,,,,,,,,,,,,,,,,,,,,,,,,,,,,,,,,,,,,,,,,,
1737283053.827121,1737283053.827725,35.000000,0.000000,4330.384766,4348.589844,4266.153809,4321.153809,4349.487305,4358.974121,4365.256348,4554.102539,4552.436035,4558.717773,4493.077148,5635.897461,4302.179688,4263.846191,0.000000,2.000000,36.000000,,,,0.000000,0.000000,0.000000,0.000000,0.000000,0.000000,0.000000,0.000000,0.000000,0.000000,0.000000,0.000000,0.000000,0.000000,0.000000,0.000000,,,,,,,,,,,,,,,,,,,,,,,,,,,,,,,,,,,,,,,,,,,,,,,,,,,,,,,,,,,,,,,,,,,,,,,,,,,,,,,,,,,,,,,,,,,,,,,,,,,,,,,,,,,,,,,,,,,,,,,,,,,,,,,,,
1737283053.834929,1737283053.835533,36.000000,0.000000,4329.615234,4348.974121,4268.205078,4320.641113,4350.256348,4360.641113,4364.102539,4551.282227,4551.922852,4557.692383,4494.871582,5641.282227,4303.589844,4270.384766,0.000000,2.000000,36.000000,,,,0.000000,0.000000,0.000000,0.000000,0.000000,0.000000,0.000000,0.000000,0.000000,0.000000,0.000000,0.000000,0.000000,0.000000,0.000000,0.000000,,,,,,,,,,,,,,,,,9.000000,0.000000,0.661531,-0.748169,0.036560,0.035828,-0.099133,-0.985960,-0.121597,14.972258,-30.993612,16.709934,,,,,,,,,,,,,,,,,,,,,,,,,,,,,,,,,,,,,,,,,,,,,,,,,,,,,,,,,,,,,,,,,,,,,,,,,,,,,,,,,,,,,,,,,,,,,,,,,,,,,
1737283053.842737,1737283053.843241,37.000000,0.000000,4330.769043,4349.358887,4267.692383,4319.487305,4353.846191,4361.410156,4364.102539,4551.922852,4549.487305,4556.410156,4496.794922,5639.871582,4304.871582,4266.794922,0.000000,2.000000,36.000000,,,,0.000000,0.000000,0.000000,0.000000,0.000000,0.000000,0.000000,0.000000,0.000000,0.000000,0.000000,0.000000,0.000000,0.000000,0.000000,0.000000,,,,,,,,,,,,,,,,,,,,,,,,,,,,,,,,,,,,,,,,,,,,,,,,,,,,,,,,,,,,,,,,,,,,,,,,,,,,,,,,,,,,,,,,,,,,,,,,,,,,,,,,,,,,,,,,,,,,,,,,,,,,,,,,,
1737283053.850545,1737283053.851149,38.000000,0.000000,4329.358887,4351.282227,4266.282227,4319.102539,4354.358887,4360.769043,4365.384766,4551.794922,4550.512695,4556.282227,4492.692383,5634.230957,4303.717773,4260.897461,0.000000,2.000000,36.000000,,,,0.000000,0.000000,0.000000,0.000000,0.000000,0.000000,0.000000,0.000000,0.000000,0.000000,0.000000,0.000000,0.000000,0.000000,0.000000,0.000000,,,,,,,,,,,,,,,,,,,,,,,,,,,,,,,,,,,,,,,,,,,,,,,,,,,,,,,,,,,,,,,,,,,,,,,,,,,,,,,,,,,,,,,,,,,,,,,,,,,,,,,,,,,,,,,,,,,,,,,,,,,,,,,,,
1737283053.858353,1737283053.858958,39.000000,0.000000,4331.282227,4353.205078,4273.589844,4321.282227,4353.974121,4359.102539,4362.179688,4549.102539,4550.128418,4557.692383,4493.974121,5640.897461,4306.025879,4267.820313,0.000000,2.000000,36.000000,,,,0.000000,0.000000,0.000000,0.000000,0.000000,0.000000,0.000000,0.000000,0.000000,0.000000,0.000000,0.000000,0.000000,0.000000,0.000000,0.000000,,,,,,,,,,,,,,,,,,,,,,,,,,,,,,,,,,,,,,,,,,,,,,,,,,,,,,,,,,,,,,,,,,,,,,,,,,,,,,,,,,,,,,,,,,,,,,,,,,,,,,,,,,,,,,,,,,,,,,,,,,,,,,,,,
1737283053.866161,1737283053.866866,40.000000,0.000000,4330.128418,4350.384766,4270.256348,4319.230957,4355.256348,4360.769043,4363.974121,4551.025879,4549.102539,4558.333496,4494.871582,5640.128418,4306.025879,4262.820313,0.000000,2.000000,36.000000,,,,0.000000,0.000000,0.000000,0.000000,0.000000,0.000000,0.000000,0.000000,0.000000,0.000000,0.000000,0.000000,0.000000,0.000000,0.000000,0.000000,,,,,,,,,,,,,,,,,10.000000,0.000000,0.661521,-0.748169,0.036621,0.035950,-0.114760,-0.980588,-0.117202,14.841699,-30.944252,16.722275,,,,,,,,,,,,,,,,,,,,,,,,,,,,,,,,,,,,,,,,,,,,,,,,,,,,,,,,,,,,,,,,,,,,,,,,,,,,,,,,,,,,,,,,,,,,,,,,,,,,,
1737283053.873969,1737283053.874674,41.000000,0.000000,4329.615234,4352.051270,4265.128418,4321.282227,4355.641113,4361.282227,4364.743652,4553.589844,4549.358887,4557.179688,4494.102539,5637.692383,4307.436035,4262.051270,0.000000,2.000000,36.000000,,,,0.000000,0.000000,0.000000,0.000000,0.000000,0.000000,0.000000,0.000000,0.000000,0.000000,0.000000,0.000000,0.000000,0.000000,0.000000,0.000000,,,,,,,,,,,,,,,,,,,,,,,,,,,,,,,,,,,,,,,,,,,,,,,,,,,,,,,,,,,,,,,,,,,,,,,,,,,,,,,,,,,,,,,,,,,,,,,,,,,,,,,,,,,,,,,,,,,,,,,,,,,,,,,,,
1737283053.881777,1737283053.882582,42.000000,0.000000,4330.512695,4351.538574,4269.487305,4322.307617,4353.205078,4358.077148,4365.512695,4555.000000,4550.000000,4556.282227,4496.025879,5639.487305,4304.102539,4263.333496,0.000000,2.000000,36.000000,,,,0.000000,0.000000,0.000000,0.000000,0.000000,0.000000,0.000000,0.000000,0.000000,0.000000,0.000000,0.000000,0.000000,0.000000,0.000000,0.000000,,,,,,,,,,,,,,,,,,,,,,,,,,,,,,,,,,,,,,,,,,,,,,,,,,,,,,,,,,,,,,,,,,,,,,,,,,,,,,,,,,,,,,,,,,,,,,,,,,,,,,,,,,,,,,,,,,,,,,,,,,,,,,,,,
1737283053.889586,1737283053.890390,43.000000,0.000000,4331.666504,4347.051270,4273.717773,4319.358887,4350.384766,4359.743652,4365.641113,4555.769043,4549.615234,4560.000000,4498.077148,5641.282227,4301.538574,4259.358887,0.000000,2.000000,36.000000,,,,0.000000,0.000000,0.000000,0.000000,0.000000,0.000000,0.000000,0.000000,0.000000,0.000000,0.000000,0.000000,0.000000,0.000000,0.000000,0.000000,,,,,,,,,,,,,,,,,,,,,,,,,,,,,,,,,,,,,,,,,,,,,,,,,,,,,,,,,,,,,,,,,,,,,,,,,,,,,,,,,,,,,,,,,,,,,,,,,,,,,,,,,,,,,,,,,,,,,,,,,,,,,,,,,
1737283053.897394,1737283053.898298,44.000000,0.000000,4335.000000,4350.641113,4272.820313,4322.563965,4351.922852,4362.051270,4361.282227,4553.461426,4548.717773,4561.922852,4497.307617,5643.589844,4306.794922,4263.974121,0.000000,2.000000,36.000000,,,,0.000000,0.000000,0.000000,0.000000,0.000000,0.000000,0.000000,0.000000,0.000000,0.000000,0.000000,0.000000,0.000000,0.000000,0.000000,0.000000,1.000000,0.000000,0.000000,0.000000,0.000000,0.000000,0.000000,0.000000,0.000000,0.000000,0.000000,0.000000,0.000000,0.000000,0.000000,0.000000,11.000000,0.000000,0.661524,-0.748169,0.036560,0.035950,-0.103040,-0.975217,-0.121597,14.924195,-31.083160,16.650047,,,,,,,,,,,,,,,,,,,,,,,,,,,,,,,,0.014513,0.037418,0.025331,0.039638,0.031474,0.026090,0.021499,0.023105,0.014017,0.018831,0.017937,0.034161,0.019133,0.019144,0.027497,0.029104,0.015378,0.026217,0.010374,0.026920,0.013551,0.031080,0.013458,0.019288,0.019450,0.009600,0.054095,0.022658,0.014413,0.033589,0.041219,0.050866,0.026343,0.034808,0.038445,0.022482,0.017472,0.028130,0.022139,0.020310,0.014409,0.029327,0.028624,0.018312,0.031708,0.037900,0.023761,0.048065,0.036036,0.035587,0.023838,0.017142,0.022906,0.025635,0.020953,0.015790,0.025269,0.025257,0.021141,0.028893,0.020334,0.014137,0.028602,0.028080,0.019057,0.039723,0.030304,0.018073,0.031947,0.018849
1737283053.905202,1737283053.906106,45.000000,0.000000,4331.666504,4352.948730,4268.077148,4322.948730,4356.282227,4358.461426,4364.358887,4554.615234,4550.128418,4557.563965,4491.922852,5639.743652,4304.615234,4261.025879,0.000000,2.000000,36.000000,,,,0.000000,0.000000,0.000000,0.000000,0.000000,0.000000,0.000000,0.000000,0.000000,0.000000,0.000000,0.000000,0.000000,0.000000,0.000000,0.000000,,,,,,,,,,,,,,,,,,,,,,,,,,,,,,,,,,,,,,,,,,,,,,,,,,,,,,,,,,,,,,,,,,,,,,,,,,,,,,,,,,,,,,,,,,,,,,,,,,,,,,,,,,,,,,,,,,,,,,,,,,,,,,,,,
1737283053.913010,1737283053.914014,46.000000,0.000000,4330.256348,4350.384766,4270.384766,4318.589844,4355.769043,4358.589844,4365.897461,4556.282227,4550.512695,4556.922852,4494.102539,5639.230957,4303.974121,4260.897461,0.000000,2.000000,36.000000,,,,0.000000,0.000000,0.000000,0.000000,0.000000,0.000000,0.000000,0.000000,0.000000,0.000000,0.000000,0.000000,0.000000,0.000000,0.000000,0.000000,,,,,,,,,,,,,,,,,,,,,,,,,,,,,,,,,,,,,,,,,,,,,,,,,,,,,,,,,,,,,,,,,,,,,,,,,,,,,,,,,,,,,,,,,,,,,,,,,,,,,,,,,,,,,,,,,,,,,,,,,,,,,,,,,
1737283053.920818,1737283053.921822,47.000000,0.000000,4331.153809,4350.256348,4270.384766,4316.666504,4351.922852,4363.589844,4363.846191,4552.948730,4549.102539,4559.358887,4497.051270,5639.743652,4306.410156,4263.205078,0.000000,2.000000,36.000000,,,,0.000000,0.000000,0.000000,0.000000,0.000000,0.000000,0.000000,0.000000,0.000000,0.000000,0.000000,0.000000,0.000000,0.000000,0.000000,0.000000,,,,,,,,,,,,,,,,,,,,,,,,,,,,,,,,,,,,,,,,,,,,,,,,,,,,,,,,,,,,,,,,,,,,,,,,,,,,,,,,,,,,,,,,,,,,,,,,,,,,,,,,,,,,,,,,,,,,,,,,,,,,,,,,,
1737283053.928626,1737283053.929730,48.000000,0.000000,4329.358887,4351.794922,4265.128418,4319.743652,4351.666504,4362.179688,4364.871582,4552.948730,4550.641113,4556.025879,4496.025879,5638.589844,4302.051270,4257.436035,0.000000,2.000000,36.000000,,,,0.000000,0.000000,0.000000,0.000000,0.000000,0.000000,0.000000,0.000000,0.000000,0.000000,0.000000,0.000000,0.000000,0.000000,0.000000,0.000000,,,,,,,,,,,,,,,,,12.000000,0.000000,0.661587,-0.748108,0.036560,0.036072,-0.108412,-0.980100,-0.115248,14.898442,-31.041510,16.601709,,,,,,,,,,,,,,,,,,,,,,,,,,,,,,,,,,,,,,,,,,,,,,,,,,,,,,,,,,,,,,,,,,,,,,,,,,,,,,,,,,,,,,,,,,,,,,,,,,,,,
1737283053.936434,1737283053.937538,49.000000,0.000000,4333.717773,4351.922852,4268.461426,4324.102539,4355.512695,4358.077148,4362.563965,4555.641113,4551.025879,4554.230957,4497.948730,5643.205078,4302.563965,4261.538574,0.000000,2.000000,36.000000,,,,0.000000,0.000000,0.000000,0.000000,0.000000,0.000000,0.000000,0.000000,0.000000,0.000000,0.000000,0.000000,0.000000,0.000000,0.000000,0.000000,,,,,,,,,,,,,,,,,,,,,,,,,,,,,,,,,,,,,,,,,,,,,,,,,,,,,,,,,,,,,,,,,,,,,,,,,,,,,,,,,,,,,,,,,,,,,,,,,,,,,,,,,,,,,,,,,,,,,,,,,,,,,,,,,
1737283053.944242,1737283053.945246,50.000000,0.000000,4335.384766,4347.436035,4267.179688,4320.256348,4355.769043,4360.128418,4364.230957,4554.743652,4548.717773,4559.358887,4495.769043,5640.512695,4303.717773,4262.179688,0.000000,2.000000,36.000000,,,,0.000000,0.000000,0.000000,0.000000,0.000000,0.000000,0.000000,0.000000,0.000000,0.000000,0.000000,0.000000,0.000000,0.000000,0.000000,0.000000,,,,,,,,,,,,,,,,,,,,,,,,,,,,,,,,,,,,,,,,,,,,,,,,,,,,,,,,,,,,,,,,,,,,,,,,,,,,,,,,,,,,,,,,,,,,,,,,,,,,,,,,,,,,,,,,,,,,,,,,,,,,,,,,,
1737283053.952050,1737283053.953054,51.000000,0.000000,4330.897461,4347.948730,4264.743652,4317.179688,4353.846191,4359.230957,4365.128418,4552.051270,4548.205078,4561.666504,4495.384766,5638.461426,4304.230957,4261.538574,0.000000,2.000000,36.000000,,,,0.000000,0.000000,0.000000,0.000000,0.000000,0.000000,0.000000,0.000000,0.000000,0.000000,0.000000,0.000000,0.000000,0.000000,0.000000,0.000000,,,,,,,,,,,,,,,,,,,,,,,,,,,,,,,,,,,,,,,,,,,,,,,,,,,,,,,,,,,,,,,,,,,,,,,,,,,,,,,,,,,,,,,,,,,,,,,,,,,,,,,,,,,,,,,,,,,,,,,,,,,,,,,,,
1737283053.959858,1737283053.960762,52.000000,0.000000,4327.948730,4352.179688,4265.512695,4319.358887,4352.179688,4358.077148,4366.025879,4553.333496,4549.230957,4560.128418,4497.692383,5642.692383,4303.205078,4262.307617,0.000000,2.000000,36.000000,,,,0.000000,0.000000,0.000000,0.000000,0.000000,0.000000,0.000000,0.000000,0.000000,0.000000,0.000000,0.000000,0.000000,0.000000,0.000000,0.000000,,,,,,,,,,,,,,,,,13.000000,0.000000,0.661518,-0.748169,0.036560,0.036072,-0.103040,-0.983030,-0.113295,15.041931,-31.054026,16.608204,,,,,,,,,,,,,,,,,,,,,,,,,,,,,,,,,,,,,,,,,,,,,,,,,,,,,,,,,,,,,,,,,,,,,,,,,,,,,,,,,,,,,,,,,,,,,,,,,,,,,
1737283053.967667,1737283053.968570,53.000000,0.000000,4329.487305,4350.512695,4265.512695,4321.410156,4350.256348,4362.820313,4369.102539,4556.025879,4549.230957,4558.846191,4495.897461,5640.256348,4300.000000,4259.615234,0.000000,2.000000,36.000000,,,,0.000000,0.000000,0.000000,0.000000,0.000000,0.000000,0.000000,0.000000,0.000000,0.000000,0.000000,0.000000,0.000000,0.000000,0.000000,0.000000,,,,,,,,,,,,,,,,,,,,,,,,,,,,,,,,,,,,,,,,,,,,,,,,,,,,,,,,,,,,,,,,,,,,,,,,,,,,,,,,,,,,,,,,,,,,,,,,,,,,,,,,,,,,,,,,,,,,,,,,,,,,,,,,,
1737283053.975474,1737283053.976278,54.000000,0.000000,4333.205078,4348.846191,4270.769043,4323.333496,4351.410156,4362.436035,4364.102539,4554.102539,4547.563965,4557.307617,4498.077148,5641.538574,4305.128418,4265.000000,0.000000,2.000000,36.000000,,,,0.000000,0.000000,0.000000,0.000000,0.000000,0.000000,0.000000,0.000000,0.000000,0.000000,0.000000,0.000000,0.000000,0.000000,0.000000,0.000000,,,,,,,,,,,,,,,,,,,,,,,,,,,,,,,,,,,,,,,,,,,,,,,,,,,,,,,,,,,,,,,,,,,,,,,,,,,,,,,,,,,,,,,,,,,,,,,,,,,,,,,,,,,,,,,,,,,,,,,,,,,,,,,,,
1737283053.983283,1737283053.984086,55.000000,0.000000,4330.000000,4349.102539,4267.307617,4321.025879,4352.820313,4360.000000,4362.692383,4552.436035,4547.179688,4558.846191,4497.051270,5640.384766,4304.102539,4261.666504,0.000000,2.000000,36.000000,,,,0.000000,0.000000,0.000000,0.000000,0.000000,0.000000,0.000000,0.000000,0.000000,0.000000,0.000000,0.000000,0.000000,0.000000,0.000000,0.000000,,,,,,,,,,,,,,,,,,,,,,,,,,,,,,,,,,,,,,,,,,,,,,,,,,,,,,,,,,,,,,,,,,,,,,,,,,,,,,,,,,,,,,,,,,,,,,,,,,,,,,,,,,,,,,,,,,,,,,,,,,,,,,,,,
1737283053.991091,1737283053.991794,56.000000,0.000000,4329.230957,4351.410156,4263.589844,4320.641113,4352.692383,4362.820313,4365.897461,4553.846191,4548.846191,4562.179688,4493.589844,5638.333496,4300.897461,4258.333496,0.000000,2.000000,36.000000,,,,0.000000,0.000000,0.000000,0.000000,0.000000,0.000000,0.000000,0.000000,0.000000,0.000000,0.000000,0.000000,0.000000,0.000000,0.000000,0.000000,,,,,,,,,,,,,,,,,14.000000,0.000000,0.661518,-0.748169,0.036560,0.036072,-0.100110,-0.980588,-0.119644,15.071072,-31.181957,16.664051,,,,,,,,,,,,,,,,,,,,,,,,,,,,,,,,,,,,,,,,,,,,,,,,,,,,,,,,,,,,,,,,,,,,,,,,,,,,,,,,,,,,,,,,,,,,,,,,,,,,,
1737283053.998899,1737283053.999602,57.000000,0.000000,4333.974121,4351.025879,4269.871582,4323.461426,4353.461426,4362.948730,4364.615234,4552.436035,4550.641113,4560.128418,4495.128418,5641.794922,4305.512695,4263.717773,0.000000,2.000000,36.000000,,,,0.000000,0.000000,0.000000,0.000000,0.000000,0.000000,0.000000,0.000000,0.000000,0.000000,0.000000,0.000000,0.000000,0.000000,0.000000,0.000000,,,,,,,,,,,,,,,,,,,,,,,,,,,,,,,,,,,,,,,,,,,,,,,,,,,,,,,,,,,,,,,,,,,,,,,,,,,,,,,,,,,,,,,,,,,,,,,,,,,,,,,,,,,,,,,,,,,,,,,,,,,,,,,,,
1737283054.006707,1737283054.007310,58.000000,0.000000,4331.282227,4348.461426,4267.948730,4318.717773,4351.538574,4360.256348,4362.692383,4550.512695,4552.051270,4557.307617,4494.102539,5637.179688,4303.589844,4259.102539,0.000000,2.000000,36.000000,,,,0.000000,0.000000,0.000000,0.000000,0.000000,0.000000,0.000000,0.000000,0.000000,0.000000,0.000000,0.000000,0.000000,0.000000,0.000000,0.000000,,,,,,,,,,,,,,,,,,,,,,,,,,,,,,,,,,,,,,,,,,,,,,,,,,,,,,,,,,,,,,,,,,,,,,,,,,,,,,,,,,,,,,,,,,,,,,,,,,,,,,,,,,,,,,,,,,,,,,,,,,,,,,,,,
1737283054.014515,1737283054.015219,59.000000,0.000000,4328.333496,4350.512695,4266.666504,4318.205078,4350.128418,4361.153809,4362.051270,4552.051270,4551.282227,4561.410156,4494.743652,5638.846191,4301.794922,4261.025879,0.000000,2.000000,36.000000,,,,0.000000,0.000000,0.000000,0.000000,0.000000,0.000000,0.000000,0.000000,0.000000,0.000000,0.000000,0.000000,0.000000,0.000000,0.000000,0.000000,,,,,,,,,,,,,,,,,,,,,,,,,,,,,,,,,,,,,,,,,,,,,,,,,,,,,,,,,,,,,,,,,,,,,,,,,,,,,,,,,,,,,,,,,,,,,,,,,,,,,,,,,,,,,,,,,,,,,,,,,,,,,,,,,
1737283054.022323,1737283054.023027,60.000000,0.000000,4329.871582,4350.897461,4266.922852,4322.179688,4353.461426,4359.615234,4365.128418,4554.871582,4549.102539,4562.820313,4494.487305,5642.563965,4304.615234,4261.282227,0.000000,2.000000,36.000000,,,,0.000000,0.000000,0.000000,0.000000,0.000000,0.000000,0.000000,0.000000,0.000000,0.000000,0.000000,0.000000,0.000000,0.000000,0.000000,0.000000,,,,,,,,,,,,,,,,,15.000000,0.000000,0.661514,-0.748169,0.036621,0.036072,-0.090831,-0.978147,-0.121109,15.180631,-31.297094,16.630980,,,,,,,,,,,,,,,,,,,,,,,,,,,,,,,,0.013625,0.035594,0.029736,0.038053,0.033738,0.025778,0.025590,0.021858,0.015662,0.018730,0.020515,0.040308,0.019357,0.015852,0.026056,0.027759,0.018687,0.025960,0.009131,0.028811,0.012315,0.027032,0.013969,0.014585,0.020729,0.009665,0.058291,0.023205,0.014074,0.035459,0.033499,0.050644,0.028469,0.033982,0.037200,0.020387,0.013706,0.027059,0.022560,0.022191,0.014333,0.031329,0.025131,0.018480,0.032970,0.031614,0.025967,0.045527,0.036772,0.033188,0.024368,0.017863,0.019044,0.024592,0.023961,0.013091,0.024787,0.024192,0.021620,0.030945,0.025144,0.015308,0.031196,0.027184,0.018913,0.040109,0.027919,0.017644,0.030062,0.020567
1737283054.030131,1737283054.030835,61.000000,0.000000,4331.153809,4350.256348,4265.512695,4322.563965,4353.974121,4356.282227,4364.102539,4554.230957,4549.871582,4560.256348,4493.461426,5640.641113,4306.538574,4258.333496,0.000000,2.000000,36.000000,,,,0.000000,0.000000,0.000000,0.000000,0.000000,0.000000,0.000000,0.000000,0.000000,0.000000,0.000000,0.000000,0.000000,0.000000,0.000000,0.000000,,,,,,,,,,,,,,,,,,,,,,,,,,,,,,,,,,,,,,,,,,,,,,,,,,,,,,,,,,,,,,,,,,,,,,,,,,,,,,,,,,,,,,,,,,,,,,,,,,,,,,,,,,,,,,,,,,,,,,,,,,,,,,,,,
1737283054.037939,1737283054.038543,62.000000,0.000000,4332.692383,4350.128418,4268.333496,4321.025879,4351.282227,4359.358887,4359.615234,4552.563965,4554.102539,4559.230957,4495.769043,5642.307617,4307.051270,4263.846191,0.000000,2.000000,36.000000,,,,0.000000,0.000000,0.000000,0.000000,0.000000,0.000000,0.000000,0.000000,0.000000,0.000000,0.000000,0.000000,0.000000,0.000000,0.000000,0.000000,,,,,,,,,,,,,,,,,,,,,,,,,,,,,,,,,,,,,,,,,,,,,,,,,,,,,,,,,,,,,,,,,,,,,,,,,,,,,,,,,,,,,,,,,,,,,,,,,,,,,,,,,,,,,,,,,,,,,,,,,,,,,,,,,
1737283054.045747,1737283054.046451,63.000000,0.000000,4331.538574,4348.589844,4267.051270,4318.974121,4352.563965,4362.051270,4363.589844,4552.820313,4555.000000,4558.717773,4493.077148,5638.974121,4304.615234,4259.743652,0.000000,2.000000,36.000000,,,,0.000000,0.000000,0.000000,0.000000,0.000000,0.000000,0.000000,0.000000,0.000000,0.000000,0.000000,0.000000,0.000000,0.000000,0.000000,0.000000,,,,,,,,,,,,,,,,,,,,,,,,,,,,,,,,,,,,,,,,,,,,,,,,,,,,,,,,,,,,,,,,,,,,,,,,,,,,,,,,,,,,,,,,,,,,,,,,,,,,,,,,,,,,,,,,,,,,,,,,,,,,,,,,,
1737283054.053555,1737283054.054259,64.000000,0.000000,4333.205078,4350.256348,4268.461426,4322.820313,4354.615234,4359.230957,4364.358887,4551.922852,4552.179688,4560.256348,4494.487305,5639.487305,4306.666504,4258.846191,0.000000,2.000000,36.000000,,,,0.000000,0.000000,0.000000,0.000000,0.000000,0.000000,0.000000,0.000000,0.000000,0.000000,0.000000,0.000000,0.000000,0.000000,0.000000,0.000000,,,,,,,,,,,,,,,,,16.000000,0.000000,0.661587,-0.748108,0.036499,0.036133,-0.100110,-0.987914,-0.120132,15.312568,-31.300718,16.651215,,,,,,,,,,,,,,,,,,,,,,,,,,,,,,,,,,,,,,,,,,,,,,,,,,,,,,,,,,,,,,,,,,,,,,,,,,,,,,,,,,,,,,,,,,,,,,,,,,,,,
1737283054.061364,1737283054.062167,65.000000,0.000000,4332.179688,4349.743652,4269.230957,4323.333496,4353.974121,4358.717773,4362.051270,4553.333496,4550.769043,4560.512695,4496.794922,5640.000000,4306.282227,4259.615234,0.000000,2.000000,36.000000,,,,0.000000,0.000000,0.000000,0.000000,0.000000,0.000000,0.000000,0.000000,0.000000,0.000000,0.000000,0.000000,0.000000,0.000000,0.000000,0.000000,,,,,,,,,,,,,,,,,,,,,,,,,,,,,,,,,,,,,,,,,,,,,,,,,,,,,,,,,,,,,,,,,,,,,,,,,,,,,,,,,,,,,,,,,,,,,,,,,,,,,,,,,,,,,,,,,,,,,,,,,,,,,,,,,
1737283054.069172,1737283054.069976,66.000000,0.000000,4328.974121,4348.717773,4265.384766,4318.589844,4352.307617,4360.128418,4362.563965,4555.641113,4551.153809,4556.025879,4493.333496,5636.410156,4302.436035,4257.307617,0.000000,2.000000,36.000000,,,,0.000000,0.000000,0.000000,0.000000,0.000000,0.000000,0.000000,0.000000,0.000000,0.000000,0.000000,0.000000,0.000000,0.000000,0.000000,0.000000,,,,,,,,,,,,,,,,,,,,,,,,,,,,,,,,,,,,,,,,,,,,,,,,,,,,,,,,,,,,,,,,,,,,,,,,,,,,,,,,,,,,,,,,,,,,,,,,,,,,,,,,,,,,,,,,,,,,,,,,,,,,,,,,,
1737283054.076980,1737283054.077884,67.000000,0.000000,4331.666504,4353.205078,4267.820313,4320.256348,4352.692383,4358.461426,4360.512695,4552.820313,4549.615234,4553.974121,4495.384766,5640.000000,4304.743652,4265.000000,0.000000,2.000000,36.000000,,,,0.000000,0.000000,0.000000,0.000000,0.000000,0.000000,0.000000,0.000000,0.000000,0.000000,0.000000,0.000000,0.000000,0.000000,0.000000,0.000000,,,,,,,,,,,,,,,,,,,,,,,,,,,,,,,,,,,,,,,,,,,,,,,,,,,,,,,,,,,,,,,,,,,,,,,,,,,,,,,,,,,,,,,,,,,,,,,,,,,,,,,,,,,,,,,,,,,,,,,,,,,,,,,,,
1737283054.084788,1737283054.085692,68.000000,0.000000,4329.871582,4352.179688,4266.282227,4318.461426,4353.205078,4359.102539,4363.333496,4551.538574,4549.743652,4557.948730,4494.743652,5639.487305,4304.743652,4261.025879,0.000000,2.000000,36.000000,,,,0.000000,0.000000,0.000000,0.000000,0.000000,0.000000,0.000000,0.000000,0.000000,0.000000,0.000000,0.000000,0.000000,0.000000,0.000000,0.000000,,,,,,,,,,,,,,,,,17.000000,0.000000,0.661590,-0.748108,0.036499,0.036072,-0.088878,-0.996215,-0.117202,15.331311,-31.287313,16.486094,,,,,,,,,,,,,,,,,,,,,,,,,,,,,,,,,,,,,,,,,,,,,,,,,,,,,,,,,,,,,,,,,,,,,,,,,,,,,,,,,,,,,,,,,,,,,,,,,,,,,
1737283054.092596,1737283054.093600,69.000000,0.000000,4328.846191,4350.000000,4266.025879,4315.512695,4351.666504,4360.000000,4364.358887,4551.666504,4552.692383,4559.615234,4491.538574,5642.436035,4306.922852,4259.871582,0.000000,2.000000,36.000000,,,,0.000000,0.000000,0.000000,0.000000,0.000000,0.000000,0.000000,0.000000,0.000000,0.000000,0.000000,0.000000,0.000000,0.000000,0.000000,0.000000,,,,,,,,,,,,,,,,,,,,,,,,,,,,,,,,,,,,,,,,,,,,,,,,,,,,,,,,,,,,,,,,,,,,,,,,,,,,,,,,,,,,,,,,,,,,,,,,,,,,,,,,,,,,,,,,,,,,,,,,,,,,,,,,,
1737283054.100404,1737283054.101408,70.000000,0.000000,4330.000000,4351.410156,4268.846191,4318.717773,4351.025879,4359.230957,4362.948730,4551.410156,4551.410156,4557.436035,4492.436035,5646.538574,4306.410156,4266.282227,0.000000,2.000000,36.000000,,,,0.000000,0.000000,0.000000,0.000000,0.000000,0.000000,0.000000,0.000000,0.000000,0.000000,0.000000,0.000000,0.000000,0.000000,0.000000,0.000000,,,,,,,,,,,,,,,,,,,,,,,,,,,,,,,,,,,,,,,,,,,,,,,,,,,,,,,,,,,,,,,,,,,,,,,,,,,,,,,,,,,,,,,,,,,,,,,,,,,,,,,,,,,,,,,,,,,,,,,,,,,,,,,,,
1737283054.108212,1737283054.109316,71.000000,0.000000,4327.948730,4350.512695,4266.538574,4319.358887,4352.436035,4360.384766,4363.461426,4552.692383,4551.153809,4555.641113,4493.333496,5641.025879,4300.641113,4262.307617,0.000000,2.000000,36.000000,,,,0.000000,0.000000,0.000000,0.000000,0.000000,0.000000,0.000000,0.000000,0.000000,0.000000,0.000000,0.000000,0.000000,0.000000,0.000000,0.000000,,,,,,,,,,,,,,,,,,,,,,,,,,,,,,,,,,,,,,,,,,,,,,,,,,,,,,,,,,,,,,,,,,,,,,,,,,,,,,,,,,,,,,,,,,,,,,,,,,,,,,,,,,,,,,,,,,,,,,,,,,,,,,,,,
1737283054.116020,1737283054.117124,72.000000,0.000000,4331.025879,4352.051270,4270.000000,4318.717773,4351.922852,4358.974121,4361.794922,4552.692383,4554.230957,4556.538574,4494.358887,5638.717773,4303.589844,4262.563965,0.000000,2.000000,36.000000,,,,0.000000,0.000000,0.000000,0.000000,0.000000,0.000000,0.000000,0.000000,0.000000,0.000000,0.000000,0.000000,0.000000,0.000000,0.000000,0.000000,,,,,,,,,,,,,,,,,18.000000,0.000000,0.661590,-0.748108,0.036499,0.036072,-0.103040,-0.981077,-0.129410,15.281513,-31.258581,16.387484,,,,,,,,,,,,,,,,,,,,,,,,,,,,,,,,,,,,,,,,,,,,,,,,,,,,,,,,,,,,,,,,,,,,,,,,,,,,,,,,,,,,,,,,,,,,,,,,,,,,,
1737283054.123828,1737283054.124832,73.000000,0.000000,4331.025879,4351.922852,4270.769043,4320.256348,4351.922852,4358.589844,4365.897461,4552.436035,4551.410156,4557.179688,4493.333496,5635.512695,4304.102539,4260.897461,0.000000,2.000000,36.000000,,,,0.000000,0.000000,0.000000,0.000000,0.000000,0.000000,0.000000,0.000000,0.000000,0.000000,0.000000,0.000000,0.000000,0.000000,0.000000,0.000000,,,,,,,,,,,,,,,,,,,,,,,,,,,,,,,,,,,,,,,,,,,,,,,,,,,,,,,,,,,,,,,,,,,,,,,,,,,,,,,,,,,,,,,,,,,,,,,,,,,,,,,,,,,,,,,,,,,,,,,,,,,,,,,,,
1737283054.131636,1737283054.132640,74.000000,0.000000,4331.410156,4351.794922,4268.974121,4322.179688,4355.769043,4360.384766,4365.897461,4554.487305,4547.051270,4556.153809,4494.102539,5637.179688,4304.487305,4261.922852,0.000000,2.000000,36.000000,,,,0.000000,0.000000,0.000000,0.000000,0.000000,0.000000,0.000000,0.000000,0.000000,0.000000,0.000000,0.000000,0.000000,0.000000,0.000000,0.000000,,,,,,,,,,,,,,,,,,,,,,,,,,,,,,,,,,,,,,,,,,,,,,,,,,,,,,,,,,,,,,,,,,,,,,,,,,,,,,,,,,,,,,,,,,,,,,,,,,,,,,,,,,,,,,,,,,,,,,,,,,,,,,,,,
1737283054.139444,1737283054.140348,75.000000,0.000000,4334.230957,4351.794922,4271.153809,4323.077148,4354.615234,4359.358887,4360.512695,4556.025879,4550.128418,4557.948730,4496.153809,5643.461426,4307.307617,4266.282227,0.000000,2.000000,36.000000,,,,0.000000,0.000000,0.000000,0.000000,0.000000,0.000000,0.000000,0.000000,0.000000,0.000000,0.000000,0.000000,0.000000,0.000000,0.000000,0.000000,,,,,,,,,,,,,,,,,,,,,,,,,,,,,,,,,,,,,,,,,,,,,,,,,,,,,,,,,,,,,,,,,,,,,,,,,,,,,,,,,,,,,,,,,,,,,,,,,,,,,,,,,,,,,,,,,,,,,,,,,,,,,,,,,
1737283054.147252,1737283054.148156,76.000000,0.000000,4331.153809,4348.205078,4271.282227,4321.922852,4351.025879,4358.846191,4362.563965,4553.974121,4552.179688,4560.256348,4495.128418,5640.384766,4304.487305,4261.666504,0.000000,2.000000,36.000000,,,,0.000000,0.000000,0.000000,0.000000,0.000000,0.000000,0.000000,0.000000,0.000000,0.000000,0.000000,0.000000,0.000000,0.000000,0.000000,0.000000,,,,,,,,,,,,,,,,,19.000000,0.000000,0.661669,-0.748047,0.036377,0.036011,-0.105482,-0.978147,-0.127457,15.103362,-31.299391,16.498735,,,,,,,,,,,,,,,,,,,,,,,,,,,,,,,,0.013942,0.034196,0.033649,0.035685,0.034907,0.025039,0.028894,0.020539,0.018432,0.019713,0.023651,0.045207,0.020080,0.013850,0.025530,0.026758,0.023339,0.023616,0.008388,0.029899,0.010596,0.022128,0.014306,0.012746,0.022009,0.010946,0.057019,0.022151,0.014030,0.036713,0.026848,0.047582,0.029550,0.031650,0.034690,0.020566,0.010307,0.023785,0.022889,0.024100,0.013320,0.033658,0.021979,0.019218,0.033483,0.027655,0.028096,0.043646,0.037481,0.031230,0.025653,0.018916,0.017601,0.023418,0.027048,0.011787,0.023576,0.023476,0.023188,0.032452,0.029727,0.016733,0.031450,0.025218,0.018758,0.040816,0.026269,0.018006,0.028797,0.023806
1737283054.155061,1737283054.155864,77.000000,0.000000,4330.897461,4350.897461,4272.692383,4322.307617,4353.077148,4359.102539,4362.820313,4550.512695,4550.512695,4559.743652,4495.256348,5639.230957,4305.512695,4262.948730,0.000000,2.000000,36.000000,,,,0.000000,0.000000,0.000000,0.000000,0.000000,0.000000,0.000000,0.000000,0.000000,0.000000,0.000000,0.000000,0.000000,0.000000,0.000000,0.000000,,,,,,,,,,,,,,,,,,,,,,,,,,,,,,,,,,,,,,,,,,,,,,,,,,,,,,,,,,,,,,,,,,,,,,,,,,,,,,,,,,,,,,,,,,,,,,,,,,,,,,,,,,,,,,,,,,,,,,,,,,,,,,,,,
1737283054.162869,1737283054.163672,78.000000,0.000000,4332.179688,4351.538574,4269.358887,4321.153809,4354.358887,4360.000000,4364.743652,4551.153809,4550.769043,4557.051270,4493.589844,5638.974121,4307.179688,4263.589844,0.000000,2.000000,36.000000,,,,0.000000,0.000000,0.000000,0.000000,0.000000,0.000000,0.000000,0.000000,0.000000,0.000000,0.000000,0.000000,0.000000,0.000000,0.000000,0.000000,,,,,,,,,,,,,,,,,,,,,,,,,,,,,,,,,,,,,,,,,,,,,,,,,,,,,,,,,,,,,,,,,,,,,,,,,,,,,,,,,,,,,,,,,,,,,,,,,,,,,,,,,,,,,,,,,,,,,,,,,,,,,,,,,
1737283054.170677,1737283054.171380,79.000000,0.000000,4332.307617,4346.922852,4266.666504,4321.153809,4353.589844,4360.256348,4366.153809,4554.871582,4548.974121,4556.410156,4493.717773,5639.102539,4305.897461,4264.230957,0.000000,2.000000,36.000000,,,,0.000000,0.000000,0.000000,0.000000,0.000000,0.000000,0.000000,0.000000,0.000000,0.000000,0.000000,0.000000,0.000000,0.000000,0.000000,0.000000,,,,,,,,,,,,,,,,,,,,,,,,,,,,,,,,,,,,,,,,,,,,,,,,,,,,,,,,,,,,,,,,,,,,,,,,,,,,,,,,,,,,,,,,,,,,,,,,,,,,,,,,,,,,,,,,,,,,,,,,,,,,,,,,,
1737283054.178485,1737283054.179188,80.000000,0.000000,4332.820313,4347.307617,4270.256348,4323.333496,4353.205078,4359.615234,4361.025879,4554.230957,4549.743652,4558.589844,4495.384766,5640.897461,4305.512695,4267.179688,0.000000,2.000000,36.000000,,,,0.000000,0.000000,0.000000,0.000000,0.000000,0.000000,0.000000,0.000000,0.000000,0.000000,0.000000,0.000000,0.000000,0.000000,0.000000,0.000000,,,,,,,,,,,,,,,,,20.000000,0.000000,0.661593,-0.748108,0.036499,0.036011,-0.109877,-0.987914,-0.124527,15.159693,-31.269451,16.565529,,,,,,,,,,,,,,,,,,,,,,,,,,,,,,,,,,,,,,,,,,,,,,,,,,,,,,,,,,,,,,,,,,,,,,,,,,,,,,,,,,,,,,,,,,,,,,,,,,,,,
1737283054.186293,1737283054.186896,81.000000,0.000000,4330.512695,4349.358887,4266.922852,4320.769043,4351.794922,4357.820313,4362.436035,4550.000000,4552.051270,4558.589844,4493.974121,5637.307617,4302.820313,4262.436035,0.000000,2.000000,36.000000,,,,0.000000,0.000000,0.000000,0.000000,0.000000,0.000000,0.000000,0.000000,0.000000,0.000000,0.000000,0.000000,0.000000,0.000000,0.000000,0.000000,,,,,,,,,,,,,,,,,,,,,,,,,,,,,,,,,,,,,,,,,,,,,,,,,,,,,,,,,,,,,,,,,,,,,,,,,,,,,,,,,,,,,,,,,,,,,,,,,,,,,,,,,,,,,,,,,,,,,,,,,,,,,,,,,
1737283054.194101,1737283054.194704,82.000000,0.000000,4332.692383,4351.666504,4266.666504,4317.948730,4352.692383,4357.820313,4363.205078,4549.230957,4550.384766,4557.948730,4496.666504,5639.358887,4302.948730,4264.358887,0.000000,2.000000,36.000000,,,,0.000000,0.000000,0.000000,0.000000,0.000000,0.000000,0.000000,0.000000,0.000000,0.000000,0.000000,0.000000,0.000000,0.000000,0.000000,0.000000,,,,,,,,,,,,,,,,,,,,,,,,,,,,,,,,,,,,,,,,,,,,,,,,,,,,,,,,,,,,,,,,,,,,,,,,,,,,,,,,,,,,,,,,,,,,,,,,,,,,,,,,,,,,,,,,,,,,,,,,,,,,,,,,,
1737283054.201909,1737283054.202412,83.000000,0.000000,4332.692383,4350.384766,4267.820313,4318.205078,4353.589844,4360.897461,4362.179688,4554.102539,4551.410156,4558.717773,4497.692383,5640.512695,4301.666504,4263.717773,0.000000,2.000000,36.000000,,,,0.000000,0.000000,0.000000,0.000000,0.000000,0.000000,0.000000,0.000000,0.000000,0.000000,0.000000,0.000000,0.000000,0.000000,0.000000,0.000000,,,,,,,,,,,,,,,,,,,,,,,,,,,,,,,,,,,,,,,,,,,,,,,,,,,,,,,,,,,,,,,,,,,,,,,,,,,,,,,,,,,,,,,,,,,,,,,,,,,,,,,,,,,,,,,,,,,,,,,,,,,,,,,,,
1737283054.209717,1737283054.210220,84.000000,0.000000,4329.615234,4348.077148,4265.897461,4319.871582,4350.897461,4361.538574,4365.897461,4555.641113,4553.846191,4560.128418,4495.384766,5637.051270,4301.410156,4259.871582,0.000000,2.000000,36.000000,,,,0.000000,0.000000,0.000000,0.000000,0.000000,0.000000,0.000000,0.000000,0.000000,0.000000,0.000000,0.000000,0.000000,0.000000,0.000000,0.000000,,,,,,,,,,,,,,,,,21.000000,0.000000,0.661518,-0.748169,0.036499,0.036133,-0.090831,-0.991820,-0.124527,15.110390,-31.309174,16.408976,,,,,,,,,,,,,,,,,,,,,,,,,,,,,,,,,,,,,,,,,,,,,,,,,,,,,,,,,,,,,,,,,,,,,,,,,,,,,,,,,,,,,,,,,,,,,,,,,,,,,
1737283054.217525,1737283054.217928,85.000000,0.000000,4331.794922,4350.512695,4268.974121,4322.692383,4349.871582,4359.743652,4364.871582,4550.641113,4551.666504,4559.615234,4494.487305,5639.230957,4308.461426,4262.436035,0.000000,2.000000,36.000000,,,,0.000000,0.000000,0.000000,0.000000,0.000000,0.000000,0.000000,0.000000,0.000000,0.000000,0.000000,0.000000,0.000000,0.000000,0.000000,0.000000,,,,,,,,,,,,,,,,,,,,,,,,,,,,,,,,,,,,,,,,,,,,,,,,,,,,,,,,,,,,,,,,,,,,,,,,,,,,,,,,,,,,,,,,,,,,,,,,,,,,,,,,,,,,,,,,,,,,,,,,,,,,,,,,,
1737283054.225333,1737283054.225836,86.000000,0.000000,4331.153809,4350.000000,4267.436035,4319.871582,4350.769043,4360.256348,4360.769043,4551.538574,4550.256348,4557.948730,4492.692383,5638.846191,4306.794922,4255.641113,0.000000,2.000000,36.000000,,,,0.000000,0.000000,0.000000,0.000000,0.000000,0.000000,0.000000,0.000000,0.000000,0.000000,0.000000,0.000000,0.000000,0.000000,0.000000,0.000000,,,,,,,,,,,,,,,,,,,,,,,,,,,,,,,,,,,,,,,,,,,,,,,,,,,,,,,,,,,,,,,,,,,,,,,,,,,,,,,,,,,,,,,,,,,,,,,,,,,,,,,,,,,,,,,,,,,,,,,,,,,,,,,,,
1737283054.233142,1737283054.233644,87.000000,0.000000,4330.000000,4349.358887,4265.769043,4317.948730,4352.948730,4360.000000,4358.333496,4554.871582,4549.487305,4560.256348,4496.153809,5642.051270,4302.692383,4259.871582,0.000000,2.000000,36.000000,,,,0.000000,0.000000,0.000000,0.000000,0.000000,0.000000,0.000000,0.000000,0.000000,0.000000,0.000000,0.000000,0.000000,0.000000,0.000000,0.000000,,,,,,,,,,,,,,,,,,,,,,,,,,,,,,,,,,,,,,,,,,,,,,,,,,,,,,,,,,,,,,,,,,,,,,,,,,,,,,,,,,,,,,,,,,,,,,,,,,,,,,,,,,,,,,,,,,,,,,,,,,,,,,,,,
1737283054.240950,1737283054.241453,88.000000,0.000000,4329.358887,4349.102539,4265.000000,4320.256348,4355.512695,4358.461426,4360.897461,4554.743652,4548.205078,4562.436035,4497.436035,5641.410156,4304.743652,4267.820313,0.000000,2.000000,36.000000,,,,0.000000,0.000000,0.000000,0.000000,0.000000,0.000000,0.000000,0.000000,0.000000,0.000000,0.000000,0.000000,0.000000,0.000000,0.000000,0.000000,,,,,,,,,,,,,,,,,22.000000,0.000000,0.661521,-0.748169,0.036499,0.036072,-0.106458,-0.979123,-0.124527,15.316017,-31.244923,16.468079,,,,,,,,,,,,,,,,,,,,,,,,,,,,,,,,,,,,,,,,,,,,,,,,,,,,,,,,,,,,,,,,,,,,,,,,,,,,,,,,,,,,,,,,,,,,,,,,,,,,,
1737283054.248758,1737283054.249161,89.000000,0.000000,4327.563965,4348.974121,4265.256348,4321.794922,4355.128418,4360.128418,4363.333496,4552.307617,4550.512695,4559.871582,4492.307617,5634.487305,4307.179688,4260.256348,0.000000,2.000000,36.000000,,,,0.000000,0.000000,0.000000,0.000000,0.000000,0.000000,0.000000,0.000000,0.000000,0.000000,0.000000,0.000000,0.000000,0.000000,0.000000,0.000000,,,,,,,,,,,,,,,,,,,,,,,,,,,,,,,,,,,,,,,,,,,,,,,,,,,,,,,,,,,,,,,,,,,,,,,,,,,,,,,,,,,,,,,,,,,,,,,,,,,,,,,,,,,,,,,,,,,,,,,,,,,,,,,,,
1737283054.256566,1737283054.257069,90.000000,0.000000,4332.307617,4353.077148,4271.922852,4322.179688,4351.666504,4361.025879,4362.820313,4550.000000,4550.897461,4556.410156,4492.436035,5640.641113,4307.563965,4261.410156,0.000000,2.000000,36.000000,,,,0.000000,0.000000,0.000000,0.000000,0.000000,0.000000,0.000000,0.000000,0.000000,0.000000,0.000000,0.000000,0.000000,0.000000,0.000000,0.000000,,,,,,,,,,,,,,,,,,,,,,,,,,,,,,,,,,,,,,,,,,,,,,,,,,,,,,,,,,,,,,,,,,,,,,,,,,,,,,,,,,,,,,,,,,,,,,,,,,,,,,,,,,,,,,,,,,,,,,,,,,,,,,,,,
1737283054.264374,1737283054.264877,91.000000,0.000000,4334.358887,4352.563965,4268.205078,4319.358887,4350.128418,4359.358887,4367.948730,4553.461426,4550.641113,4557.179688,4496.025879,5642.051270,4302.948730,4262.051270,0.000000,2.000000,36.000000,,,,0.000000,0.000000,0.000000,0.000000,0.000000,0.000000,0.000000,0.000000,0.000000,0.000000,0.000000,0.000000,0.000000,0.000000,0.000000,0.000000,,,,,,,,,,,,,,,,,,,,,,,,,,,,,,,,,,,,,,,,,,,,,,,,,,,,,,,,,,,,,,,,,,,,,,,,,,,,,,,,,,,,,,,,,,,,,,,,,,,,,,,,,,,,,,,,,,,,,,,,,,,,,,,,,
1737283054.272182,1737283054.272685,92.000000,0.000000,4332.307617,4349.615234,4264.230957,4319.230957,4353.846191,4358.974121,4367.307617,4555.128418,4550.641113,4560.128418,4499.615234,5639.230957,4304.487305,4259.743652,0.000000,2.000000,36.000000,,,,0.000000,0.000000,0.000000,0.000000,0.000000,0.000000,0.000000,0.000000,0.000000,0.000000,0.000000,0.000000,0.000000,0.000000,0.000000,0.000000,,,,,,,,,,,,,,,,,23.000000,0.000000,0.661521,-0.748169,0.036499,0.036072,-0.088878,-0.982542,-0.123550,15.217750,-31.237097,16.521271,,,,,,,,,,,,,,,,,,,,,,,,,,,,,,,,0.015740,0.033953,0.036440,0.033926,0.034809,0.023693,0.030576,0.020298,0.022285,0.022145,0.026244,0.048870,0.020972,0.013153,0.026094,0.026731,0.027930,0.020058,0.008512,0.030284,0.008801,0.017222,0.014516,0.014200,0.022956,0.012902,0.050472,0.019777,0.014391,0.036979,0.023046,0.042129,0.028912,0.028762,0.031146,0.023539,0.008718,0.019565,0.022906,0.025468,0.012134,0.035530,0.020204,0.020304,0.033500,0.026791,0.029591,0.042616,0.037134,0.030146,0.028844,0.020803,0.018701,0.022171,0.029421,0.012728,0.021548,0.023966,0.025099,0.033255,0.033397,0.018080,0.029042,0.023288,0.018822,0.042543,0.027535,0.018883,0.027382,0.027852
1737283054.279990,1737283054.280393,93.000000,0.000000,4331.025879,4350.000000,4269.487305,4321.538574,4356.410156,4359.743652,4363.333496,4550.512695,4548.205078,4559.230957,4498.717773,5639.615234,4306.538574,4260.384766,0.000000,2.000000,36.000000,,,,0.000000,0.000000,0.000000,0.000000,0.000000,0.000000,0.000000,0.000000,0.000000,0.000000,0.000000,0.000000,0.000000,0.000000,0.000000,0.000000,,,,,,,,,,,,,,,,,,,,,,,,,,,,,,,,,,,,,,,,,,,,,,,,,,,,,,,,,,,,,,,,,,,,,,,,,,,,,,,,,,,,,,,,,,,,,,,,,,,,,,,,,,,,,,,,,,,,,,,,,,,,,,,,,
1737283054.287798,1737283054.288301,94.000000,0.000000,4329.230957,4349.358887,4269.358887,4318.717773,4354.615234,4360.512695,4366.153809,4549.230957,4549.230957,4558.077148,4494.615234,5635.256348,4302.692383,4259.358887,0.000000,2.000000,36.000000,,,,0.000000,0.000000,0.000000,0.000000,0.000000,0.000000,0.000000,0.000000,0.000000,0.000000,0.000000,0.000000,0.000000,0.000000,0.000000,0.000000,,,,,,,,,,,,,,,,,,,,,,,,,,,,,,,,,,,,,,,,,,,,,,,,,,,,,,,,,,,,,,,,,,,,,,,,,,,,,,,,,,,,,,,,,,,,,,,,,,,,,,,,,,,,,,,,,,,,,,,,,,,,,,,,,
1737283054.295606,1737283054.296109,95.000000,0.000000,4330.256348,4349.871582,4267.563965,4318.205078,4354.871582,4360.641113,4362.820313,4551.666504,4550.384766,4560.769043,4497.948730,5635.897461,4306.794922,4264.615234,0.000000,2.000000,36.000000,,,,0.000000,0.000000,0.000000,0.000000,0.000000,0.000000,0.000000,0.000000,0.000000,0.000000,0.000000,0.000000,0.000000,0.000000,0.000000,0.000000,,,,,,,,,,,,,,,,,,,,,,,,,,,,,,,,,,,,,,,,,,,,,,,,,,,,,,,,,,,,,,,,,,,,,,,,,,,,,,,,,,,,,,,,,,,,,,,,,,,,,,,,,,,,,,,,,,,,,,,,,,,,,,,,,
1737283054.303414,1737283054.304017,96.000000,0.000000,4330.384766,4349.743652,4265.000000,4318.717773,4355.128418,4360.512695,4359.615234,4554.102539,4549.487305,4562.436035,4497.307617,5636.410156,4307.179688,4261.025879,0.000000,2.000000,36.000000,,,,0.000000,0.000000,0.000000,0.000000,0.000000,0.000000,0.000000,0.000000,0.000000,0.000000,0.000000,0.000000,0.000000,0.000000,0.000000,0.000000,,,,,,,,,,,,,,,,,24.000000,0.000000,0.661528,-0.748169,0.036377,0.036072,-0.088390,-0.975705,-0.120620,15.312641,-31.246721,16.502476,,,,,,,,,,,,,,,,,,,,,,,,,,,,,,,,,,,,,,,,,,,,,,,,,,,,,,,,,,,,,,,,,,,,,,,,,,,,,,,,,,,,,,,,,,,,,,,,,,,,,
1737283054.311222,1737283054.311825,97.000000,0.000000,4332.051270,4350.256348,4264.487305,4318.461426,4353.461426,4358.974121,4360.256348,4553.974121,4551.153809,4559.102539,4493.205078,5638.461426,4303.974121,4259.487305,0.000000,2.000000,36.000000,,,,0.000000,0.000000,0.000000,0.000000,0.000000,0.000000,0.000000,0.000000,0.000000,0.000000,0.000000,0.000000,0.000000,0.000000,0.000000,0.000000,,,,,,,,,,,,,,,,,,,,,,,,,,,,,,,,,,,,,,,,,,,,,,,,,,,,,,,,,,,,,,,,,,,,,,,,,,,,,,,,,,,,,,,,,,,,,,,,,,,,,,,,,,,,,,,,,,,,,,,,,,,,,,,,,
1737283054.319030,1737283054.319733,98.000000,0.000000,4331.794922,4351.153809,4268.846191,4320.769043,4353.461426,4358.205078,4360.384766,4551.410156,4552.307617,4557.563965,4494.487305,5640.256348,4306.666504,4263.974121,0.000000,2.000000,36.000000,,,,0.000000,0.000000,0.000000,0.000000,0.000000,0.000000,0.000000,0.000000,0.000000,0.000000,0.000000,0.000000,0.000000,0.000000,0.000000,0.000000,,,,,,,,,,,,,,,,,,,,,,,,,,,,,,,,,,,,,,,,,,,,,,,,,,,,,,,,,,,,,,,,,,,,,,,,,,,,,,,,,,,,,,,,,,,,,,,,,,,,,,,,,,,,,,,,,,,,,,,,,,,,,,,,,
1737283054.326839,1737283054.327541,99.000000,0.000000,4327.820313,4349.615234,4268.077148,4322.179688,4352.692383,4360.512695,4363.846191,4552.820313,4547.563965,4558.333496,4494.230957,5635.897461,4304.743652,4257.948730,0.000000,2.000000,36.000000,,,,0.000000,0.000000,0.000000,0.000000,0.000000,0.000000,0.000000,0.000000,0.000000,0.000000,0.000000,0.000000,0.000000,0.000000,0.000000,0.000000,,,,,,,,,,,,,,,,,,,,,,,,,,,,,,,,,,,,,,,,,,,,,,,,,,,,,,,,,,,,,,,,,,,,,,,,,,,,,,,,,,,,,,,,,,,,,,,,,,,,,,,,,,,,,,,,,,,,,,,,,,,,,,,,,
1737283054.334647,1737283054.335249,100.000000,0.000000,4330.897461,4352.179688,4267.692383,4323.077148,4351.410156,4361.794922,4363.205078,4553.589844,4544.871582,4557.307617,4494.743652,5639.871582,4303.846191,4261.794922,0.000000,2.000000,36.000000,,,,0.000000,0.000000,0.000000,0.000000,0.000000,0.000000,0.000000,0.000000,0.000000,0.000000,0.000000,0.000000,0.000000,0.000000,0.000000,0.000000,,,,,,,,,,,,,,,,,25.000000,0.000000,0.661597,-0.748108,0.036377,0.036072,-0.110365,-0.988890,-0.131852,15.164710,-31.155382,16.468895,,,,,,,,,,,,,,,,,,,,,,,,,,,,,,,,,,,,,,,,,,,,,,,,,,,,,,,,,,,,,,,,,,,,,,,,,,,,,,,,,,,,,,,,,,,,,,,,,,,,,
1737283054.342455,1737283054.343157,101.000000,0.000000,4331.794922,4352.051270,4265.512695,4320.000000,4352.436035,4361.025879,4361.410156,4552.948730,4549.230957,4557.563965,4494.102539,5639.871582,4305.384766,4264.615234,0.000000,2.000000,36.000000,,,,0.000000,0.000000,0.000000,0.000000,0.000000,0.000000,0.000000,0.000000,0.000000,0.000000,0.000000,0.000000,0.000000,0.000000,0.000000,0.000000,,,,,,,,,,,,,,,,,,,,,,,,,,,,,,,,,,,,,,,,,,,,,,,,,,,,,,,,,,,,,,,,,,,,,,,,,,,,,,,,,,,,,,,,,,,,,,,,,,,,,,,,,,,,,,,,,,,,,,,,,,,,,,,,,
1737283054.350263,1737283054.350965,102.000000,0.000000,4329.102539,4350.256348,4266.282227,4319.102539,4352.820313,4358.974121,4362.051270,4555.512695,4553.589844,4559.871582,4496.282227,5637.307617,4304.230957,4260.256348,0.000000,2.000000,36.000000,,,,0.000000,0.000000,0.000000,0.000000,0.000000,0.000000,0.000000,0.000000,0.000000,0.000000,0.000000,0.000000,0.000000,0.000000,0.000000,0.000000,,,,,,,,,,,,,,,,,,,,,,,,,,,,,,,,,,,,,,,,,,,,,,,,,,,,,,,,,,,,,,,,,,,,,,,,,,,,,,,,,,,,,,,,,,,,,,,,,,,,,,,,,,,,,,,,,,,,,,,,,,,,,,,,,
1737283054.358071,1737283054.358773,103.000000,0.000000,4332.307617,4352.692383,4270.128418,4321.538574,4353.077148,4357.179688,4363.717773,4556.025879,4553.077148,4561.025879,4502.692383,5642.179688,4303.717773,4262.307617,0.000000,2.000000,36.000000,,,,0.000000,0.000000,0.000000,0.000000,0.000000,0.000000,0.000000,0.000000,0.000000,0.000000,0.000000,0.000000,0.000000,0.000000,0.000000,0.000000,,,,,,,,,,,,,,,,,,,,,,,,,,,,,,,,,,,,,,,,,,,,,,,,,,,,,,,,,,,,,,,,,,,,,,,,,,,,,,,,,,,,,,,,,,,,,,,,,,,,,,,,,,,,,,,,,,,,,,,,,,,,,,,,,
1737283054.365879,1737283054.366481,104.000000,0.000000,4331.153809,4352.436035,4266.282227,4318.205078,4353.717773,4359.615234,4367.948730,4553.974121,4549.615234,4559.871582,4497.948730,5640.384766,4301.922852,4260.128418,0.000000,2.000000,36.000000,,,,0.000000,0.000000,0.000000,0.000000,0.000000,0.000000,0.000000,0.000000,0.000000,0.000000,0.000000,0.000000,0.000000,0.000000,0.000000,0.000000,,,,,,,,,,,,,,,,,26.000000,0.000000,0.661597,-0.748108,0.036316,0.036133,-0.108412,-0.975217,-0.126969,15.198239,-31.073177,16.438673,,,,,,,,,,,,,,,,,,,,,,,,,,,,,,,,,,,,,,,,,,,,,,,,,,,,,,,,,,,,,,,,,,,,,,,,,,,,,,,,,,,,,,,,,,,,,,,,,,,,,
1737283054.373687,1737283054.374289,105.000000,0.000000,4329.487305,4351.922852,4266.538574,4319.871582,4353.077148,4361.666504,4365.256348,4551.922852,4546.922852,4558.461426,4495.000000,5638.846191,4305.128418,4263.717773,0.000000,2.000000,36.000000,,,,0.000000,0.000000,0.000000,0.000000,0.000000,0.000000,0.000000,0.000000,0.000000,0.000000,0.000000,0.000000,0.000000,0.000000,0.000000,0.000000,,,,,,,,,,,,,,,,,,,,,,,,,,,,,,,,,,,,,,,,,,,,,,,,,,,,,,,,,,,,,,,,,,,,,,,,,,,,,,,,,,,,,,,,,,,,,,,,,,,,,,,,,,,,,,,,,,,,,,,,,,,,,,,,,
1737283054.381495,1737283054.381997,106.000000,0.000000,4332.179688,4349.230957,4266.922852,4321.153809,4353.077148,4360.641113,4361.153809,4552.436035,4549.102539,4557.436035,4498.205078,5638.589844,4307.307617,4264.743652,0.000000,2.000000,36.000000,,,,0.000000,0.000000,0.000000,0.000000,0.000000,0.000000,0.000000,0.000000,0.000000,0.000000,0.000000,0.000000,0.000000,0.000000,0.000000,0.000000,,,,,,,,,,,,,,,,,,,,,,,,,,,,,,,,,,,,,,,,,,,,,,,,,,,,,,,,,,,,,,,,,,,,,,,,,,,,,,,,,,,,,,,,,,,,,,,,,,,,,,,,,,,,,,,,,,,,,,,,,,,,,,,,,
1737283054.389303,1737283054.389805,107.000000,0.000000,4332.948730,4348.077148,4264.615234,4316.410156,4354.358887,4358.205078,4361.922852,4554.102539,4552.179688,4558.333496,4497.692383,5639.871582,4304.615234,4260.384766,0.000000,2.000000,36.000000,,,,0.000000,0.000000,0.000000,0.000000,0.000000,0.000000,0.000000,0.000000,0.000000,0.000000,0.000000,0.000000,0.000000,0.000000,0.000000,0.000000,,,,,,,,,,,,,,,,,,,,,,,,,,,,,,,,,,,,,,,,,,,,,,,,,,,,,,,,,,,,,,,,,,,,,,,,,,,,,,,,,,,,,,,,,,,,,,,,,,,,,,,,,,,,,,,,,,,,,,,,,,,,,,,,,
1737283054.397111,1737283054.397513,108.000000,0.000000,4333.205078,4350.384766,4266.794922,4317.692383,4353.333496,4356.025879,4362.051270,4551.922852,4550.384766,4559.487305,4496.794922,5643.461426,4305.000000,4266.410156,0.000000,2.000000,36.000000,,,,0.000000,0.000000,0.000000,0.000000,0.000000,0.000000,0.000000,0.000000,0.000000,0.000000,0.000000,0.000000,0.000000,0.000000,0.000000,0.000000,1.000000,0.000000,0.000000,0.000000,0.000000,0.000000,0.000000,0.000000,0.000000,0.000000,0.000000,0.000000,0.000000,0.000000,0.000000,0.000000,27.000000,0.000000,0.661662,-0.748047,0.036438,0.036072,-0.098157,-0.980588,-0.133805,15.228415,-31.132526,16.461472,,,,,,,,,,,,,,,,,,,,,,,,,,,,,,,,0.018573,0.034837,0.037832,0.033626,0.033586,0.021943,0.030346,0.021397,0.026448,0.025678,0.027701,0.051799,0.021984,0.013551,0.027636,0.027593,0.031557,0.016852,0.009556,0.030453,0.007795,0.013328,0.015029,0.018274,0.023525,0.014952,0.040546,0.017047,0.015311,0.036116,0.022619,0.035450,0.026684,0.026046,0.027134,0.028646,0.009602,0.015770,0.022377,0.026020,0.011672,0.035948,0.020153,0.021462,0.033206,0.029038,0.029999,0.041948,0.035083,0.030194,0.034010,0.023573,0.021731,0.020913,0.030455,0.015947,0.018746,0.025928,0.026743,0.033340,0.036178,0.019515,0.024749,0.022229,0.019269,0.045751,0.032143,0.019639,0.025377,0.031726
1737283054.404920,1737283054.405422,109.000000,0.000000,4330.769043,4346.794922,4265.128418,4320.384766,4351.666504,4357.436035,4361.282227,4549.871582,4549.358887,4556.922852,4495.256348,5638.333496,4304.358887,4265.128418,0.000000,2.000000,36.000000,,,,0.000000,0.000000,0.000000,0.000000,0.000000,0.000000,0.000000,0.000000,0.000000,0.000000,0.000000,0.000000,0.000000,0.000000,0.000000,0.000000,,,,,,,,,,,,,,,,,,,,,,,,,,,,,,,,,,,,,,,,,,,,,,,,,,,,,,,,,,,,,,,,,,,,,,,,,,,,,,,,,,,,,,,,,,,,,,,,,,,,,,,,,,,,,,,,,,,,,,,,,,,,,,,,,
1737283054.412727,1737283054.413230,110.000000,0.000000,4331.410156,4346.025879,4266.282227,4321.410156,4352.563965,4358.589844,4360.384766,4551.922852,4551.538574,4558.205078,4498.846191,5640.641113,4308.333496,4262.307617,0.000000,2.000000,36.000000,,,,0.000000,0.000000,0.000000,0.000000,0.000000,0.000000,0.000000,0.000000,0.000000,0.000000,0.000000,0.000000,0.000000,0.000000,0.000000,0.000000,,,,,,,,,,,,,,,,,,,,,,,,,,,,,,,,,,,,,,,,,,,,,,,,,,,,,,,,,,,,,,,,,,,,,,,,,,,,,,,,,,,,,,,,,,,,,,,,,,,,,,,,,,,,,,,,,,,,,,,,,,,,,,,,,
1737283054.420536,1737283054.421138,111.000000,0.000000,4332.692383,4351.538574,4268.077148,4319.615234,4353.717773,4356.922852,4363.461426,4554.487305,4550.897461,4562.179688,4501.922852,5644.358887,4308.461426,4262.436035,0.000000,2.000000,36.000000,,,,0.000000,0.000000,0.000000,0.000000,0.000000,0.000000,0.000000,0.000000,0.000000,0.000000,0.000000,0.000000,0.000000,0.000000,0.000000,0.000000,,,,,,,,,,,,,,,,,,,,,,,,,,,,,,,,,,,,,,,,,,,,,,,,,,,,,,,,,,,,,,,,,,,,,,,,,,,,,,,,,,,,,,,,,,,,,,,,,,,,,,,,,,,,,,,,,,,,,,,,,,,,,,,,,
1737283054.428344,1737283054.428946,112.000000,0.000000,4330.897461,4352.179688,4265.512695,4317.307617,4353.461426,4358.717773,4365.256348,4554.358887,4549.487305,4560.769043,4497.692383,5635.897461,4302.051270,4258.205078,0.000000,2.000000,36.000000,,,,0.000000,0.000000,0.000000,0.000000,0.000000,0.000000,0.000000,0.000000,0.000000,0.000000,0.000000,0.000000,0.000000,0.000000,0.000000,0.000000,,,,,,,,,,,,,,,,,28.000000,0.000000,0.661656,-0.748047,0.036438,0.036194,-0.100110,-0.981077,-0.122574,15.072241,-31.152607,16.498659,,,,,,,,,,,,,,,,,,,,,,,,,,,,,,,,,,,,,,,,,,,,,,,,,,,,,,,,,,,,,,,,,,,,,,,,,,,,,,,,,,,,,,,,,,,,,,,,,,,,,
1737283054.436152,1737283054.436854,113.000000,0.000000,4331.922852,4348.077148,4267.179688,4318.846191,4352.563965,4362.436035,4359.487305,4553.846191,4551.538574,4557.820313,4497.692383,5636.922852,4305.641113,4263.846191,0.000000,2.000000,36.000000,,,,0.000000,0.000000,0.000000,0.000000,0.000000,0.000000,0.000000,0.000000,0.000000,0.000000,0.000000,0.000000,0.000000,0.000000,0.000000,0.000000,,,,,,,,,,,,,,,,,,,,,,,,,,,,,,,,,,,,,,,,,,,,,,,,,,,,,,,,,,,,,,,,,,,,,,,,,,,,,,,,,,,,,,,,,,,,,,,,,,,,,,,,,,,,,,,,,,,,,,,,,,,,,,,,,
1737283054.443960,1737283054.444662,114.000000,0.000000,4329.615234,4347.051270,4265.769043,4317.563965,4352.692383,4360.769043,4361.153809,4553.589844,4552.948730,4557.436035,4497.436035,5640.769043,4308.077148,4265.897461,0.000000,2.000000,36.000000,,,,0.000000,0.000000,0.000000,0.000000,0.000000,0.000000,0.000000,0.000000,0.000000,0.000000,0.000000,0.000000,0.000000,0.000000,0.000000,0.000000,,,,,,,,,,,,,,,,,,,,,,,,,,,,,,,,,,,,,,,,,,,,,,,,,,,,,,,,,,,,,,,,,,,,,,,,,,,,,,,,,,,,,,,,,,,,,,,,,,,,,,,,,,,,,,,,,,,,,,,,,,,,,,,,,
1737283054.451768,1737283054.452570,115.000000,0.000000,4331.794922,4349.487305,4264.615234,4318.717773,4355.128418,4357.563965,4364.615234,4553.077148,4550.384766,4557.948730,4494.871582,5639.871582,4305.384766,4263.333496,0.000000,2.000000,36.000000,,,,0.000000,0.000000,0.000000,0.000000,0.000000,0.000000,0.000000,0.000000,0.000000,0.000000,0.000000,0.000000,0.000000,0.000000,0.000000,0.000000,,,,,,,,,,,,,,,,,,,,,,,,,,,,,,,,,,,,,,,,,,,,,,,,,,,,,,,,,,,,,,,,,,,,,,,,,,,,,,,,,,,,,,,,,,,,,,,,,,,,,,,,,,,,,,,,,,,,,,,,,,,,,,,,,
1737283054.459576,1737283054.460379,116.000000,0.000000,4332.692383,4348.077148,4265.256348,4321.922852,4355.641113,4358.077148,4363.589844,4553.461426,4549.230957,4557.563965,4495.512695,5640.512695,4305.641113,4263.717773,0.000000,2.000000,36.000000,,,,0.000000,0.000000,0.000000,0.000000,0.000000,0.000000,0.000000,0.000000,0.000000,0.000000,0.000000,0.000000,0.000000,0.000000,0.000000,0.000000,,,,,,,,,,,,,,,,,29.000000,0.000000,0.661587,-0.748108,0.036438,0.036194,-0.095715,-0.988402,-0.126480,15.048349,-31.270679,16.448792,,,,,,,,,,,,,,,,,,,,,,,,,,,,,,,,,,,,,,,,,,,,,,,,,,,,,,,,,,,,,,,,,,,,,,,,,,,,,,,,,,,,,,,,,,,,,,,,,,,,,
1737283054.467384,1737283054.468287,117.000000,0.000000,4327.948730,4346.666504,4262.820313,4318.974121,4352.179688,4359.230957,4368.077148,4554.230957,4549.743652,4558.846191,4496.410156,5637.820313,4302.948730,4259.743652,0.000000,2.000000,36.000000,,,,0.000000,0.000000,0.000000,0.000000,0.000000,0.000000,0.000000,0.000000,0.000000,0.000000,0.000000,0.000000,0.000000,0.000000,0.000000,0.000000,,,,,,,,,,,,,,,,,,,,,,,,,,,,,,,,,,,,,,,,,,,,,,,,,,,,,,,,,,,,,,,,,,,,,,,,,,,,,,,,,,,,,,,,,,,,,,,,,,,,,,,,,,,,,,,,,,,,,,,,,,,,,,,,,
1737283054.475192,1737283054.476095,118.000000,0.000000,4332.179688,4351.538574,4266.025879,4315.897461,4351.282227,4359.615234,4365.641113,4553.077148,4549.102539,4559.487305,4498.589844,5642.179688,4303.205078,4262.563965,0.000000,2.000000,36.000000,,,,0.000000,0.000000,0.000000,0.000000,0.000000,0.000000,0.000000,0.000000,0.000000,0.000000,0.000000,0.000000,0.000000,0.000000,0.000000,0.000000,,,,,,,,,,,,,,,,,,,,,,,,,,,,,,,,,,,,,,,,,,,,,,,,,,,,,,,,,,,,,,,,,,,,,,,,,,,,,,,,,,,,,,,,,,,,,,,,,,,,,,,,,,,,,,,,,,,,,,,,,,,,,,,,,
1737283054.483000,1737283054.484003,119.000000,0.000000,4332.692383,4352.692383,4266.538574,4317.948730,4354.487305,4358.974121,4361.282227,4552.948730,4550.128418,4555.641113,4496.153809,5642.307617,4302.948730,4260.769043,0.000000,2.000000,36.000000,,,,0.000000,0.000000,0.000000,0.000000,0.000000,0.000000,0.000000,0.000000,0.000000,0.000000,0.000000,0.000000,0.000000,0.000000,0.000000,0.000000,,,,,,,,,,,,,,,,,,,,,,,,,,,,,,,,,,,,,,,,,,,,,,,,,,,,,,,,,,,,,,,,,,,,,,,,,,,,,,,,,,,,,,,,,,,,,,,,,,,,,,,,,,,,,,,,,,,,,,,,,,,,,,,,,
1737283054.490808,1737283054.491811,120.000000,0.000000,4328.205078,4351.922852,4264.871582,4318.846191,4355.769043,4356.410156,4362.179688,4552.563965,4550.897461,4558.846191,4493.077148,5637.820313,4302.436035,4257.179688,0.000000,2.000000,36.000000,,,,0.000000,0.000000,0.000000,0.000000,0.000000,0.000000,0.000000,0.000000,0.000000,0.000000,0.000000,0.000000,0.000000,0.000000,0.000000,0.000000,,,,,,,,,,,,,,,,,30.000000,0.000000,0.661580,-0.748108,0.036499,0.036255,-0.101087,-0.981077,-0.118667,15.226848,-31.176945,16.587246,,,,,,,,,,,,,,,,,,,,,,,,,,,,,,,,,,,,,,,,,,,,,,,,,,,,,,,,,,,,,,,,,,,,,,,,,,,,,,,,,,,,,,,,,,,,,,,,,,,,,
1737283054.498617,1737283054.499719,121.000000,0.000000,4330.128418,4353.846191,4267.820313,4315.897461,4354.743652,4356.410156,4360.000000,4550.769043,4550.256348,4565.641113,4495.769043,5641.410156,4305.000000,4260.384766,0.000000,2.000000,36.000000,,,,0.000000,0.000000,0.000000,0.000000,0.000000,0.000000,0.000000,0.000000,0.000000,0.000000,0.000000,0.000000,0.000000,0.000000,0.000000,0.000000,,,,,,,,,,,,,,,,,,,,,,,,,,,,,,,,,,,,,,,,,,,,,,,,,,,,,,,,,,,,,,,,,,,,,,,,,,,,,,,,,,,,,,,,,,,,,,,,,,,,,,,,,,,,,,,,,,,,,,,,,,,,,,,,,
1737283054.506425,1737283054.507527,122.000000,0.000000,4334.487305,4350.000000,4265.256348,4316.794922,4354.102539,4360.384766,4360.769043,4551.666504,4552.051270,4560.000000,4494.743652,5640.256348,4304.358887,4258.077148,0.000000,2.000000,36.000000,,,,0.000000,0.000000,0.000000,0.000000,0.000000,0.000000,0.000000,0.000000,0.000000,0.000000,0.000000,0.000000,0.000000,0.000000,0.000000,0.000000,,,,,,,,,,,,,,,,,,,,,,,,,,,,,,,,,,,,,,,,,,,,,,,,,,,,,,,,,,,,,,,,,,,,,,,,,,,,,,,,,,,,,,,,,,,,,,,,,,,,,,,,,,,,,,,,,,,,,,,,,,,,,,,,,
1737283054.514233,1737283054.515335,123.000000,0.000000,4337.179688,4349.102539,4266.153809,4320.897461,4353.974121,4359.615234,4363.333496,4552.563965,4552.820313,4553.333496,4494.615234,5639.487305,4304.615234,4260.256348,0.000000,2.000000,36.000000,,,,0.000000,0.000000,0.000000,0.000000,0.000000,0.000000,0.000000,0.000000,0.000000,0.000000,0.000000,0.000000,0.000000,0.000000,0.000000,0.000000,,,,,,,,,,,,,,,,,,,,,,,,,,,,,,,,,,,,,,,,,,,,,,,,,,,,,,,,,,,,,,,,,,,,,,,,,,,,,,,,,,,,,,,,,,,,,,,,,,,,,,,,,,,,,,,,,,,,,,,,,,,,,,,,,
1737283054.522041,1737283054.523143,124.000000,0.000000,4334.743652,4348.589844,4270.128418,4317.948730,4353.333496,4357.436035,4366.666504,4552.820313,4551.282227,4557.948730,4495.769043,5640.256348,4303.205078,4258.333496,0.000000,2.000000,36.000000,,,,0.000000,0.000000,0.000000,0.000000,0.000000,0.000000,0.000000,0.000000,0.000000,0.000000,0.000000,0.000000,0.000000,0.000000,0.000000,0.000000,,,,,,,,,,,,,,,,,31.000000,0.000000,0.661646,-0.748047,0.036560,0.036255,-0.103528,-0.976682,-0.118178,15.220830,-31.092583,16.545189,,,,,,,,,,,,,,,,,,,,,,,,,,,,,,,,0.021623,0.036075,0.037729,0.034670,0.031523,0.020407,0.028427,0.023228,0.029729,0.029313,0.028553,0.054184,0.022989,0.014569,0.029800,0.028908,0.034068,0.015143,0.011188,0.030888,0.008189,0.011343,0.016283,0.023648,0.023863,0.016357,0.029891,0.015002,0.016786,0.034228,0.024648,0.029236,0.024031,0.024186,0.023440,0.034334,0.012680,0.013242,0.021243,0.025981,0.012669,0.034582,0.020946,0.022470,0.032596,0.033652,0.029177,0.040746,0.031453,0.031217,0.039701,0.026708,0.025752,0.019672,0.029964,0.020782,0.015663,0.029240,0.028112,0.032772,0.038292,0.021120,0.020133,0.022367,0.020146,0.050098,0.038366,0.020299,0.023035,0.034526
1737283054.529849,1737283054.530851,125.000000,0.000000,4332.692383,4346.282227,4270.128418,4315.128418,4352.820313,4357.948730,4366.538574,4551.794922,4551.922852,4559.615234,4494.743652,5641.153809,4303.077148,4255.769043,0.000000,2.000000,36.000000,,,,0.000000,0.000000,0.000000,0.000000,0.000000,0.000000,0.000000,0.000000,0.000000,0.000000,0.000000,0.000000,0.000000,0.000000,0.000000,0.000000,,,,,,,,,,,,,,,,,,,,,,,,,,,,,,,,,,,,,,,,,,,,,,,,,,,,,,,,,,,,,,,,,,,,,,,,,,,,,,,,,,,,,,,,,,,,,,,,,,,,,,,,,,,,,,,,,,,,,,,,,,,,,,,,,
1737283054.537657,1737283054.538659,126.000000,0.000000,4333.974121,4350.769043,4268.717773,4322.051270,4352.820313,4358.589844,4361.282227,4550.769043,4553.077148,4556.282227,4494.615234,5641.922852,4307.179688,4263.333496,0.000000,2.000000,36.000000,,,,0.000000,0.000000,0.000000,0.000000,0.000000,0.000000,0.000000,0.000000,0.000000,0.000000,0.000000,0.000000,0.000000,0.000000,0.000000,0.000000,,,,,,,,,,,,,,,,,,,,,,,,,,,,,,,,,,,,,,,,,,,,,,,,,,,,,,,,,,,,,,,,,,,,,,,,,,,,,,,,,,,,,,,,,,,,,,,,,,,,,,,,,,,,,,,,,,,,,,,,,,,,,,,,,
1737283054.545465,1737283054.546367,127.000000,0.000000,4332.307617,4351.666504,4265.000000,4324.615234,4353.333496,4360.897461,4361.282227,4554.358887,4550.384766,4556.666504,4493.589844,5635.897461,4305.256348,4263.717773,36.000000,2.000000,36.000000,,,,0.000000,0.000000,0.000000,0.000000,0.000000,0.000000,0.000000,0.000000,0.000000,0.000000,0.000000,0.000000,0.000000,0.000000,0.000000,0.000000,,,,,,,,,,,,,,,,,,,,,,,,,,,,,,,,,,,,,,,,,,,,,,,,,,,,,,,,,,,,,,,,,,,,,,,,,,,,,,,,,,,,,,,,,,,,,,,,,,,,,,,,,,,,,,,,,,,,,,,,,,,,,,,,,
1737283054.553273,1737283054.554175,0.000000,0.000000,4332.820313,4350.384766,4268.974121,4320.641113,4354.102539,4360.769043,4361.794922,4554.358887,4549.487305,4556.922852,4495.000000,5639.102539,4305.256348,4265.256348,0.000000,2.000000,36.000000,,,,0.000000,0.000000,0.000000,0.000000,0.000000,0.000000,0.000000,0.000000,0.000000,0.000000,0.000000,0.000000,0.000000,0.000000,0.000000,0.000000,,,,,,,,,,,,,,,,,0.000000,0.000000,0.661635,-0.748047,0.036682,0.036316,-0.101575,-0.984007,-0.125992,15.215414,-31.099993,16.557337,,,,,,,,,,,,,,,,,,,,,,,,,,,,,,,,,,,,,,,,,,,,,,,,,,,,,,,,,,,,,,,,,,,,,,,,,,,,,,,,,,,,,,,,,,,,,,,,,,,,,
1737283054.561081,1737283054.561883,1.000000,0.000000,4333.974121,4350.384766,4268.205078,4318.974121,4352.692383,4358.333496,4363.974121,4550.512695,4550.897461,4556.153809,4495.128418,5644.871582,4304.743652,4264.487305,0.000000,2.000000,36.000000,,,,0.000000,0.000000,0.000000,0.000000,0.000000,0.000000,0.000000,0.000000,0.000000,0.000000,0.000000,0.000000,0.000000,0.000000,0.000000,0.000000,,,,,,,,,,,,,,,,,,,,,,,,,,,,,,,,,,,,,,,,,,,,,,,,,,,,,,,,,,,,,,,,,,,,,,,,,,,,,,,,,,,,,,,,,,,,,,,,,,,,,,,,,,,,,,,,,,,,,,,,,,,,,,,,,
1737283054.568889,1737283054.569691,2.000000,0.000000,4332.820313,4349.487305,4261.282227,4317.948730,4353.333496,4359.230957,4366.153809,4550.897461,4550.128418,4555.897461,4493.589844,5640.769043,4300.256348,4259.487305,0.000000,2.000000,36.000000,,,,0.000000,0.000000,0.000000,0.000000,0.000000,0.000000,0.000000,0.000000,0.000000,0.000000,0.000000,0.000000,0.000000,0.000000,0.000000,0.000000,,,,,,,,,,,,,,,,,,,,,,,,,,,,,,,,,,,,,,,,,,,,,,,,,,,,,,,,,,,,,,,,,,,,,,,,,,,,,,,,,,,,,,,,,,,,,,,,,,,,,,,,,,,,,,,,,,,,,,,,,,,,,,,,,
1737283054.576697,1737283054.577399,3.000000,0.000000,4333.974121,4350.769043,4266.410156,4317.436035,4356.666504,4360.769043,4361.153809,4553.333496,4550.000000,4556.153809,4496.025879,5638.846191,4302.563965,4263.846191,0.000000,2.000000,36.000000,,,,0.000000,0.000000,0.000000,0.000000,0.000000,0.000000,0.000000,0.000000,0.000000,0.000000,0.000000,0.000000,0.000000,0.000000,0.000000,0.000000,,,,,,,,,,,,,,,,,,,,,,,,,,,,,,,,,,,,,,,,,,,,,,,,,,,,,,,,,,,,,,,,,,,,,,,,,,,,,,,,,,,,,,,,,,,,,,,,,,,,,,,,,,,,,,,,,,,,,,,,,,,,,,,,,
1737283054.584505,1737283054.585207,4.000000,0.000000,4331.922852,4351.153809,4267.436035,4320.256348,4354.487305,4359.358887,4360.769043,4555.384766,4552.051270,4558.461426,4497.179688,5637.948730,4302.692383,4263.205078,0.000000,2.000000,36.000000,,,,0.000000,0.000000,0.000000,0.000000,0.000000,0.000000,0.000000,0.000000,0.000000,0.000000,0.000000,0.000000,0.000000,0.000000,0.000000,0.000000,,,,,,,,,,,,,,,,,1.000000,0.000000,0.661701,-0.747986,0.036682,0.036377,-0.103040,-0.987425,-0.115248,15.177205,-31.173326,16.618269,,,,,,,,,,,,,,,,,,,,,,,,,,,,,,,,,,,,,,,,,,,,,,,,,,,,,,,,,,,,,,,,,,,,,,,,,,,,,,,,,,,,,,,,,,,,,,,,,,,,,
1737283054.592314,1737283054.592915,5.000000,0.000000,4330.641113,4352.051270,4265.000000,4322.692383,4350.641113,4359.230957,4362.563965,4555.256348,4551.922852,4560.256348,4496.410156,5639.102539,4301.410156,4260.512695,0.000000,2.000000,36.000000,,,,0.000000,0.000000,0.000000,0.000000,0.000000,0.000000,0.000000,0.000000,0.000000,0.000000,0.000000,0.000000,0.000000,0.000000,0.000000,0.000000,,,,,,,,,,,,,,,,,,,,,,,,,,,,,,,,,,,,,,,,,,,,,,,,,,,,,,,,,,,,,,,,,,,,,,,,,,,,,,,,,,,,,,,,,,,,,,,,,,,,,,,,,,,,,,,,,,,,,,,,,,,,,,,,,
1737283054.600122,1737283054.600723,6.000000,0.000000,4331.794922,4353.333496,4265.256348,4318.333496,4351.282227,4363.333496,4361.922852,4553.846191,4550.384766,4558.333496,4496.282227,5640.000000,4304.102539,4260.384766,0.000000,2.000000,36.000000,,,,0.000000,0.000000,0.000000,0.000000,0.000000,0.000000,0.000000,0.000000,0.000000,0.000000,0.000000,0.000000,0.000000,0.000000,0.000000,0.000000,,,,,,,,,,,,,,,,,,,,,,,,,,,,,,,,,,,,,,,,,,,,,,,,,,,,,,,,,,,,,,,,,,,,,,,,,,,,,,,,,,,,,,,,,,,,,,,,,,,,,,,,,,,,,,,,,,,,,,,,,,,,,,,,,
1737283054.607930,1737283054.608431,7.000000,0.000000,4330.769043,4352.179688,4262.820313,4316.666504,4352.820313,4362.692383,4362.948730,4552.820313,4549.871582,4558.974121,4495.000000,5637.436035,4304.358887,4258.589844,0.000000,2.000000,36.000000,,,,0.000000,0.000000,0.000000,0.000000,0.000000,0.000000,0.000000,0.000000,0.000000,0.000000,0.000000,0.000000,0.000000,0.000000,0.000000,0.000000,,,,,,,,,,,,,,,,,,,,,,,,,,,,,,,,,,,,,,,,,,,,,,,,,,,,,,,,,,,,,,,,,,,,,,,,,,,,,,,,,,,,,,,,,,,,,,,,,,,,,,,,,,,,,,,,,,,,,,,,,,,,,,,,,
1737283054.615738,1737283054.616339,8.000000,0.000000,4332.820313,4353.717773,4265.128418,4322.692383,4352.307617,4358.717773,4361.922852,4552.948730,4548.333496,4561.410156,4495.256348,5641.025879,4306.153809,4265.384766,0.000000,2.000000,36.000000,,,,0.000000,0.000000,0.000000,0.000000,0.000000,0.000000,0.000000,0.000000,0.000000,0.000000,0.000000,0.000000,0.000000,0.000000,0.000000,0.000000,,,,,,,,,,,,,,,,,2.000000,0.000000,0.661701,-0.747986,0.036682,0.036377,-0.087413,-0.979612,-0.125504,15.126152,-31.122660,16.706442,,,,,,,,,,,,,,,,,,,,,,,,,,,,,,,,,,,,,,,,,,,,,,,,,,,,,,,,,,,,,,,,,,,,,,,,,,,,,,,,,,,,,,,,,,,,,,,,,,,,,
1737283054.623546,1737283054.624147,9.000000,0.000000,4333.461426,4353.846191,4265.512695,4320.897461,4351.410156,4360.641113,4364.102539,4555.641113,4549.102539,4561.025879,4495.000000,5641.153809,4304.871582,4263.077148,0.000000,2.000000,36.000000,,,,0.000000,0.000000,0.000000,0.000000,0.000000,0.000000,0.000000,0.000000,0.000000,0.000000,0.000000,0.000000,0.000000,0.000000,0.000000,0.000000,,,,,,,,,,,,,,,,,,,,,,,,,,,,,,,,,,,,,,,,,,,,,,,,,,,,,,,,,,,,,,,,,,,,,,,,,,,,,,,,,,,,,,,,,,,,,,,,,,,,,,,,,,,,,,,,,,,,,,,,,,,,,,,,,
1737283054.631354,1737283054.632055,10.000000,0.000000,4332.436035,4350.641113,4264.487305,4317.820313,4352.948730,4360.897461,4363.717773,4555.000000,4552.692383,4561.794922,4497.307617,5638.461426,4304.230957,4260.641113,0.000000,2.000000,36.000000,,,,0.000000,0.000000,0.000000,0.000000,0.000000,0.000000,0.000000,0.000000,0.000000,0.000000,0.000000,0.000000,0.000000,0.000000,0.000000,0.000000,,,,,,,,,,,,,,,,,,,,,,,,,,,,,,,,,,,,,,,,,,,,,,,,,,,,,,,,,,,,,,,,,,,,,,,,,,,,,,,,,,,,,,,,,,,,,,,,,,,,,,,,,,,,,,,,,,,,,,,,,,,,,,,,,
1737283054.639162,1737283054.639864,11.000000,0.000000,4331.025879,4350.384766,4267.051270,4321.666504,4354.487305,4355.641113,4361.666504,4551.025879,4551.538574,4561.153809,4500.128418,5640.128418,4305.769043,4266.666504,0.000000,2.000000,36.000000,,,,0.000000,0.000000,0.000000,0.000000,0.000000,0.000000,0.000000,0.000000,0.000000,0.000000,0.000000,0.000000,0.000000,0.000000,0.000000,0.000000,,,,,,,,,,,,,,,,,,,,,,,,,,,,,,,,,,,,,,,,,,,,,,,,,,,,,,,,,,,,,,,,,,,,,,,,,,,,,,,,,,,,,,,,,,,,,,,,,,,,,,,,,,,,,,,,,,,,,,,,,,,,,,,,,
1737283054.646970,1737283054.647771,12.000000,0.000000,4328.974121,4349.615234,4268.589844,4321.922852,4352.051270,4354.230957,4366.025879,4552.563965,4549.615234,4556.282227,4496.282227,5637.307617,4301.794922,4261.410156,0.000000,2.000000,36.000000,,,,0.000000,0.000000,0.000000,0.000000,0.000000,0.000000,0.000000,0.000000,0.000000,0.000000,0.000000,0.000000,0.000000,0.000000,0.000000,0.000000,,,,,,,,,,,,,,,,,3.000000,0.000000,0.661698,-0.747986,0.036743,0.036377,-0.098645,-0.976682,-0.125992,15.130203,-31.127060,16.619131,,,,,,,,,,,,,,,,,,,,,,,,,,,,,,,,0.023639,0.036741,0.036509,0.036154,0.028981,0.019826,0.025863,0.025060,0.031144,0.031848,0.030318,0.055807,0.023732,0.015509,0.032085,0.030533,0.036052,0.014946,0.012882,0.031730,0.009978,0.011433,0.018250,0.028871,0.024080,0.016513,0.020927,0.014175,0.018633,0.031652,0.027625,0.025814,0.022989,0.023818,0.020833,0.038460,0.016975,0.012032,0.019803,0.025940,0.015201,0.032093,0.021689,0.023636,0.031563,0.038748,0.027266,0.038522,0.027082,0.032698,0.043958,0.029246,0.030192,0.018555,0.028385,0.025920,0.013060,0.033458,0.029854,0.031727,0.040092,0.022707,0.016655,0.023304,0.021391,0.054391,0.043481,0.021148,0.020856,0.035779
1737283054.654778,1737283054.655579,13.000000,0.000000,4331.794922,4351.153809,4270.897461,4322.179688,4350.128418,4357.948730,4364.230957,4556.538574,4551.922852,4553.974121,4493.333496,5638.461426,4303.077148,4261.666504,0.000000,2.000000,36.000000,,,,0.000000,0.000000,0.000000,0.000000,0.000000,0.000000,0.000000,0.000000,0.000000,0.000000,0.000000,0.000000,0.000000,0.000000,0.000000,0.000000,,,,,,,,,,,,,,,,,,,,,,,,,,,,,,,,,,,,,,,,,,,,,,,,,,,,,,,,,,,,,,,,,,,,,,,,,,,,,,,,,,,,,,,,,,,,,,,,,,,,,,,,,,,,,,,,,,,,,,,,,,,,,,,,,
1737283054.662586,1737283054.663487,14.000000,0.000000,4332.563965,4352.307617,4268.846191,4320.641113,4352.563965,4361.153809,4360.128418,4554.743652,4552.820313,4557.179688,4494.358887,5638.846191,4305.128418,4264.102539,0.000000,2.000000,36.000000,,,,0.000000,0.000000,0.000000,0.000000,0.000000,0.000000,0.000000,0.000000,0.000000,0.000000,0.000000,0.000000,0.000000,0.000000,0.000000,0.000000,,,,,,,,,,,,,,,,,,,,,,,,,,,,,,,,,,,,,,,,,,,,,,,,,,,,,,,,,,,,,,,,,,,,,,,,,,,,,,,,,,,,,,,,,,,,,,,,,,,,,,,,,,,,,,,,,,,,,,,,,,,,,,,,,
1737283054.670395,1737283054.671296,15.000000,0.000000,4330.897461,4351.153809,4267.307617,4319.743652,4354.743652,4361.666504,4362.051270,4551.025879,4548.974121,4559.487305,4496.282227,5637.692383,4305.256348,4263.077148,0.000000,2.000000,36.000000,,,,0.000000,0.000000,0.000000,0.000000,0.000000,0.000000,0.000000,0.000000,0.000000,0.000000,0.000000,0.000000,0.000000,0.000000,0.000000,0.000000,,,,,,,,,,,,,,,,,,,,,,,,,,,,,,,,,,,,,,,,,,,,,,,,,,,,,,,,,,,,,,,,,,,,,,,,,,,,,,,,,,,,,,,,,,,,,,,,,,,,,,,,,,,,,,,,,,,,,,,,,,,,,,,,,
1737283054.678203,1737283054.679204,16.000000,0.000000,4330.512695,4351.922852,4267.820313,4322.179688,4353.717773,4358.589844,4364.487305,4552.563965,4547.307617,4560.128418,4496.666504,5639.230957,4306.666504,4265.897461,0.000000,2.000000,36.000000,,,,0.000000,0.000000,0.000000,0.000000,0.000000,0.000000,0.000000,0.000000,0.000000,0.000000,0.000000,0.000000,0.000000,0.000000,0.000000,0.000000,,,,,,,,,,,,,,,,,4.000000,0.000000,0.661708,-0.747986,0.036682,0.036255,-0.107923,-0.983518,-0.118178,15.217183,-31.047688,16.657219,,,,,,,,,,,,,,,,,,,,,,,,,,,,,,,,,,,,,,,,,,,,,,,,,,,,,,,,,,,,,,,,,,,,,,,,,,,,,,,,,,,,,,,,,,,,,,,,,,,,,
1737283054.686011,1737283054.687012,17.000000,0.000000,4327.948730,4351.538574,4264.615234,4319.615234,4352.051270,4359.230957,4366.794922,4554.615234,4549.743652,4560.897461,4492.820313,5633.589844,4304.358887,4263.205078,0.000000,2.000000,36.000000,,,,0.000000,0.000000,0.000000,0.000000,0.000000,0.000000,0.000000,0.000000,0.000000,0.000000,0.000000,0.000000,0.000000,0.000000,0.000000,0.000000,,,,,,,,,,,,,,,,,,,,,,,,,,,,,,,,,,,,,,,,,,,,,,,,,,,,,,,,,,,,,,,,,,,,,,,,,,,,,,,,,,,,,,,,,,,,,,,,,,,,,,,,,,,,,,,,,,,,,,,,,,,,,,,,,
1737283054.693819,1737283054.694919,18.000000,0.000000,4330.512695,4351.922852,4266.025879,4319.615234,4352.051270,4361.282227,4365.256348,4550.128418,4551.153809,4558.333496,4494.615234,5636.538574,4305.256348,4265.384766,0.000000,2.000000,36.000000,,,,0.000000,0.000000,0.000000,0.000000,0.000000,0.000000,0.000000,0.000000,0.000000,0.000000,0.000000,0.000000,0.000000,0.000000,0.000000,0.000000,,,,,,,,,,,,,,,,,,,,,,,,,,,,,,,,,,,,,,,,,,,,,,,,,,,,,,,,,,,,,,,,,,,,,,,,,,,,,,,,,,,,,,,,,,,,,,,,,,,,,,,,,,,,,,,,,,,,,,,,,,,,,,,,,
1737283054.701627,1737283054.702727,19.000000,0.000000,4334.102539,4350.384766,4267.307617,4321.410156,4351.794922,4358.717773,4364.743652,4550.256348,4551.282227,4555.128418,4498.077148,5642.436035,4306.153809,4265.128418,0.000000,2.000000,36.000000,,,,0.000000,0.000000,0.000000,0.000000,0.000000,0.000000,0.000000,0.000000,0.000000,0.000000,0.000000,0.000000,0.000000,0.000000,0.000000,0.000000,,,,,,,,,,,,,,,,,,,,,,,,,,,,,,,,,,,,,,,,,,,,,,,,,,,,,,,,,,,,,,,,,,,,,,,,,,,,,,,,,,,,,,,,,,,,,,,,,,,,,,,,,,,,,,,,,,,,,,,,,,,,,,,,,
1737283054.709435,1737283054.710435,20.000000,0.000000,4330.769043,4350.641113,4265.128418,4318.717773,4352.179688,4358.077148,4362.436035,4554.615234,4551.282227,4558.589844,4497.436035,5639.358887,4304.358887,4260.769043,0.000000,2.000000,36.000000,,,,0.000000,0.000000,0.000000,0.000000,0.000000,0.000000,0.000000,0.000000,0.000000,0.000000,0.000000,0.000000,0.000000,0.000000,0.000000,0.000000,,,,,,,,,,,,,,,,,5.000000,0.000000,0.661694,-0.747986,0.036804,0.036377,-0.085948,-0.996215,-0.128922,15.062131,-31.176252,16.758163,,,,,,,,,,,,,,,,,,,,,,,,,,,,,,,,,,,,,,,,,,,,,,,,,,,,,,,,,,,,,,,,,,,,,,,,,,,,,,,,,,,,,,,,,,,,,,,,,,,,,
1737283054.717243,1737283054.718243,21.000000,0.000000,4330.769043,4352.436035,4267.563965,4319.487305,4354.102539,4359.615234,4359.358887,4553.077148,4551.538574,4562.179688,4496.922852,5639.743652,4305.769043,4265.512695,0.000000,2.000000,36.000000,,,,0.000000,0.000000,0.000000,0.000000,0.000000,0.000000,0.000000,0.000000,0.000000,0.000000,0.000000,0.000000,0.000000,0.000000,0.000000,0.000000,,,,,,,,,,,,,,,,,,,,,,,,,,,,,,,,,,,,,,,,,,,,,,,,,,,,,,,,,,,,,,,,,,,,,,,,,,,,,,,,,,,,,,,,,,,,,,,,,,,,,,,,,,,,,,,,,,,,,,,,,,,,,,,,,
1737283054.725051,1737283054.725951,22.000000,0.000000,4331.538574,4350.512695,4266.794922,4321.538574,4352.692383,4359.230957,4364.358887,4552.436035,4550.897461,4558.589844,4494.743652,5637.820313,4305.000000,4263.846191,0.000000,2.000000,36.000000,,,,0.000000,0.000000,0.000000,0.000000,0.000000,0.000000,0.000000,0.000000,0.000000,0.000000,0.000000,0.000000,0.000000,0.000000,0.000000,0.000000,,,,,,,,,,,,,,,,,,,,,,,,,,,,,,,,,,,,,,,,,,,,,,,,,,,,,,,,,,,,,,,,,,,,,,,,,,,,,,,,,,,,,,,,,,,,,,,,,,,,,,,,,,,,,,,,,,,,,,,,,,,,,,,,,
1737283054.732859,1737283054.733759,23.000000,0.000000,4331.410156,4352.179688,4268.461426,4323.333496,4351.153809,4357.563965,4363.461426,4553.974121,4549.743652,4556.153809,4496.153809,5637.307617,4304.230957,4261.538574,0.000000,2.000000,36.000000,,,,0.000000,0.000000,0.000000,0.000000,0.000000,0.000000,0.000000,0.000000,0.000000,0.000000,0.000000,0.000000,0.000000,0.000000,0.000000,0.000000,,,,,,,,,,,,,,,,,,,,,,,,,,,,,,,,,,,,,,,,,,,,,,,,,,,,,,,,,,,,,,,,,,,,,,,,,,,,,,,,,,,,,,,,,,,,,,,,,,,,,,,,,,,,,,,,,,,,,,,,,,,,,,,,,
1737283054.740667,1737283054.741468,24.000000,0.000000,4329.358887,4353.717773,4268.846191,4322.563965,4352.563965,4357.563965,4359.615234,4552.948730,4550.769043,4556.922852,4498.077148,5638.589844,4302.563965,4261.922852,0.000000,2.000000,36.000000,,,,0.000000,0.000000,0.000000,0.000000,0.000000,0.000000,0.000000,0.000000,0.000000,0.000000,0.000000,0.000000,0.000000,0.000000,0.000000,0.000000,,,,,,,,,,,,,,,,,6.000000,0.000000,0.661773,-0.747925,0.036682,0.036316,-0.093761,-0.980588,-0.117202,15.105918,-31.125294,16.782347,,,,,,,,,,,,,,,,,,,,,,,,,,,,,,,,,,,,,,,,,,,,,,,,,,,,,,,,,,,,,,,,,,,,,,,,,,,,,,,,,,,,,,,,,,,,,,,,,,,,,
1737283054.748475,1737283054.749275,25.000000,0.000000,4329.358887,4350.897461,4263.846191,4320.897461,4353.205078,4358.717773,4362.820313,4552.179688,4551.025879,4557.563965,4494.487305,5634.487305,4301.025879,4258.974121,0.000000,2.000000,36.000000,,,,0.000000,0.000000,0.000000,0.000000,0.000000,0.000000,0.000000,0.000000,0.000000,0.000000,0.000000,0.000000,0.000000,0.000000,0.000000,0.000000,,,,,,,,,,,,,,,,,,,,,,,,,,,,,,,,,,,,,,,,,,,,,,,,,,,,,,,,,,,,,,,,,,,,,,,,,,,,,,,,,,,,,,,,,,,,,,,,,,,,,,,,,,,,,,,,,,,,,,,,,,,,,,,,,
1737283054.756283,1737283054.756984,26.000000,0.000000,4333.589844,4351.794922,4267.820313,4321.282227,4353.461426,4358.717773,4361.538574,4552.692383,4550.000000,4560.000000,4495.384766,5635.512695,4305.641113,4265.256348,0.000000,2.000000,36.000000,,,,0.000000,0.000000,0.000000,0.000000,0.000000,0.000000,0.000000,0.000000,0.000000,0.000000,0.000000,0.000000,0.000000,0.000000,0.000000,0.000000,,,,,,,,,,,,,,,,,,,,,,,,,,,,,,,,,,,,,,,,,,,,,,,,,,,,,,,,,,,,,,,,,,,,,,,,,,,,,,,,,,,,,,,,,,,,,,,,,,,,,,,,,,,,,,,,,,,,,,,,,,,,,,,,,
1737283054.764092,1737283054.764892,27.000000,0.000000,4331.025879,4352.563965,4268.205078,4318.974121,4353.333496,4359.871582,4361.794922,4552.692383,4550.512695,4559.358887,4495.384766,5637.179688,4304.487305,4264.358887,0.000000,2.000000,36.000000,,,,0.000000,0.000000,0.000000,0.000000,0.000000,0.000000,0.000000,0.000000,0.000000,0.000000,0.000000,0.000000,0.000000,0.000000,0.000000,0.000000,,,,,,,,,,,,,,,,,,,,,,,,,,,,,,,,,,,,,,,,,,,,,,,,,,,,,,,,,,,,,,,,,,,,,,,,,,,,,,,,,,,,,,,,,,,,,,,,,,,,,,,,,,,,,,,,,,,,,,,,,,,,,,,,,
1737283054.771900,1737283054.772700,28.000000,0.000000,4332.436035,4352.179688,4264.871582,4320.384766,4353.846191,4359.615234,4365.000000,4551.410156,4550.512695,4556.538574,4493.205078,5638.077148,4303.846191,4260.769043,0.000000,2.000000,36.000000,,,,0.000000,0.000000,0.000000,0.000000,0.000000,0.000000,0.000000,0.000000,0.000000,0.000000,0.000000,0.000000,0.000000,0.000000,0.000000,0.000000,,,,,,,,,,,,,,,,,7.000000,0.000000,0.661780,-0.747925,0.036621,0.036255,-0.105970,-0.984495,-0.120132,15.128659,-30.979431,16.737446,,,,,,,,,,,,,,,,,,,,,,,,,,,,,,,,0.023912,0.036307,0.034695,0.036952,0.026345,0.020671,0.023682,0.026334,0.030417,0.032512,0.034741,0.056248,0.023910,0.015792,0.033868,0.032159,0.038275,0.015665,0.014454,0.032741,0.012530,0.012923,0.020316,0.032458,0.024128,0.015253,0.015089,0.014397,0.020545,0.028753,0.029727,0.027214,0.024765,0.025560,0.019787,0.039413,0.021350,0.011544,0.018451,0.026410,0.018234,0.029372,0.021921,0.025474,0.030007,0.042239,0.024719,0.036071,0.023089,0.034178,0.045634,0.030340,0.034907,0.017767,0.026537,0.029853,0.011420,0.037768,0.032505,0.030518,0.041549,0.024093,0.015107,0.024197,0.022830,0.058084,0.045076,0.022579,0.019299,0.035561
1737283054.779708,1737283054.780608,29.000000,0.000000,4336.153809,4352.563965,4267.436035,4322.307617,4354.358887,4357.179688,4363.589844,4552.692383,4550.384766,4558.846191,4493.589844,5638.717773,4306.282227,4263.461426,0.000000,2.000000,36.000000,,,,0.000000,0.000000,0.000000,0.000000,0.000000,0.000000,0.000000,0.000000,0.000000,0.000000,0.000000,0.000000,0.000000,0.000000,0.000000,0.000000,,,,,,,,,,,,,,,,,,,,,,,,,,,,,,,,,,,,,,,,,,,,,,,,,,,,,,,,,,,,,,,,,,,,,,,,,,,,,,,,,,,,,,,,,,,,,,,,,,,,,,,,,,,,,,,,,,,,,,,,,,,,,,,,,
1737283054.787516,1737283054.788416,30.000000,0.000000,4330.512695,4351.794922,4267.179688,4318.974121,4354.230957,4358.077148,4363.077148,4555.384766,4552.179688,4560.512695,4493.974121,5637.948730,4303.974121,4261.153809,0.000000,2.000000,36.000000,,,,0.000000,0.000000,0.000000,0.000000,0.000000,0.000000,0.000000,0.000000,0.000000,0.000000,0.000000,0.000000,0.000000,0.000000,0.000000,0.000000,,,,,,,,,,,,,,,,,,,,,,,,,,,,,,,,,,,,,,,,,,,,,,,,,,,,,,,,,,,,,,,,,,,,,,,,,,,,,,,,,,,,,,,,,,,,,,,,,,,,,,,,,,,,,,,,,,,,,,,,,,,,,,,,,
1737283054.795324,1737283054.796324,31.000000,0.000000,4329.871582,4352.179688,4266.282227,4321.666504,4353.461426,4362.692383,4363.461426,4552.436035,4552.436035,4558.846191,4497.436035,5641.153809,4305.769043,4262.563965,0.000000,2.000000,36.000000,,,,0.000000,0.000000,0.000000,0.000000,0.000000,0.000000,0.000000,0.000000,0.000000,0.000000,0.000000,0.000000,0.000000,0.000000,0.000000,0.000000,,,,,,,,,,,,,,,,,,,,,,,,,,,,,,,,,,,,,,,,,,,,,,,,,,,,,,,,,,,,,,,,,,,,,,,,,,,,,,,,,,,,,,,,,,,,,,,,,,,,,,,,,,,,,,,,,,,,,,,,,,,,,,,,,
1737283054.803132,1737283054.804133,32.000000,0.000000,4334.230957,4350.512695,4265.897461,4323.077148,4352.948730,4362.948730,4365.384766,4550.512695,4550.384766,4558.846191,4496.410156,5638.589844,4306.794922,4260.000000,0.000000,2.000000,36.000000,,,,0.000000,0.000000,0.000000,0.000000,0.000000,0.000000,0.000000,0.000000,0.000000,0.000000,0.000000,0.000000,0.000000,0.000000,0.000000,0.000000,,,,,,,,,,,,,,,,,8.000000,0.000000,0.661846,-0.747864,0.036621,0.036316,-0.104993,-0.993285,-0.120132,15.182461,-30.981487,16.780367,,,,,,,,,,,,,,,,,,,,,,,,,,,,,,,,,,,,,,,,,,,,,,,,,,,,,,,,,,,,,,,,,,,,,,,,,,,,,,,,,,,,,,,,,,,,,,,,,,,,,
1737283054.810940,1737283054.812041,33.000000,0.000000,4334.102539,4350.769043,4267.692383,4321.025879,4353.846191,4360.256348,4366.666504,4554.487305,4550.512695,4558.589844,4494.743652,5637.179688,4304.102539,4259.871582,0.000000,2.000000,36.000000,,,,0.000000,0.000000,0.000000,0.000000,0.000000,0.000000,0.000000,0.000000,0.000000,0.000000,0.000000,0.000000,0.000000,0.000000,0.000000,0.000000,,,,,,,,,,,,,,,,,,,,,,,,,,,,,,,,,,,,,,,,,,,,,,,,,,,,,,,,,,,,,,,,,,,,,,,,,,,,,,,,,,,,,,,,,,,,,,,,,,,,,,,,,,,,,,,,,,,,,,,,,,,,,,,,,
1737283054.818748,1737283054.819849,34.000000,0.000000,4329.615234,4353.077148,4268.205078,4322.179688,4353.846191,4361.666504,4365.641113,4556.666504,4551.153809,4557.436035,4495.641113,5640.769043,4303.333496,4262.820313,0.000000,2.000000,36.000000,,,,0.000000,0.000000,0.000000,0.000000,0.000000,0.000000,0.000000,0.000000,0.000000,0.000000,0.000000,0.000000,0.000000,0.000000,0.000000,0.000000,,,,,,,,,,,,,,,,,,,,,,,,,,,,,,,,,,,,,,,,,,,,,,,,,,,,,,,,,,,,,,,,,,,,,,,,,,,,,,,,,,,,,,,,,,,,,,,,,,,,,,,,,,,,,,,,,,,,,,,,,,,,,,,,,
1737283054.826556,1737283054.827757,35.000000,0.000000,4327.436035,4350.769043,4265.512695,4321.410156,4353.846191,4360.897461,4365.128418,4554.615234,4550.256348,4557.307617,4493.589844,5637.692383,4303.461426,4256.922852,0.000000,2.000000,36.000000,,,,0.000000,0.000000,0.000000,0.000000,0.000000,0.000000,0.000000,0.000000,0.000000,0.000000,0.000000,0.000000,0.000000,0.000000,0.000000,0.000000,,,,,,,,,,,,,,,,,,,,,,,,,,,,,,,,,,,,,,,,,,,,,,,,,,,,,,,,,,,,,,,,,,,,,,,,,,,,,,,,,,,,,,,,,,,,,,,,,,,,,,,,,,,,,,,,,,,,,,,,,,,,,,,,,
1737283054.834365,1737283054.835565,36.000000,0.000000,4332.051270,4351.153809,4268.333496,4321.666504,4354.615234,4358.589844,4360.897461,4550.897461,4547.948730,4558.077148,4496.410156,5639.230957,4306.794922,4260.641113,0.000000,2.000000,36.000000,,,,0.000000,0.000000,0.000000,0.000000,0.000000,0.000000,0.000000,0.000000,0.000000,0.000000,0.000000,0.000000,0.000000,0.000000,0.000000,0.000000,,,,,,,,,,,,,,,,,9.000000,0.000000,0.661846,-0.747864,0.036621,0.036316,-0.096691,-0.979612,-0.113295,15.147548,-31.016672,16.785664,,,,,,,,,,,,,,,,,,,,,,,,,,,,,,,,,,,,,,,,,,,,,,,,,,,,,,,,,,,,,,,,,,,,,,,,,,,,,,,,,,,,,,,,,,,,,,,,,,,,,
1737283054.842173,1737283054.843473,37.000000,0.000000,4332.692383,4352.436035,4266.410156,4324.615234,4353.717773,4360.897461,4361.282227,4550.769043,4548.589844,4558.974121,4495.897461,5639.487305,4304.743652,4261.282227,0.000000,2.000000,36.000000,,,,0.000000,0.000000,0.000000,0.000000,0.000000,0.000000,0.000000,0.000000,0.000000,0.000000,0.000000,0.000000,0.000000,0.000000,0.000000,0.000000,,,,,,,,,,,,,,,,,,,,,,,,,,,,,,,,,,,,,,,,,,,,,,,,,,,,,,,,,,,,,,,,,,,,,,,,,,,,,,,,,,,,,,,,,,,,,,,,,,,,,,,,,,,,,,,,,,,,,,,,,,,,,,,,,
1737283054.849981,1737283054.851281,38.000000,0.000000,4330.128418,4353.589844,4261.538574,4324.230957,4351.922852,4359.615234,4365.000000,4553.589844,4551.666504,4558.717773,4492.563965,5635.641113,4300.128418,4258.589844,0.000000,2.000000,36.000000,,,,0.000000,0.000000,0.000000,0.000000,0.000000,0.000000,0.000000,0.000000,0.000000,0.000000,0.000000,0.000000,0.000000,0.000000,0.000000,0.000000,,,,,,,,,,,,,,,,,,,,,,,,,,,,,,,,,,,,,,,,,,,,,,,,,,,,,,,,,,,,,,,,,,,,,,,,,,,,,,,,,,,,,,,,,,,,,,,,,,,,,,,,,,,,,,,,,,,,,,,,,,,,,,,,,
1737283054.857789,1737283054.859189,39.000000,0.000000,4333.717773,4355.384766,4265.512695,4322.436035,4353.589844,4356.282227,4364.871582,4552.948730,4551.666504,4557.051270,4495.641113,5639.230957,4302.692383,4265.512695,0.000000,2.000000,36.000000,,,,0.000000,0.000000,0.000000,0.000000,0.000000,0.000000,0.000000,0.000000,0.000000,0.000000,0.000000,0.000000,0.000000,0.000000,0.000000,0.000000,,,,,,,,,,,,,,,,,,,,,,,,,,,,,,,,,,,,,,,,,,,,,,,,,,,,,,,,,,,,,,,,,,,,,,,,,,,,,,,,,,,,,,,,,,,,,,,,,,,,,,,,,,,,,,,,,,,,,,,,,,,,,,,,,
1737283054.865597,1737283054.866997,40.000000,0.000000,4332.948730,4351.666504,4266.538574,4322.307617,4355.384766,4359.487305,4366.410156,4551.794922,4551.410156,4555.384766,4496.922852,5639.871582,4303.717773,4264.230957,0.000000,2.000000,36.000000,,,,0.000000,0.000000,0.000000,0.000000,0.000000,0.000000,0.000000,0.000000,0.000000,0.000000,0.000000,0.000000,0.000000,0.000000,0.000000,0.000000,,,,,,,,,,,,,,,,,10.000000,0.000000,0.661846,-0.747864,0.036621,0.036316,-0.100598,-0.980588,-0.112807,15.199459,-30.965006,16.740431,,,,,,,,,,,,,,,,,,,,,,,,,,,,,,,,,,,,,,,,,,,,,,,,,,,,,,,,,,,,,,,,,,,,,,,,,,,,,,,,,,,,,,,,,,,,,,,,,,,,,
1737283054.873405,1737283054.874905,41.000000,0.000000,4330.256348,4350.769043,4266.538574,4323.205078,4353.205078,4359.102539,4362.563965,4552.179688,4551.153809,4556.922852,4494.743652,5639.615234,4304.487305,4262.948730,0.000000,2.000000,36.000000,,,,0.000000,0.000000,0.000000,0.000000,0.000000,0.000000,0.000000,0.000000,0.000000,0.000000,0.000000,0.000000,0.000000,0.000000,0.000000,0.000000,,,,,,,,,,,,,,,,,,,,,,,,,,,,,,,,,,,,,,,,,,,,,,,,,,,,,,,,,,,,,,,,,,,,,,,,,,,,,,,,,,,,,,,,,,,,,,,,,,,,,,,,,,,,,,,,,,,,,,,,,,,,,,,,,
1737283054.881213,1737283054.882713,42.000000,0.000000,4333.205078,4352.051270,4267.563965,4322.179688,4351.922852,4357.307617,4360.769043,4554.743652,4550.512695,4559.871582,4495.384766,5637.948730,4305.769043,4263.589844,0.000000,2.000000,36.000000,,,,0.000000,0.000000,0.000000,0.000000,0.000000,0.000000,0.000000,0.000000,0.000000,0.000000,0.000000,0.000000,0.000000,0.000000,0.000000,0.000000,,,,,,,,,,,,,,,,,,,,,,,,,,,,,,,,,,,,,,,,,,,,,,,,,,,,,,,,,,,,,,,,,,,,,,,,,,,,,,,,,,,,,,,,,,,,,,,,,,,,,,,,,,,,,,,,,,,,,,,,,,,,,,,,,
1737283054.889021,1737283054.890421,43.000000,0.000000,4333.717773,4352.307617,4267.307617,4321.153809,4353.974121,4362.820313,4365.641113,4554.487305,4550.769043,4559.487305,4499.615234,5634.871582,4304.871582,4261.666504,0.000000,2.000000,36.000000,,,,0.000000,0.000000,0.000000,0.000000,0.000000,0.000000,0.000000,0.000000,0.000000,0.000000,0.000000,0.000000,0.000000,0.000000,0.000000,0.000000,,,,,,,,,,,,,,,,,,,,,,,,,,,,,,,,,,,,,,,,,,,,,,,,,,,,,,,,,,,,,,,,,,,,,,,,,,,,,,,,,,,,,,,,,,,,,,,,,,,,,,,,,,,,,,,,,,,,,,,,,,,,,,,,,
1737283054.896829,1737283054.898229,44.000000,0.000000,4329.230957,4352.948730,4269.358887,4321.282227,4355.384766,4362.820313,4364.102539,4550.769043,4550.641113,4555.128418,4499.743652,5637.820313,4305.384766,4264.102539,0.000000,2.000000,36.000000,,,,0.000000,0.000000,0.000000,0.000000,0.000000,0.000000,0.000000,0.000000,0.000000,0.000000,0.000000,0.000000,0.000000,0.000000,0.000000,0.000000,1.000000,0.000000,0.000000,0.000000,0.000000,0.000000,0.000000,0.000000,0.000000,0.000000,0.000000,0.000000,0.000000,0.000000,0.000000,0.000000,11.000000,0.000000,0.661921,-0.747803,0.036560,0.036255,-0.098645,-0.983030,-0.121597,15.279513,-30.901838,16.816387,,,,,,,,,,,,,,,,,,,,,,,,,,,,,,,,0.022943,0.034949,0.032378,0.036367,0.023938,0.023039,0.022675,0.027098,0.028159,0.031199,0.041950,0.055034,0.023466,0.015231,0.034577,0.033017,0.041001,0.016648,0.016011,0.033592,0.015000,0.014796,0.021755,0.033420,0.023838,0.013056,0.012543,0.015214,0.022293,0.025943,0.029725,0.033913,0.029188,0.030034,0.020282,0.036800,0.024868,0.011052,0.017428,0.027583,0.020449,0.026755,0.021436,0.028017,0.028019,0.043005,0.022377,0.034631,0.020543,0.035389,0.044583,0.029605,0.039312,0.017491,0.025192,0.031327,0.010767,0.041051,0.035954,0.029542,0.041952,0.025233,0.015670,0.024405,0.024147,0.061099,0.043033,0.024675,0.018818,0.034378
1737283054.904637,1737283054.905937,45.000000,0.000000,4326.025879,4350.384766,4268.205078,4319.871582,4352.436035,4357.563965,4363.589844,4552.051270,4549.743652,4553.461426,4492.307617,5635.128418,4302.692383,4262.051270,0.000000,2.000000,36.000000,,,,0.000000,0.000000,0.000000,0.000000,0.000000,0.000000,0.000000,0.000000,0.000000,0.000000,0.000000,0.000000,0.000000,0.000000,0.000000,0.000000,,,,,,,,,,,,,,,,,,,,,,,,,,,,,,,,,,,,,,,,,,,,,,,,,,,,,,,,,,,,,,,,,,,,,,,,,,,,,,,,,,,,,,,,,,,,,,,,,,,,,,,,,,,,,,,,,,,,,,,,,,,,,,,,,
1737283054.912445,1737283054.913845,46.000000,0.000000,4330.256348,4349.487305,4270.384766,4320.128418,4350.897461,4356.538574,4364.871582,4554.871582,4548.846191,4556.922852,4492.051270,5635.000000,4302.179688,4259.102539,0.000000,2.000000,36.000000,,,,0.000000,0.000000,0.000000,0.000000,0.000000,0.000000,0.000000,0.000000,0.000000,0.000000,0.000000,0.000000,0.000000,0.000000,0.000000,0.000000,,,,,,,,,,,,,,,,,,,,,,,,,,,,,,,,,,,,,,,,,,,,,,,,,,,,,,,,,,,,,,,,,,,,,,,,,,,,,,,,,,,,,,,,,,,,,,,,,,,,,,,,,,,,,,,,,,,,,,,,,,,,,,,,,
1737283054.920253,1737283054.921654,47.000000,0.000000,4333.205078,4349.743652,4271.538574,4321.794922,4351.538574,4357.948730,4363.717773,4552.563965,4549.358887,4558.717773,4496.666504,5640.000000,4306.666504,4260.128418,0.000000,2.000000,36.000000,,,,0.000000,0.000000,0.000000,0.000000,0.000000,0.000000,0.000000,0.000000,0.000000,0.000000,0.000000,0.000000,0.000000,0.000000,0.000000,0.000000,,,,,,,,,,,,,,,,,,,,,,,,,,,,,,,,,,,,,,,,,,,,,,,,,,,,,,,,,,,,,,,,,,,,,,,,,,,,,,,,,,,,,,,,,,,,,,,,,,,,,,,,,,,,,,,,,,,,,,,,,,,,,,,,,
1737283054.928062,1737283054.929462,48.000000,0.000000,4330.384766,4347.051270,4266.153809,4323.205078,4352.051270,4360.256348,4362.820313,4552.563965,4550.000000,4557.948730,4495.000000,5638.846191,4305.769043,4260.256348,0.000000,2.000000,36.000000,,,,0.000000,0.000000,0.000000,0.000000,0.000000,0.000000,0.000000,0.000000,0.000000,0.000000,0.000000,0.000000,0.000000,0.000000,0.000000,0.000000,,,,,,,,,,,,,,,,,12.000000,0.000000,0.661852,-0.747864,0.036560,0.036255,-0.099133,-0.967403,-0.110853,15.301562,-31.061655,16.718082,,,,,,,,,,,,,,,,,,,,,,,,,,,,,,,,,,,,,,,,,,,,,,,,,,,,,,,,,,,,,,,,,,,,,,,,,,,,,,,,,,,,,,,,,,,,,,,,,,,,,
1737283054.935870,1737283054.937170,49.000000,0.000000,4331.922852,4350.256348,4265.897461,4323.461426,4352.820313,4361.922852,4360.897461,4555.512695,4548.974121,4558.205078,4493.717773,5638.077148,4303.974121,4262.563965,0.000000,2.000000,36.000000,,,,0.000000,0.000000,0.000000,0.000000,0.000000,0.000000,0.000000,0.000000,0.000000,0.000000,0.000000,0.000000,0.000000,0.000000,0.000000,0.000000,,,,,,,,,,,,,,,,,,,,,,,,,,,,,,,,,,,,,,,,,,,,,,,,,,,,,,,,,,,,,,,,,,,,,,,,,,,,,,,,,,,,,,,,,,,,,,,,,,,,,,,,,,,,,,,,,,,,,,,,,,,,,,,,,
1737283054.943678,1737283054.944978,50.000000,0.000000,4332.436035,4352.948730,4265.512695,4319.102539,4352.692383,4360.641113,4364.102539,4554.871582,4548.589844,4557.307617,4493.846191,5637.820313,4305.256348,4259.230957,0.000000,2.000000,36.000000,,,,0.000000,0.000000,0.000000,0.000000,0.000000,0.000000,0.000000,0.000000,0.000000,0.000000,0.000000,0.000000,0.000000,0.000000,0.000000,0.000000,,,,,,,,,,,,,,,,,,,,,,,,,,,,,,,,,,,,,,,,,,,,,,,,,,,,,,,,,,,,,,,,,,,,,,,,,,,,,,,,,,,,,,,,,,,,,,,,,,,,,,,,,,,,,,,,,,,,,,,,,,,,,,,,,
1737283054.951486,1737283054.952686,51.000000,0.000000,4330.641113,4349.358887,4265.897461,4319.230957,4352.563965,4359.615234,4367.179688,4553.974121,4550.000000,4556.282227,4495.256348,5640.256348,4306.153809,4259.102539,0.000000,2.000000,36.000000,,,,0.000000,0.000000,0.000000,0.000000,0.000000,0.000000,0.000000,0.000000,0.000000,0.000000,0.000000,0.000000,0.000000,0.000000,0.000000,0.000000,,,,,,,,,,,,,,,,,,,,,,,,,,,,,,,,,,,,,,,,,,,,,,,,,,,,,,,,,,,,,,,,,,,,,,,,,,,,,,,,,,,,,,,,,,,,,,,,,,,,,,,,,,,,,,,,,,,,,,,,,,,,,,,,,
1737283054.959294,1737283054.960494,52.000000,0.000000,4330.769043,4348.974121,4271.666504,4323.205078,4351.922852,4361.025879,4365.128418,4555.512695,4548.846191,4556.794922,4495.769043,5640.128418,4304.102539,4262.563965,0.000000,2.000000,36.000000,,,,0.000000,0.000000,0.000000,0.000000,0.000000,0.000000,0.000000,0.000000,0.000000,0.000000,0.000000,0.000000,0.000000,0.000000,0.000000,0.000000,,,,,,,,,,,,,,,,,13.000000,0.000000,0.661846,-0.747864,0.036560,0.036377,-0.108900,-0.974728,-0.123062,15.338073,-31.005489,16.596273,,,,,,,,,,,,,,,,,,,,,,,,,,,,,,,,,,,,,,,,,,,,,,,,,,,,,,,,,,,,,,,,,,,,,,,,,,,,,,,,,,,,,,,,,,,,,,,,,,,,,
