title:bread1, start timestamp:1737282974.036182, stop timestamp:1737282977.065720, headset type:EPOCX, headset serial:E50208A5, headset firmware:720, channels:168, sampling rate:eeg_128;mot_32;pm_0.1;pow_8, samples:389       , version:2.2, 
Timestamp,OriginalTimestamp,EEG.Counter,EEG.Interpolated,EEG.AF3,EEG.F7,EEG.F3,EEG.FC5,EEG.T7,EEG.P7,EEG.O1,EEG.O2,EEG.P8,EEG.T8,EEG.FC6,EEG.F4,EEG.F8,EEG.AF4,EEG.RawCq,EEG.Battery,EEG.BatteryPercent,MarkerIndex,MarkerType,MarkerValueInt,EEG.MarkerHardware,CQ.AF3,CQ.F7,CQ.F3,CQ.FC5,CQ.T7,CQ.P7,CQ.O1,CQ.O2,CQ.P8,CQ.T8,CQ.FC6,CQ.F4,CQ.F8,CQ.AF4,CQ.Overall,EQ.SampleRateQuality,EQ.OVERALL,EQ.AF3,EQ.F7,EQ.F3,EQ.FC5,EQ.T7,EQ.P7,EQ.O1,EQ.O2,EQ.P8,EQ.T8,EQ.FC6,EQ.F4,EQ.F8,EQ.AF4,MOT.CounterMems,MOT.InterpolatedMems,MOT.Q0,MOT.Q1,MOT.Q2,MOT.Q3,MOT.AccX,MOT.AccY,MOT.AccZ,MOT.MagX,MOT.MagY,MOT.MagZ,PM.Attention.IsActive,PM.Attention.Scaled,PM.Attention.Raw,PM.Attention.Min,PM.Attention.Max,PM.Engagement.IsActive,PM.Engagement.Scaled,PM.Engagement.Raw,PM.Engagement.Min,PM.Engagement.Max,PM.Excitement.IsActive,PM.Excitement.Scaled,PM.Excitement.Raw,PM.Excitement.Min,PM.Excitement.Max,PM.LongTermExcitement,PM.Stress.IsActive,PM.Stress.Scaled,PM.Stress.Raw,PM.Stress.Min,PM.Stress.Max,PM.Relaxation.IsActive,PM.Relaxation.Scaled,PM.Relaxation.Raw,PM.Relaxation.Min,PM.Relaxation.Max,PM.Interest.IsActive,PM.Interest.Scaled,PM.Interest.Raw,PM.Interest.Min,PM.Interest.Max,POW.AF3.Theta,POW.AF3.Alpha,POW.AF3.BetaL,POW.AF3.BetaH,POW.AF3.Gamma,POW.F7.Theta,POW.F7.Alpha,POW.F7.BetaL,POW.F7.BetaH,POW.F7.Gamma,POW.F3.Theta,POW.F3.Alpha,POW.F3.BetaL,POW.F3.BetaH,POW.F3.Gamma,POW.FC5.Theta,POW.FC5.Alpha,POW.FC5.BetaL,POW.FC5.BetaH,POW.FC5.Gamma,POW.T7.Theta,POW.T7.Alpha,POW.T7.BetaL,POW.T7.BetaH,POW.T7.Gamma,POW.P7.Theta,POW.P7.Alpha,POW.P7.BetaL,POW.P7.BetaH,POW.P7.Gamma,POW.O1.Theta,POW.O1.Alpha,POW.O1.BetaL,POW.O1.BetaH,POW.O1.Gamma,POW.O2.Theta,POW.O2.Alpha,POW.O2.BetaL,POW.O2.BetaH,POW.O2.Gamma,POW.P8.Theta,POW.P8.Alpha,POW.P8.BetaL,POW.P8.BetaH,POW.P8.Gamma,POW.T8.Theta,POW.T8.Alpha,POW.T8.BetaL,POW.T8.BetaH,POW.T8.Gamma,POW.FC6.Theta,POW.FC6.Alpha,POW.FC6.BetaL,POW.FC6.BetaH,POW.FC6.Gamma,POW.F4.Theta,POW.F4.Alpha,POW.F4.BetaL,POW.F4.BetaH,POW.F4.Gamma,POW.F8.Theta,POW.F8.Alpha,POW.F8.BetaL,POW.F8.BetaH,POW.F8.Gamma,POW.AF4.Theta,POW.AF4.Alpha,POW.AF4.BetaL,POW.AF4.BetaH,POW.AF4.Gamma
1737282974.036182,1737282974.036499,56.000000,0.000000,4330.256348,4351.794922,4266.025879,4318.589844,4353.077148,4359.871582,4364.230957,4554.871582,4552.948730,4558.461426,4497.820313,5649.358887,4304.102539,4262.179688,0.000000,2.000000,36.000000,,,,0.000000,0.000000,0.000000,0.000000,0.000000,0.000000,0.000000,0.000000,0.000000,0.000000,0.000000,0.000000,0.000000,0.000000,0.000000,0.000000,,,,,,,,,,,,,,,,,14.000000,0.000000,0.661954,-0.747803,0.036987,0.035217,-0.104505,-0.969357,-0.106947,15.320446,-31.175934,16.066246,,,,,,,,,,,,,,,,,,,,,,,,,,,,,,,,,,,,,,,,,,,,,,,,,,,,,,,,,,,,,,,,,,,,,,,,,,,,,,,,,,,,,,,,,,,,,,,,,,,,,
1737282974.043990,1737282974.044207,57.000000,0.000000,4330.000000,4351.666504,4262.436035,4320.000000,4353.333496,4359.487305,4364.871582,4554.102539,4553.205078,4560.897461,4493.974121,5652.820313,4303.717773,4259.487305,0.000000,2.000000,36.000000,,,,0.000000,0.000000,0.000000,0.000000,0.000000,0.000000,0.000000,0.000000,0.000000,0.000000,0.000000,0.000000,0.000000,0.000000,0.000000,0.000000,,,,,,,,,,,,,,,,,,,,,,,,,,,,,,,,,,,,,,,,,,,,,,,,,,,,,,,,,,,,,,,,,,,,,,,,,,,,,,,,,,,,,,,,,,,,,,,,,,,,,,,,,,,,,,,,,,,,,,,,,,,,,,,,,
1737282974.051798,1737282974.052115,58.000000,0.000000,4330.897461,4347.692383,4266.666504,4321.922852,4352.563965,4356.025879,4361.282227,4553.461426,4551.666504,4561.153809,4492.436035,5651.153809,4304.230957,4261.153809,0.000000,2.000000,36.000000,,,,0.000000,0.000000,0.000000,0.000000,0.000000,0.000000,0.000000,0.000000,0.000000,0.000000,0.000000,0.000000,0.000000,0.000000,0.000000,0.000000,,,,,,,,,,,,,,,,,,,,,,,,,,,,,,,,,,,,,,,,,,,,,,,,,,,,,,,,,,,,,,,,,,,,,,,,,,,,,,,,,,,,,,,,,,,,,,,,,,,,,,,,,,,,,,,,,,,,,,,,,,,,,,,,,
1737282974.059606,1737282974.059923,59.000000,0.000000,4329.358887,4348.077148,4265.256348,4318.205078,4352.051270,4357.307617,4360.769043,4554.487305,4552.179688,4558.589844,4494.230957,5648.077148,4302.179688,4260.897461,0.000000,2.000000,36.000000,,,,0.000000,0.000000,0.000000,0.000000,0.000000,0.000000,0.000000,0.000000,0.000000,0.000000,0.000000,0.000000,0.000000,0.000000,0.000000,0.000000,,,,,,,,,,,,,,,,,,,,,,,,,,,,,,,,,,,,,,,,,,,,,,,,,,,,,,,,,,,,,,,,,,,,,,,,,,,,,,,,,,,,,,,,,,,,,,,,,,,,,,,,,,,,,,,,,,,,,,,,,,,,,,,,,
1737282974.067414,1737282974.067831,60.000000,0.000000,4330.128418,4353.461426,4263.077148,4315.384766,4353.077148,4359.871582,4361.922852,4554.358887,4555.256348,4558.461426,4497.307617,5650.256348,4304.358887,4262.179688,0.000000,2.000000,36.000000,,,,0.000000,0.000000,0.000000,0.000000,0.000000,0.000000,0.000000,0.000000,0.000000,0.000000,0.000000,0.000000,0.000000,0.000000,0.000000,0.000000,,,,,,,,,,,,,,,,,15.000000,0.000000,0.661957,-0.747803,0.036987,0.035156,-0.104505,-0.990844,-0.125504,15.321734,-31.191673,16.009623,,,,,,,,,,,,,,,,,,,,,,,,,,,,,,,,0.029570,0.013944,0.009616,0.034166,0.018642,0.085076,0.057200,0.063582,0.042848,0.022818,0.242333,0.350556,0.182118,0.077356,0.030663,0.348704,0.205236,0.105626,0.061299,0.021984,0.050284,0.090025,0.062729,0.022407,0.022323,0.384320,0.519158,0.218254,0.133494,0.082824,0.624413,0.768819,0.406655,0.141230,0.064860,0.164598,0.147157,0.074835,0.036130,0.019029,0.568418,0.557861,0.129040,0.099413,0.055181,0.092202,0.088836,0.025293,0.024656,0.030876,0.087207,0.114814,0.041078,0.029060,0.025546,0.022368,0.030378,0.018162,0.020851,0.023750,1.497109,1.139409,0.589813,0.245754,0.081158,0.173047,0.114465,0.051793,0.035944,0.033914
1737282974.075222,1737282974.075639,61.000000,0.000000,4331.794922,4350.769043,4267.307617,4318.205078,4352.948730,4357.563965,4360.384766,4552.948730,4554.230957,4560.641113,4496.410156,5649.487305,4309.358887,4262.307617,0.000000,2.000000,36.000000,,,,0.000000,0.000000,0.000000,0.000000,0.000000,0.000000,0.000000,0.000000,0.000000,0.000000,0.000000,0.000000,0.000000,0.000000,0.000000,0.000000,,,,,,,,,,,,,,,,,,,,,,,,,,,,,,,,,,,,,,,,,,,,,,,,,,,,,,,,,,,,,,,,,,,,,,,,,,,,,,,,,,,,,,,,,,,,,,,,,,,,,,,,,,,,,,,,,,,,,,,,,,,,,,,,,
1737282974.083030,1737282974.083547,62.000000,0.000000,4332.563965,4346.666504,4268.589844,4320.769043,4351.025879,4354.871582,4358.589844,4552.436035,4552.307617,4559.743652,4495.384766,5648.461426,4311.153809,4262.051270,0.000000,2.000000,36.000000,,,,0.000000,0.000000,0.000000,0.000000,0.000000,0.000000,0.000000,0.000000,0.000000,0.000000,0.000000,0.000000,0.000000,0.000000,0.000000,0.000000,,,,,,,,,,,,,,,,,,,,,,,,,,,,,,,,,,,,,,,,,,,,,,,,,,,,,,,,,,,,,,,,,,,,,,,,,,,,,,,,,,,,,,,,,,,,,,,,,,,,,,,,,,,,,,,,,,,,,,,,,,,,,,,,,
1737282974.090839,1737282974.091355,63.000000,0.000000,4331.025879,4348.717773,4265.384766,4320.000000,4351.794922,4357.820313,4358.589844,4554.615234,4553.717773,4558.974121,4498.461426,5648.846191,4306.666504,4263.205078,0.000000,2.000000,36.000000,,,,0.000000,0.000000,0.000000,0.000000,0.000000,0.000000,0.000000,0.000000,0.000000,0.000000,0.000000,0.000000,0.000000,0.000000,0.000000,0.000000,,,,,,,,,,,,,,,,,,,,,,,,,,,,,,,,,,,,,,,,,,,,,,,,,,,,,,,,,,,,,,,,,,,,,,,,,,,,,,,,,,,,,,,,,,,,,,,,,,,,,,,,,,,,,,,,,,,,,,,,,,,,,,,,,
1737282974.098647,1737282974.099263,64.000000,0.000000,4329.230957,4351.666504,4264.487305,4318.461426,4352.692383,4357.948730,4358.717773,4558.333496,4553.589844,4560.256348,4497.820313,5646.922852,4303.461426,4260.256348,0.000000,2.000000,36.000000,,,,0.000000,0.000000,0.000000,0.000000,0.000000,0.000000,0.000000,0.000000,0.000000,0.000000,0.000000,0.000000,0.000000,0.000000,0.000000,0.000000,,,,,,,,,,,,,,,,,16.000000,0.000000,0.661954,-0.747803,0.036987,0.035217,-0.097180,-0.979123,-0.125504,15.322894,-31.255838,16.091993,,,,,,,,,,,,,,,,,,,,,,,,,,,,,,,,,,,,,,,,,,,,,,,,,,,,,,,,,,,,,,,,,,,,,,,,,,,,,,,,,,,,,,,,,,,,,,,,,,,,,
1737282974.106455,1737282974.107071,65.000000,0.000000,4331.666504,4353.974121,4267.692383,4320.000000,4351.794922,4354.358887,4357.051270,4555.256348,4551.153809,4558.461426,4494.743652,5648.974121,4309.871582,4262.051270,0.000000,2.000000,36.000000,,,,0.000000,0.000000,0.000000,0.000000,0.000000,0.000000,0.000000,0.000000,0.000000,0.000000,0.000000,0.000000,0.000000,0.000000,0.000000,0.000000,,,,,,,,,,,,,,,,,,,,,,,,,,,,,,,,,,,,,,,,,,,,,,,,,,,,,,,,,,,,,,,,,,,,,,,,,,,,,,,,,,,,,,,,,,,,,,,,,,,,,,,,,,,,,,,,,,,,,,,,,,,,,,,,,
1737282974.114263,1737282974.114879,66.000000,0.000000,4331.025879,4351.666504,4266.794922,4317.820313,4350.897461,4355.769043,4357.948730,4552.692383,4550.769043,4555.897461,4492.948730,5647.307617,4311.153809,4262.948730,0.000000,2.000000,36.000000,,,,0.000000,0.000000,0.000000,0.000000,0.000000,0.000000,0.000000,0.000000,0.000000,0.000000,0.000000,0.000000,0.000000,0.000000,0.000000,0.000000,,,,,,,,,,,,,,,,,,,,,,,,,,,,,,,,,,,,,,,,,,,,,,,,,,,,,,,,,,,,,,,,,,,,,,,,,,,,,,,,,,,,,,,,,,,,,,,,,,,,,,,,,,,,,,,,,,,,,,,,,,,,,,,,,
1737282974.122071,1737282974.122687,67.000000,0.000000,4328.461426,4348.461426,4265.641113,4315.256348,4352.692383,4358.717773,4359.871582,4556.538574,4551.922852,4559.871582,4493.077148,5645.256348,4307.436035,4259.102539,0.000000,2.000000,36.000000,,,,0.000000,0.000000,0.000000,0.000000,0.000000,0.000000,0.000000,0.000000,0.000000,0.000000,0.000000,0.000000,0.000000,0.000000,0.000000,0.000000,,,,,,,,,,,,,,,,,,,,,,,,,,,,,,,,,,,,,,,,,,,,,,,,,,,,,,,,,,,,,,,,,,,,,,,,,,,,,,,,,,,,,,,,,,,,,,,,,,,,,,,,,,,,,,,,,,,,,,,,,,,,,,,,,
1737282974.129879,1737282974.130395,68.000000,0.000000,4333.461426,4348.846191,4268.205078,4318.717773,4355.128418,4358.333496,4359.102539,4557.692383,4554.487305,4563.717773,4494.487305,5648.077148,4308.974121,4258.589844,0.000000,2.000000,36.000000,,,,0.000000,0.000000,0.000000,0.000000,0.000000,0.000000,0.000000,0.000000,0.000000,0.000000,0.000000,0.000000,0.000000,0.000000,0.000000,0.000000,,,,,,,,,,,,,,,,,17.000000,0.000000,0.661947,-0.747803,0.037048,0.035278,-0.102063,-0.997680,-0.120620,15.323938,-30.996922,16.282793,,,,,,,,,,,,,,,,,,,,,,,,,,,,,,,,,,,,,,,,,,,,,,,,,,,,,,,,,,,,,,,,,,,,,,,,,,,,,,,,,,,,,,,,,,,,,,,,,,,,,
1737282974.137687,1737282974.138203,69.000000,0.000000,4335.256348,4348.589844,4266.025879,4319.487305,4353.333496,4359.615234,4361.282227,4554.615234,4554.871582,4560.897461,4492.692383,5645.512695,4307.820313,4259.102539,0.000000,2.000000,36.000000,,,,0.000000,0.000000,0.000000,0.000000,0.000000,0.000000,0.000000,0.000000,0.000000,0.000000,0.000000,0.000000,0.000000,0.000000,0.000000,0.000000,,,,,,,,,,,,,,,,,,,,,,,,,,,,,,,,,,,,,,,,,,,,,,,,,,,,,,,,,,,,,,,,,,,,,,,,,,,,,,,,,,,,,,,,,,,,,,,,,,,,,,,,,,,,,,,,,,,,,,,,,,,,,,,,,
1737282974.145495,1737282974.145911,70.000000,0.000000,4329.358887,4348.205078,4266.282227,4318.846191,4352.179688,4360.512695,4361.922852,4552.051270,4551.666504,4557.436035,4491.282227,5644.871582,4305.769043,4264.871582,0.000000,2.000000,36.000000,,,,0.000000,0.000000,0.000000,0.000000,0.000000,0.000000,0.000000,0.000000,0.000000,0.000000,0.000000,0.000000,0.000000,0.000000,0.000000,0.000000,,,,,,,,,,,,,,,,,,,,,,,,,,,,,,,,,,,,,,,,,,,,,,,,,,,,,,,,,,,,,,,,,,,,,,,,,,,,,,,,,,,,,,,,,,,,,,,,,,,,,,,,,,,,,,,,,,,,,,,,,,,,,,,,,
1737282974.153303,1737282974.153719,71.000000,0.000000,4328.333496,4350.641113,4266.538574,4318.077148,4352.692383,4359.230957,4360.512695,4552.307617,4552.307617,4558.461426,4492.179688,5647.692383,4306.538574,4266.025879,0.000000,2.000000,36.000000,,,,0.000000,0.000000,0.000000,0.000000,0.000000,0.000000,0.000000,0.000000,0.000000,0.000000,0.000000,0.000000,0.000000,0.000000,0.000000,0.000000,,,,,,,,,,,,,,,,,,,,,,,,,,,,,,,,,,,,,,,,,,,,,,,,,,,,,,,,,,,,,,,,,,,,,,,,,,,,,,,,,,,,,,,,,,,,,,,,,,,,,,,,,,,,,,,,,,,,,,,,,,,,,,,,,
1737282974.161111,1737282974.161427,72.000000,0.000000,4332.563965,4354.102539,4265.641113,4317.948730,4352.948730,4361.794922,4360.897461,4552.563965,4553.846191,4560.000000,4492.051270,5644.615234,4306.153809,4261.025879,0.000000,2.000000,36.000000,,,,0.000000,0.000000,0.000000,0.000000,0.000000,0.000000,0.000000,0.000000,0.000000,0.000000,0.000000,0.000000,0.000000,0.000000,0.000000,0.000000,,,,,,,,,,,,,,,,,18.000000,0.000000,0.661881,-0.747864,0.037048,0.035217,-0.094738,-0.979123,-0.127457,15.424878,-30.880564,16.271181,,,,,,,,,,,,,,,,,,,,,,,,,,,,,,,,,,,,,,,,,,,,,,,,,,,,,,,,,,,,,,,,,,,,,,,,,,,,,,,,,,,,,,,,,,,,,,,,,,,,,
1737282974.168919,1737282974.169235,73.000000,0.000000,4332.563965,4352.307617,4270.512695,4321.025879,4353.974121,4363.205078,4360.256348,4552.307617,4551.922852,4557.820313,4493.077148,5643.589844,4305.256348,4262.948730,0.000000,2.000000,36.000000,,,,0.000000,0.000000,0.000000,0.000000,0.000000,0.000000,0.000000,0.000000,0.000000,0.000000,0.000000,0.000000,0.000000,0.000000,0.000000,0.000000,,,,,,,,,,,,,,,,,,,,,,,,,,,,,,,,,,,,,,,,,,,,,,,,,,,,,,,,,,,,,,,,,,,,,,,,,,,,,,,,,,,,,,,,,,,,,,,,,,,,,,,,,,,,,,,,,,,,,,,,,,,,,,,,,
1737282974.176727,1737282974.176943,74.000000,0.000000,4328.717773,4350.128418,4268.205078,4320.769043,4353.589844,4360.000000,4361.410156,4551.410156,4551.794922,4557.179688,4493.717773,5642.436035,4304.615234,4262.051270,0.000000,2.000000,36.000000,,,,0.000000,0.000000,0.000000,0.000000,0.000000,0.000000,0.000000,0.000000,0.000000,0.000000,0.000000,0.000000,0.000000,0.000000,0.000000,0.000000,,,,,,,,,,,,,,,,,,,,,,,,,,,,,,,,,,,,,,,,,,,,,,,,,,,,,,,,,,,,,,,,,,,,,,,,,,,,,,,,,,,,,,,,,,,,,,,,,,,,,,,,,,,,,,,,,,,,,,,,,,,,,,,,,
1737282974.184536,1737282974.184751,75.000000,0.000000,4330.769043,4353.846191,4263.461426,4319.358887,4352.179688,4359.871582,4360.128418,4551.666504,4552.179688,4562.179688,4490.128418,5639.358887,4307.307617,4259.615234,0.000000,2.000000,36.000000,,,,0.000000,0.000000,0.000000,0.000000,0.000000,0.000000,0.000000,0.000000,0.000000,0.000000,0.000000,0.000000,0.000000,0.000000,0.000000,0.000000,,,,,,,,,,,,,,,,,,,,,,,,,,,,,,,,,,,,,,,,,,,,,,,,,,,,,,,,,,,,,,,,,,,,,,,,,,,,,,,,,,,,,,,,,,,,,,,,,,,,,,,,,,,,,,,,,,,,,,,,,,,,,,,,,
1737282974.192344,1737282974.192459,76.000000,0.000000,4331.666504,4353.589844,4266.153809,4318.974121,4353.205078,4360.897461,4359.871582,4554.102539,4552.051270,4563.333496,4488.589844,5642.563965,4307.051270,4261.410156,0.000000,2.000000,36.000000,,,,0.000000,0.000000,0.000000,0.000000,0.000000,0.000000,0.000000,0.000000,0.000000,0.000000,0.000000,0.000000,0.000000,0.000000,0.000000,0.000000,,,,,,,,,,,,,,,,,19.000000,0.000000,0.661885,-0.747864,0.037048,0.035156,-0.105970,-0.994750,-0.123062,15.482390,-30.692507,16.227396,,,,,,,,,,,,,,,,,,,,,,,,,,,,,,,,0.029453,0.015851,0.009058,0.029531,0.019207,0.087095,0.057779,0.058022,0.042334,0.024349,0.256225,0.350927,0.178501,0.074758,0.030481,0.362691,0.201564,0.101338,0.057477,0.023383,0.047905,0.085854,0.064340,0.024954,0.021133,0.425712,0.509787,0.208932,0.136396,0.081564,0.672253,0.765765,0.413731,0.139576,0.065348,0.166981,0.152346,0.065920,0.033929,0.021351,0.613304,0.526106,0.132829,0.099233,0.057378,0.094985,0.088872,0.027177,0.027240,0.024748,0.081362,0.108777,0.034621,0.029779,0.024958,0.020433,0.033558,0.017982,0.021837,0.024939,1.629710,1.109280,0.600125,0.248348,0.077488,0.170249,0.114663,0.053839,0.036679,0.035683
1737282974.200152,1737282974.200267,77.000000,0.000000,4329.871582,4350.256348,4267.563965,4318.333496,4354.102539,4358.974121,4363.589844,4553.846191,4551.794922,4560.897461,4493.077148,5646.410156,4303.205078,4260.897461,0.000000,2.000000,36.000000,,,,0.000000,0.000000,0.000000,0.000000,0.000000,0.000000,0.000000,0.000000,0.000000,0.000000,0.000000,0.000000,0.000000,0.000000,0.000000,0.000000,,,,,,,,,,,,,,,,,,,,,,,,,,,,,,,,,,,,,,,,,,,,,,,,,,,,,,,,,,,,,,,,,,,,,,,,,,,,,,,,,,,,,,,,,,,,,,,,,,,,,,,,,,,,,,,,,,,,,,,,,,,,,,,,,
1737282974.207960,1737282974.207975,78.000000,0.000000,4331.666504,4353.846191,4265.897461,4318.205078,4353.205078,4357.051270,4361.153809,4551.538574,4550.128418,4561.922852,4495.128418,5645.128418,4304.615234,4261.922852,0.000000,2.000000,36.000000,,,,0.000000,0.000000,0.000000,0.000000,0.000000,0.000000,0.000000,0.000000,0.000000,0.000000,0.000000,0.000000,0.000000,0.000000,0.000000,0.000000,,,,,,,,,,,,,,,,,,,,,,,,,,,,,,,,,,,,,,,,,,,,,,,,,,,,,,,,,,,,,,,,,,,,,,,,,,,,,,,,,,,,,,,,,,,,,,,,,,,,,,,,,,,,,,,,,,,,,,,,,,,,,,,,,
1737282974.215768,1737282974.215883,79.000000,0.000000,4330.897461,4355.000000,4263.589844,4318.205078,4353.461426,4357.051270,4359.615234,4552.436035,4551.922852,4563.077148,4492.692383,5643.717773,4305.256348,4263.717773,0.000000,2.000000,36.000000,,,,0.000000,0.000000,0.000000,0.000000,0.000000,0.000000,0.000000,0.000000,0.000000,0.000000,0.000000,0.000000,0.000000,0.000000,0.000000,0.000000,,,,,,,,,,,,,,,,,,,,,,,,,,,,,,,,,,,,,,,,,,,,,,,,,,,,,,,,,,,,,,,,,,,,,,,,,,,,,,,,,,,,,,,,,,,,,,,,,,,,,,,,,,,,,,,,,,,,,,,,,,,,,,,,,
1737282974.223576,1737282974.223691,80.000000,0.000000,4331.410156,4350.897461,4264.487305,4318.974121,4353.333496,4358.077148,4361.025879,4556.153809,4555.384766,4561.794922,4495.128418,5646.922852,4305.256348,4262.692383,0.000000,2.000000,36.000000,,,,0.000000,0.000000,0.000000,0.000000,0.000000,0.000000,0.000000,0.000000,0.000000,0.000000,0.000000,0.000000,0.000000,0.000000,0.000000,0.000000,,,,,,,,,,,,,,,,,20.000000,0.000000,0.661819,-0.747925,0.036987,0.035156,-0.097180,-0.984007,-0.120620,15.334151,-30.673256,16.204657,,,,,,,,,,,,,,,,,,,,,,,,,,,,,,,,,,,,,,,,,,,,,,,,,,,,,,,,,,,,,,,,,,,,,,,,,,,,,,,,,,,,,,,,,,,,,,,,,,,,,
1737282974.231384,1737282974.231599,81.000000,0.000000,4333.589844,4351.153809,4264.230957,4318.333496,4351.410156,4359.230957,4360.512695,4556.282227,4554.743652,4560.256348,4497.820313,5646.922852,4309.230957,4261.666504,0.000000,2.000000,36.000000,,,,0.000000,0.000000,0.000000,0.000000,0.000000,0.000000,0.000000,0.000000,0.000000,0.000000,0.000000,0.000000,0.000000,0.000000,0.000000,0.000000,,,,,,,,,,,,,,,,,,,,,,,,,,,,,,,,,,,,,,,,,,,,,,,,,,,,,,,,,,,,,,,,,,,,,,,,,,,,,,,,,,,,,,,,,,,,,,,,,,,,,,,,,,,,,,,,,,,,,,,,,,,,,,,,,
1737282974.239192,1737282974.239408,82.000000,0.000000,4331.153809,4351.282227,4263.589844,4318.333496,4349.743652,4357.692383,4359.487305,4555.000000,4554.487305,4559.487305,4494.487305,5641.025879,4310.128418,4264.487305,0.000000,2.000000,36.000000,,,,0.000000,0.000000,0.000000,0.000000,0.000000,0.000000,0.000000,0.000000,0.000000,0.000000,0.000000,0.000000,0.000000,0.000000,0.000000,0.000000,,,,,,,,,,,,,,,,,,,,,,,,,,,,,,,,,,,,,,,,,,,,,,,,,,,,,,,,,,,,,,,,,,,,,,,,,,,,,,,,,,,,,,,,,,,,,,,,,,,,,,,,,,,,,,,,,,,,,,,,,,,,,,,,,
1737282974.247000,1737282974.247315,83.000000,0.000000,4330.384766,4350.000000,4266.666504,4319.743652,4351.282227,4355.000000,4357.948730,4554.102539,4556.153809,4559.230957,4495.000000,5642.563965,4308.846191,4268.717773,0.000000,2.000000,36.000000,,,,0.000000,0.000000,0.000000,0.000000,0.000000,0.000000,0.000000,0.000000,0.000000,0.000000,0.000000,0.000000,0.000000,0.000000,0.000000,0.000000,,,,,,,,,,,,,,,,,,,,,,,,,,,,,,,,,,,,,,,,,,,,,,,,,,,,,,,,,,,,,,,,,,,,,,,,,,,,,,,,,,,,,,,,,,,,,,,,,,,,,,,,,,,,,,,,,,,,,,,,,,,,,,,,,
1737282974.254808,1737282974.255123,84.000000,0.000000,4330.512695,4350.000000,4266.025879,4318.205078,4353.077148,4354.358887,4356.922852,4552.563965,4555.769043,4559.487305,4496.666504,5643.974121,4309.487305,4262.820313,0.000000,2.000000,36.000000,,,,0.000000,0.000000,0.000000,0.000000,0.000000,0.000000,0.000000,0.000000,0.000000,0.000000,0.000000,0.000000,0.000000,0.000000,0.000000,0.000000,,,,,,,,,,,,,,,,,21.000000,0.000000,0.661819,-0.747925,0.036987,0.035156,-0.098157,-0.973752,-0.125992,15.334069,-30.705931,16.267525,,,,,,,,,,,,,,,,,,,,,,,,,,,,,,,,,,,,,,,,,,,,,,,,,,,,,,,,,,,,,,,,,,,,,,,,,,,,,,,,,,,,,,,,,,,,,,,,,,,,,
1737282974.262617,1737282974.263031,85.000000,0.000000,4330.128418,4350.897461,4262.563965,4316.410156,4352.948730,4352.948730,4357.051270,4552.051270,4556.794922,4561.666504,4494.871582,5641.538574,4312.436035,4261.538574,0.000000,2.000000,36.000000,,,,0.000000,0.000000,0.000000,0.000000,0.000000,0.000000,0.000000,0.000000,0.000000,0.000000,0.000000,0.000000,0.000000,0.000000,0.000000,0.000000,,,,,,,,,,,,,,,,,,,,,,,,,,,,,,,,,,,,,,,,,,,,,,,,,,,,,,,,,,,,,,,,,,,,,,,,,,,,,,,,,,,,,,,,,,,,,,,,,,,,,,,,,,,,,,,,,,,,,,,,,,,,,,,,,
1737282974.270424,1737282974.270839,86.000000,0.000000,4330.897461,4352.051270,4261.025879,4315.897461,4352.692383,4352.692383,4357.436035,4553.717773,4558.461426,4563.717773,4494.743652,5644.358887,4312.436035,4266.666504,0.000000,2.000000,36.000000,,,,0.000000,0.000000,0.000000,0.000000,0.000000,0.000000,0.000000,0.000000,0.000000,0.000000,0.000000,0.000000,0.000000,0.000000,0.000000,0.000000,,,,,,,,,,,,,,,,,,,,,,,,,,,,,,,,,,,,,,,,,,,,,,,,,,,,,,,,,,,,,,,,,,,,,,,,,,,,,,,,,,,,,,,,,,,,,,,,,,,,,,,,,,,,,,,,,,,,,,,,,,,,,,,,,
1737282974.278233,1737282974.278747,87.000000,0.000000,4328.846191,4349.743652,4261.794922,4315.641113,4352.307617,4356.538574,4360.641113,4556.025879,4556.282227,4561.410156,4494.487305,5645.000000,4308.974121,4260.641113,0.000000,2.000000,36.000000,,,,0.000000,0.000000,0.000000,0.000000,0.000000,0.000000,0.000000,0.000000,0.000000,0.000000,0.000000,0.000000,0.000000,0.000000,0.000000,0.000000,,,,,,,,,,,,,,,,,,,,,,,,,,,,,,,,,,,,,,,,,,,,,,,,,,,,,,,,,,,,,,,,,,,,,,,,,,,,,,,,,,,,,,,,,,,,,,,,,,,,,,,,,,,,,,,,,,,,,,,,,,,,,,,,,
1737282974.286041,1737282974.286555,88.000000,0.000000,4329.358887,4348.717773,4265.512695,4319.871582,4352.307617,4357.563965,4362.692383,4553.717773,4552.436035,4558.717773,4495.512695,5645.897461,4308.461426,4261.794922,0.000000,2.000000,36.000000,,,,0.000000,0.000000,0.000000,0.000000,0.000000,0.000000,0.000000,0.000000,0.000000,0.000000,0.000000,0.000000,0.000000,0.000000,0.000000,0.000000,,,,,,,,,,,,,,,,,22.000000,0.000000,0.661888,-0.747864,0.036987,0.035156,-0.106458,-0.996215,-0.123062,15.433996,-31.018671,16.257439,,,,,,,,,,,,,,,,,,,,,,,,,,,,,,,,,,,,,,,,,,,,,,,,,,,,,,,,,,,,,,,,,,,,,,,,,,,,,,,,,,,,,,,,,,,,,,,,,,,,,
1737282974.293849,1737282974.294263,89.000000,0.000000,4331.922852,4351.025879,4264.871582,4320.384766,4353.333496,4356.410156,4361.794922,4554.102539,4550.384766,4560.641113,4494.358887,5647.436035,4305.769043,4265.512695,0.000000,2.000000,36.000000,,,,0.000000,0.000000,0.000000,0.000000,0.000000,0.000000,0.000000,0.000000,0.000000,0.000000,0.000000,0.000000,0.000000,0.000000,0.000000,0.000000,,,,,,,,,,,,,,,,,,,,,,,,,,,,,,,,,,,,,,,,,,,,,,,,,,,,,,,,,,,,,,,,,,,,,,,,,,,,,,,,,,,,,,,,,,,,,,,,,,,,,,,,,,,,,,,,,,,,,,,,,,,,,,,,,
1737282974.301657,1737282974.302071,90.000000,0.000000,4330.128418,4353.205078,4263.333496,4315.769043,4353.461426,4357.436035,4362.051270,4555.384766,4550.384766,4561.666504,4492.948730,5643.846191,4302.179688,4260.000000,0.000000,2.000000,36.000000,,,,0.000000,0.000000,0.000000,0.000000,0.000000,0.000000,0.000000,0.000000,0.000000,0.000000,0.000000,0.000000,0.000000,0.000000,0.000000,0.000000,,,,,,,,,,,,,,,,,,,,,,,,,,,,,,,,,,,,,,,,,,,,,,,,,,,,,,,,,,,,,,,,,,,,,,,,,,,,,,,,,,,,,,,,,,,,,,,,,,,,,,,,,,,,,,,,,,,,,,,,,,,,,,,,,
1737282974.309465,1737282974.309979,91.000000,0.000000,4329.230957,4352.692383,4267.692383,4318.717773,4353.205078,4357.307617,4365.000000,4553.205078,4551.410156,4560.384766,4493.717773,5643.077148,4304.487305,4260.641113,0.000000,2.000000,36.000000,,,,0.000000,0.000000,0.000000,0.000000,0.000000,0.000000,0.000000,0.000000,0.000000,0.000000,0.000000,0.000000,0.000000,0.000000,0.000000,0.000000,,,,,,,,,,,,,,,,,,,,,,,,,,,,,,,,,,,,,,,,,,,,,,,,,,,,,,,,,,,,,,,,,,,,,,,,,,,,,,,,,,,,,,,,,,,,,,,,,,,,,,,,,,,,,,,,,,,,,,,,,,,,,,,,,
1737282974.317273,1737282974.317787,92.000000,0.000000,4329.230957,4350.641113,4267.051270,4322.179688,4354.743652,4358.589844,4366.410156,4552.820313,4550.897461,4557.436035,4492.179688,5644.487305,4304.358887,4264.230957,0.000000,2.000000,36.000000,,,,0.000000,0.000000,0.000000,0.000000,0.000000,0.000000,0.000000,0.000000,0.000000,0.000000,0.000000,0.000000,0.000000,0.000000,0.000000,0.000000,,,,,,,,,,,,,,,,,23.000000,0.000000,0.661816,-0.747925,0.036987,0.035217,-0.097668,-0.980100,-0.128922,15.357263,-30.983471,16.165028,,,,,,,,,,,,,,,,,,,,,,,,,,,,,,,,0.029471,0.019791,0.009710,0.026336,0.020459,0.084131,0.054236,0.048586,0.038617,0.026308,0.248031,0.313333,0.155221,0.064948,0.029462,0.336428,0.178509,0.085525,0.049258,0.023585,0.041833,0.071240,0.059180,0.026313,0.020178,0.428277,0.439618,0.174964,0.124110,0.073076,0.635637,0.672071,0.369140,0.122197,0.061869,0.156248,0.139809,0.052441,0.029019,0.023521,0.590375,0.430122,0.125741,0.087871,0.056270,0.085788,0.078789,0.027002,0.029282,0.019919,0.076467,0.094797,0.028724,0.028480,0.024350,0.019239,0.036151,0.018303,0.022840,0.026459,1.563300,0.939734,0.527572,0.219348,0.067174,0.157938,0.107046,0.052774,0.035621,0.036879
1737282974.325081,1737282974.325495,93.000000,0.000000,4330.128418,4353.333496,4265.384766,4320.384766,4356.538574,4361.538574,4362.563965,4551.025879,4551.538574,4556.282227,4493.461426,5646.538574,4303.846191,4266.666504,0.000000,2.000000,36.000000,,,,0.000000,0.000000,0.000000,0.000000,0.000000,0.000000,0.000000,0.000000,0.000000,0.000000,0.000000,0.000000,0.000000,0.000000,0.000000,0.000000,,,,,,,,,,,,,,,,,,,,,,,,,,,,,,,,,,,,,,,,,,,,,,,,,,,,,,,,,,,,,,,,,,,,,,,,,,,,,,,,,,,,,,,,,,,,,,,,,,,,,,,,,,,,,,,,,,,,,,,,,,,,,,,,,
1737282974.332889,1737282974.333403,94.000000,0.000000,4331.025879,4354.743652,4267.692383,4317.948730,4353.333496,4361.282227,4362.051270,4550.512695,4552.948730,4559.871582,4494.615234,5645.128418,4305.384766,4263.974121,0.000000,2.000000,36.000000,,,,0.000000,0.000000,0.000000,0.000000,0.000000,0.000000,0.000000,0.000000,0.000000,0.000000,0.000000,0.000000,0.000000,0.000000,0.000000,0.000000,,,,,,,,,,,,,,,,,,,,,,,,,,,,,,,,,,,,,,,,,,,,,,,,,,,,,,,,,,,,,,,,,,,,,,,,,,,,,,,,,,,,,,,,,,,,,,,,,,,,,,,,,,,,,,,,,,,,,,,,,,,,,,,,,
1737282974.340697,1737282974.341211,95.000000,0.000000,4330.256348,4351.153809,4267.563965,4317.307617,4352.051270,4358.717773,4363.461426,4552.820313,4551.025879,4560.641113,4492.051270,5644.487305,4304.487305,4259.615234,0.000000,2.000000,36.000000,,,,0.000000,0.000000,0.000000,0.000000,0.000000,0.000000,0.000000,0.000000,0.000000,0.000000,0.000000,0.000000,0.000000,0.000000,0.000000,0.000000,,,,,,,,,,,,,,,,,,,,,,,,,,,,,,,,,,,,,,,,,,,,,,,,,,,,,,,,,,,,,,,,,,,,,,,,,,,,,,,,,,,,,,,,,,,,,,,,,,,,,,,,,,,,,,,,,,,,,,,,,,,,,,,,,
1737282974.348505,1737282974.349119,96.000000,0.000000,4330.769043,4349.871582,4265.512695,4318.846191,4355.000000,4358.846191,4361.666504,4552.307617,4549.230957,4556.153809,4492.563965,5647.692383,4303.717773,4262.948730,0.000000,2.000000,36.000000,,,,0.000000,0.000000,0.000000,0.000000,0.000000,0.000000,0.000000,0.000000,0.000000,0.000000,0.000000,0.000000,0.000000,0.000000,0.000000,0.000000,,,,,,,,,,,,,,,,,24.000000,0.000000,0.661753,-0.747986,0.036926,0.035156,-0.107923,-0.979123,-0.118667,15.454870,-31.051790,16.215193,,,,,,,,,,,,,,,,,,,,,,,,,,,,,,,,,,,,,,,,,,,,,,,,,,,,,,,,,,,,,,,,,,,,,,,,,,,,,,,,,,,,,,,,,,,,,,,,,,,,,
1737282974.356314,1737282974.356928,97.000000,0.000000,4331.538574,4349.871582,4264.487305,4318.333496,4354.871582,4359.743652,4365.128418,4550.641113,4551.794922,4555.641113,4494.230957,5645.128418,4302.436035,4261.922852,0.000000,2.000000,36.000000,,,,0.000000,0.000000,0.000000,0.000000,0.000000,0.000000,0.000000,0.000000,0.000000,0.000000,0.000000,0.000000,0.000000,0.000000,0.000000,0.000000,,,,,,,,,,,,,,,,,,,,,,,,,,,,,,,,,,,,,,,,,,,,,,,,,,,,,,,,,,,,,,,,,,,,,,,,,,,,,,,,,,,,,,,,,,,,,,,,,,,,,,,,,,,,,,,,,,,,,,,,,,,,,,,,,
1737282974.364122,1737282974.364736,98.000000,0.000000,4334.230957,4351.282227,4267.820313,4317.692383,4353.589844,4357.692383,4366.153809,4553.461426,4552.436035,4559.743652,4493.589844,5645.256348,4303.846191,4259.358887,0.000000,2.000000,36.000000,,,,0.000000,0.000000,0.000000,0.000000,0.000000,0.000000,0.000000,0.000000,0.000000,0.000000,0.000000,0.000000,0.000000,0.000000,0.000000,0.000000,,,,,,,,,,,,,,,,,,,,,,,,,,,,,,,,,,,,,,,,,,,,,,,,,,,,,,,,,,,,,,,,,,,,,,,,,,,,,,,,,,,,,,,,,,,,,,,,,,,,,,,,,,,,,,,,,,,,,,,,,,,,,,,,,
1737282974.371930,1737282974.372444,99.000000,0.000000,4336.410156,4351.282227,4267.307617,4318.461426,4354.230957,4358.077148,4364.615234,4555.641113,4552.436035,4560.897461,4490.384766,5647.692383,4306.410156,4259.230957,0.000000,2.000000,36.000000,,,,0.000000,0.000000,0.000000,0.000000,0.000000,0.000000,0.000000,0.000000,0.000000,0.000000,0.000000,0.000000,0.000000,0.000000,0.000000,0.000000,,,,,,,,,,,,,,,,,,,,,,,,,,,,,,,,,,,,,,,,,,,,,,,,,,,,,,,,,,,,,,,,,,,,,,,,,,,,,,,,,,,,,,,,,,,,,,,,,,,,,,,,,,,,,,,,,,,,,,,,,,,,,,,,,
1737282974.379738,1737282974.380252,100.000000,0.000000,4333.205078,4348.846191,4263.333496,4318.205078,4353.077148,4360.897461,4366.794922,4555.128418,4553.205078,4559.102539,4490.769043,5646.282227,4304.358887,4258.846191,0.000000,2.000000,36.000000,,,,0.000000,0.000000,0.000000,0.000000,0.000000,0.000000,0.000000,0.000000,0.000000,0.000000,0.000000,0.000000,0.000000,0.000000,0.000000,0.000000,,,,,,,,,,,,,,,,,25.000000,0.000000,0.661753,-0.747986,0.036926,0.035156,-0.106458,-0.988402,-0.126969,15.392716,-30.946611,16.110340,,,,,,,,,,,,,,,,,,,,,,,,,,,,,,,,,,,,,,,,,,,,,,,,,,,,,,,,,,,,,,,,,,,,,,,,,,,,,,,,,,,,,,,,,,,,,,,,,,,,,
1737282974.387546,1737282974.387960,101.000000,0.000000,4329.615234,4349.615234,4266.922852,4317.820313,4351.794922,4360.641113,4363.846191,4553.461426,4551.282227,4557.692383,4496.538574,5646.410156,4303.205078,4262.820313,0.000000,2.000000,36.000000,,,,0.000000,0.000000,0.000000,0.000000,0.000000,0.000000,0.000000,0.000000,0.000000,0.000000,0.000000,0.000000,0.000000,0.000000,0.000000,0.000000,,,,,,,,,,,,,,,,,,,,,,,,,,,,,,,,,,,,,,,,,,,,,,,,,,,,,,,,,,,,,,,,,,,,,,,,,,,,,,,,,,,,,,,,,,,,,,,,,,,,,,,,,,,,,,,,,,,,,,,,,,,,,,,,,
1737282974.395354,1737282974.395768,102.000000,0.000000,4330.384766,4352.051270,4270.384766,4320.128418,4352.692383,4359.487305,4360.512695,4553.077148,4551.025879,4557.307617,4494.102539,5645.000000,4306.025879,4263.205078,0.000000,2.000000,36.000000,,,,0.000000,0.000000,0.000000,0.000000,0.000000,0.000000,0.000000,0.000000,0.000000,0.000000,0.000000,0.000000,0.000000,0.000000,0.000000,0.000000,,,,,,,,,,,,,,,,,,,,,,,,,,,,,,,,,,,,,,,,,,,,,,,,,,,,,,,,,,,,,,,,,,,,,,,,,,,,,,,,,,,,,,,,,,,,,,,,,,,,,,,,,,,,,,,,,,,,,,,,,,,,,,,,,
1737282974.403162,1737282974.403476,103.000000,0.000000,4330.897461,4352.563965,4268.717773,4322.179688,4352.436035,4358.589844,4363.717773,4554.487305,4555.128418,4558.846191,4489.102539,5645.641113,4307.436035,4262.179688,0.000000,2.000000,36.000000,,,,0.000000,0.000000,0.000000,0.000000,0.000000,0.000000,0.000000,0.000000,0.000000,0.000000,0.000000,0.000000,0.000000,0.000000,0.000000,0.000000,,,,,,,,,,,,,,,,,,,,,,,,,,,,,,,,,,,,,,,,,,,,,,,,,,,,,,,,,,,,,,,,,,,,,,,,,,,,,,,,,,,,,,,,,,,,,,,,,,,,,,,,,,,,,,,,,,,,,,,,,,,,,,,,,
1737282974.410970,1737282974.411284,104.000000,0.000000,4327.692383,4349.743652,4268.717773,4320.128418,4352.051270,4357.820313,4363.077148,4553.974121,4555.641113,4559.615234,4492.948730,5648.461426,4303.717773,4262.179688,0.000000,2.000000,36.000000,,,,0.000000,0.000000,0.000000,0.000000,0.000000,0.000000,0.000000,0.000000,0.000000,0.000000,0.000000,0.000000,0.000000,0.000000,0.000000,0.000000,,,,,,,,,,,,,,,,,26.000000,0.000000,0.661747,-0.747986,0.036987,0.035217,-0.108900,-0.991332,-0.114272,15.220111,-31.035284,16.215973,,,,,,,,,,,,,,,,,,,,,,,,,,,,,,,,,,,,,,,,,,,,,,,,,,,,,,,,,,,,,,,,,,,,,,,,,,,,,,,,,,,,,,,,,,,,,,,,,,,,,
1737282974.418778,1737282974.418992,105.000000,0.000000,4329.230957,4347.948730,4268.717773,4318.974121,4354.102539,4361.153809,4361.282227,4553.333496,4550.512695,4558.205078,4494.102539,5645.256348,4302.179688,4260.641113,0.000000,2.000000,36.000000,,,,0.000000,0.000000,0.000000,0.000000,0.000000,0.000000,0.000000,0.000000,0.000000,0.000000,0.000000,0.000000,0.000000,0.000000,0.000000,0.000000,,,,,,,,,,,,,,,,,,,,,,,,,,,,,,,,,,,,,,,,,,,,,,,,,,,,,,,,,,,,,,,,,,,,,,,,,,,,,,,,,,,,,,,,,,,,,,,,,,,,,,,,,,,,,,,,,,,,,,,,,,,,,,,,,
1737282974.426586,1737282974.426900,106.000000,0.000000,4333.717773,4350.641113,4267.307617,4320.384766,4353.589844,4363.333496,4364.102539,4553.589844,4547.948730,4555.384766,4491.153809,5645.000000,4307.692383,4264.230957,0.000000,2.000000,36.000000,,,,0.000000,0.000000,0.000000,0.000000,0.000000,0.000000,0.000000,0.000000,0.000000,0.000000,0.000000,0.000000,0.000000,0.000000,0.000000,0.000000,,,,,,,,,,,,,,,,,,,,,,,,,,,,,,,,,,,,,,,,,,,,,,,,,,,,,,,,,,,,,,,,,,,,,,,,,,,,,,,,,,,,,,,,,,,,,,,,,,,,,,,,,,,,,,,,,,,,,,,,,,,,,,,,,
1737282974.434394,1737282974.434708,107.000000,0.000000,4330.641113,4349.743652,4266.794922,4320.897461,4353.333496,4360.512695,4365.641113,4552.692383,4549.871582,4555.128418,4493.205078,5648.077148,4306.025879,4263.205078,0.000000,2.000000,36.000000,,,,0.000000,0.000000,0.000000,0.000000,0.000000,0.000000,0.000000,0.000000,0.000000,0.000000,0.000000,0.000000,0.000000,0.000000,0.000000,0.000000,,,,,,,,,,,,,,,,,,,,,,,,,,,,,,,,,,,,,,,,,,,,,,,,,,,,,,,,,,,,,,,,,,,,,,,,,,,,,,,,,,,,,,,,,,,,,,,,,,,,,,,,,,,,,,,,,,,,,,,,,,,,,,,,,
1737282974.442202,1737282974.442617,108.000000,0.000000,4328.589844,4347.436035,4267.307617,4320.384766,4356.153809,4360.641113,4364.871582,4552.820313,4548.974121,4557.307617,4494.615234,5647.436035,4300.256348,4260.000000,0.000000,2.000000,36.000000,,,,0.000000,0.000000,0.000000,0.000000,0.000000,0.000000,0.000000,0.000000,0.000000,0.000000,0.000000,0.000000,0.000000,0.000000,0.000000,0.000000,1.000000,0.000000,0.000000,0.000000,0.000000,0.000000,0.000000,0.000000,0.000000,0.000000,0.000000,0.000000,0.000000,0.000000,0.000000,0.000000,27.000000,0.000000,0.661819,-0.747925,0.036987,0.035156,-0.103040,-0.977170,-0.128922,15.248100,-31.048422,16.261042,,,,,,,,,,,,,,,,,,,,,,,,,,,,,,,,0.029985,0.025345,0.010674,0.025003,0.022300,0.078042,0.047663,0.038048,0.033073,0.028637,0.219822,0.250645,0.119798,0.051164,0.027802,0.278732,0.144100,0.062744,0.039558,0.022858,0.034026,0.051462,0.049209,0.026230,0.019826,0.395206,0.333908,0.127440,0.100801,0.059948,0.530195,0.521092,0.289327,0.094549,0.055177,0.133438,0.114241,0.037852,0.022657,0.025240,0.508202,0.303041,0.110961,0.069379,0.052182,0.068155,0.062365,0.025161,0.030445,0.016772,0.073355,0.075684,0.024770,0.025954,0.024115,0.018268,0.037390,0.018739,0.023102,0.028198,1.325575,0.690893,0.397500,0.168681,0.053143,0.138681,0.094114,0.049579,0.033471,0.037142
1737282974.450010,1737282974.450425,109.000000,0.000000,4331.794922,4350.000000,4269.358887,4321.794922,4356.538574,4363.589844,4365.641113,4553.333496,4545.769043,4557.563965,4492.436035,5647.179688,4302.436035,4263.461426,0.000000,2.000000,36.000000,,,,0.000000,0.000000,0.000000,0.000000,0.000000,0.000000,0.000000,0.000000,0.000000,0.000000,0.000000,0.000000,0.000000,0.000000,0.000000,0.000000,,,,,,,,,,,,,,,,,,,,,,,,,,,,,,,,,,,,,,,,,,,,,,,,,,,,,,,,,,,,,,,,,,,,,,,,,,,,,,,,,,,,,,,,,,,,,,,,,,,,,,,,,,,,,,,,,,,,,,,,,,,,,,,,,
1737282974.457819,1737282974.458333,110.000000,0.000000,4330.384766,4352.436035,4268.333496,4321.922852,4353.333496,4363.974121,4368.077148,4551.794922,4547.436035,4556.025879,4495.769043,5645.512695,4303.461426,4263.077148,0.000000,2.000000,36.000000,,,,0.000000,0.000000,0.000000,0.000000,0.000000,0.000000,0.000000,0.000000,0.000000,0.000000,0.000000,0.000000,0.000000,0.000000,0.000000,0.000000,,,,,,,,,,,,,,,,,,,,,,,,,,,,,,,,,,,,,,,,,,,,,,,,,,,,,,,,,,,,,,,,,,,,,,,,,,,,,,,,,,,,,,,,,,,,,,,,,,,,,,,,,,,,,,,,,,,,,,,,,,,,,,,,,
1737282974.465627,1737282974.466141,111.000000,0.000000,4329.230957,4351.410156,4267.820313,4319.230957,4352.051270,4363.205078,4366.922852,4551.282227,4549.487305,4555.769043,4499.871582,5646.153809,4301.922852,4262.563965,0.000000,2.000000,36.000000,,,,0.000000,0.000000,0.000000,0.000000,0.000000,0.000000,0.000000,0.000000,0.000000,0.000000,0.000000,0.000000,0.000000,0.000000,0.000000,0.000000,,,,,,,,,,,,,,,,,,,,,,,,,,,,,,,,,,,,,,,,,,,,,,,,,,,,,,,,,,,,,,,,,,,,,,,,,,,,,,,,,,,,,,,,,,,,,,,,,,,,,,,,,,,,,,,,,,,,,,,,,,,,,,,,,
1737282974.473435,1737282974.474048,112.000000,0.000000,4332.692383,4351.922852,4269.102539,4318.589844,4352.692383,4362.692383,4365.769043,4553.589844,4547.820313,4555.641113,4493.461426,5647.820313,4301.538574,4264.487305,0.000000,2.000000,36.000000,,,,0.000000,0.000000,0.000000,0.000000,0.000000,0.000000,0.000000,0.000000,0.000000,0.000000,0.000000,0.000000,0.000000,0.000000,0.000000,0.000000,,,,,,,,,,,,,,,,,28.000000,0.000000,0.661819,-0.747925,0.036987,0.035156,-0.095715,-0.974240,-0.124039,15.273290,-31.193579,16.251604,,,,,,,,,,,,,,,,,,,,,,,,,,,,,,,,,,,,,,,,,,,,,,,,,,,,,,,,,,,,,,,,,,,,,,,,,,,,,,,,,,,,,,,,,,,,,,,,,,,,,
1737282974.481243,1737282974.481856,113.000000,0.000000,4334.102539,4353.205078,4269.358887,4322.179688,4353.461426,4362.948730,4368.717773,4553.333496,4547.563965,4556.922852,4487.563965,5644.487305,4300.000000,4262.179688,0.000000,2.000000,36.000000,,,,0.000000,0.000000,0.000000,0.000000,0.000000,0.000000,0.000000,0.000000,0.000000,0.000000,0.000000,0.000000,0.000000,0.000000,0.000000,0.000000,,,,,,,,,,,,,,,,,,,,,,,,,,,,,,,,,,,,,,,,,,,,,,,,,,,,,,,,,,,,,,,,,,,,,,,,,,,,,,,,,,,,,,,,,,,,,,,,,,,,,,,,,,,,,,,,,,,,,,,,,,,,,,,,,
1737282974.489051,1737282974.489564,114.000000,0.000000,4331.153809,4352.692383,4268.205078,4323.333496,4354.487305,4361.922852,4367.436035,4551.666504,4547.820313,4559.615234,4493.077148,5642.948730,4299.102539,4260.641113,0.000000,2.000000,36.000000,,,,0.000000,0.000000,0.000000,0.000000,0.000000,0.000000,0.000000,0.000000,0.000000,0.000000,0.000000,0.000000,0.000000,0.000000,0.000000,0.000000,,,,,,,,,,,,,,,,,,,,,,,,,,,,,,,,,,,,,,,,,,,,,,,,,,,,,,,,,,,,,,,,,,,,,,,,,,,,,,,,,,,,,,,,,,,,,,,,,,,,,,,,,,,,,,,,,,,,,,,,,,,,,,,,,
1737282974.496859,1737282974.497372,115.000000,0.000000,4328.461426,4351.538574,4266.025879,4320.769043,4354.615234,4361.025879,4365.641113,4551.666504,4545.512695,4557.692383,4494.358887,5641.666504,4296.666504,4259.871582,0.000000,2.000000,36.000000,,,,0.000000,0.000000,0.000000,0.000000,0.000000,0.000000,0.000000,0.000000,0.000000,0.000000,0.000000,0.000000,0.000000,0.000000,0.000000,0.000000,,,,,,,,,,,,,,,,,,,,,,,,,,,,,,,,,,,,,,,,,,,,,,,,,,,,,,,,,,,,,,,,,,,,,,,,,,,,,,,,,,,,,,,,,,,,,,,,,,,,,,,,,,,,,,,,,,,,,,,,,,,,,,,,,
1737282974.504667,1737282974.505081,116.000000,0.000000,4332.051270,4351.410156,4268.846191,4319.871582,4352.051270,4361.025879,4365.769043,4552.436035,4544.102539,4555.000000,4491.666504,5643.589844,4297.820313,4260.769043,0.000000,2.000000,36.000000,,,,0.000000,0.000000,0.000000,0.000000,0.000000,0.000000,0.000000,0.000000,0.000000,0.000000,0.000000,0.000000,0.000000,0.000000,0.000000,0.000000,,,,,,,,,,,,,,,,,29.000000,0.000000,0.661747,-0.747986,0.036987,0.035217,-0.091320,-0.984007,-0.123062,15.362628,-31.124222,16.309776,,,,,,,,,,,,,,,,,,,,,,,,,,,,,,,,,,,,,,,,,,,,,,,,,,,,,,,,,,,,,,,,,,,,,,,,,,,,,,,,,,,,,,,,,,,,,,,,,,,,,
1737282974.512475,1737282974.512888,117.000000,0.000000,4333.589844,4350.769043,4270.256348,4320.384766,4350.256348,4361.282227,4365.769043,4552.563965,4547.436035,4556.282227,4493.333496,5646.153809,4303.205078,4260.897461,0.000000,2.000000,36.000000,,,,0.000000,0.000000,0.000000,0.000000,0.000000,0.000000,0.000000,0.000000,0.000000,0.000000,0.000000,0.000000,0.000000,0.000000,0.000000,0.000000,,,,,,,,,,,,,,,,,,,,,,,,,,,,,,,,,,,,,,,,,,,,,,,,,,,,,,,,,,,,,,,,,,,,,,,,,,,,,,,,,,,,,,,,,,,,,,,,,,,,,,,,,,,,,,,,,,,,,,,,,,,,,,,,,
1737282974.520283,1737282974.520597,118.000000,0.000000,4331.794922,4350.897461,4266.794922,4320.128418,4352.051270,4361.153809,4364.487305,4551.794922,4548.333496,4558.974121,4493.717773,5644.230957,4303.333496,4262.436035,0.000000,2.000000,36.000000,,,,0.000000,0.000000,0.000000,0.000000,0.000000,0.000000,0.000000,0.000000,0.000000,0.000000,0.000000,0.000000,0.000000,0.000000,0.000000,0.000000,,,,,,,,,,,,,,,,,,,,,,,,,,,,,,,,,,,,,,,,,,,,,,,,,,,,,,,,,,,,,,,,,,,,,,,,,,,,,,,,,,,,,,,,,,,,,,,,,,,,,,,,,,,,,,,,,,,,,,,,,,,,,,,,,
1737282974.528091,1737282974.528405,119.000000,0.000000,4335.000000,4352.436035,4268.461426,4320.128418,4352.179688,4360.769043,4361.794922,4552.051270,4547.179688,4558.846191,4493.846191,5647.051270,4302.051270,4267.692383,0.000000,2.000000,36.000000,,,,0.000000,0.000000,0.000000,0.000000,0.000000,0.000000,0.000000,0.000000,0.000000,0.000000,0.000000,0.000000,0.000000,0.000000,0.000000,0.000000,,,,,,,,,,,,,,,,,,,,,,,,,,,,,,,,,,,,,,,,,,,,,,,,,,,,,,,,,,,,,,,,,,,,,,,,,,,,,,,,,,,,,,,,,,,,,,,,,,,,,,,,,,,,,,,,,,,,,,,,,,,,,,,,,
1737282974.535900,1737282974.536113,120.000000,0.000000,4333.333496,4350.512695,4270.128418,4320.128418,4349.615234,4360.641113,4363.717773,4554.230957,4551.666504,4556.666504,4495.128418,5647.692383,4301.666504,4263.333496,0.000000,2.000000,36.000000,,,,0.000000,0.000000,0.000000,0.000000,0.000000,0.000000,0.000000,0.000000,0.000000,0.000000,0.000000,0.000000,0.000000,0.000000,0.000000,0.000000,,,,,,,,,,,,,,,,,30.000000,0.000000,0.661813,-0.747925,0.036987,0.035278,-0.096203,-0.976682,-0.114760,15.259698,-31.045134,16.345467,,,,,,,,,,,,,,,,,,,,,,,,,,,,,,,,,,,,,,,,,,,,,,,,,,,,,,,,,,,,,,,,,,,,,,,,,,,,,,,,,,,,,,,,,,,,,,,,,,,,,
1737282974.543707,1737282974.543921,121.000000,0.000000,4331.025879,4351.282227,4269.743652,4323.974121,4348.974121,4359.487305,4364.102539,4554.615234,4553.717773,4556.666504,4496.025879,5645.641113,4303.589844,4260.128418,0.000000,2.000000,36.000000,,,,0.000000,0.000000,0.000000,0.000000,0.000000,0.000000,0.000000,0.000000,0.000000,0.000000,0.000000,0.000000,0.000000,0.000000,0.000000,0.000000,,,,,,,,,,,,,,,,,,,,,,,,,,,,,,,,,,,,,,,,,,,,,,,,,,,,,,,,,,,,,,,,,,,,,,,,,,,,,,,,,,,,,,,,,,,,,,,,,,,,,,,,,,,,,,,,,,,,,,,,,,,,,,,,,
1737282974.551516,1737282974.551629,122.000000,0.000000,4332.051270,4353.461426,4269.871582,4324.230957,4352.179688,4357.820313,4360.641113,4554.487305,4550.128418,4557.563965,4494.102539,5646.282227,4307.307617,4263.333496,0.000000,2.000000,36.000000,,,,0.000000,0.000000,0.000000,0.000000,0.000000,0.000000,0.000000,0.000000,0.000000,0.000000,0.000000,0.000000,0.000000,0.000000,0.000000,0.000000,,,,,,,,,,,,,,,,,,,,,,,,,,,,,,,,,,,,,,,,,,,,,,,,,,,,,,,,,,,,,,,,,,,,,,,,,,,,,,,,,,,,,,,,,,,,,,,,,,,,,,,,,,,,,,,,,,,,,,,,,,,,,,,,,
1737282974.559324,1737282974.559437,123.000000,0.000000,4329.230957,4351.410156,4268.077148,4318.333496,4355.256348,4357.948730,4360.769043,4554.871582,4550.512695,4556.538574,4492.563965,5647.948730,4308.717773,4260.256348,0.000000,2.000000,36.000000,,,,0.000000,0.000000,0.000000,0.000000,0.000000,0.000000,0.000000,0.000000,0.000000,0.000000,0.000000,0.000000,0.000000,0.000000,0.000000,0.000000,,,,,,,,,,,,,,,,,,,,,,,,,,,,,,,,,,,,,,,,,,,,,,,,,,,,,,,,,,,,,,,,,,,,,,,,,,,,,,,,,,,,,,,,,,,,,,,,,,,,,,,,,,,,,,,,,,,,,,,,,,,,,,,,,
1737282974.567132,1737282974.567145,124.000000,0.000000,4329.102539,4352.179688,4266.794922,4318.461426,4355.384766,4360.000000,4361.153809,4553.717773,4553.846191,4554.743652,4495.256348,5647.692383,4309.743652,4260.512695,0.000000,2.000000,36.000000,,,,0.000000,0.000000,0.000000,0.000000,0.000000,0.000000,0.000000,0.000000,0.000000,0.000000,0.000000,0.000000,0.000000,0.000000,0.000000,0.000000,,,,,,,,,,,,,,,,,31.000000,0.000000,0.661816,-0.747925,0.036926,0.035278,-0.103040,-0.979612,-0.112318,15.300395,-31.040619,16.260920,,,,,,,,,,,,,,,,,,,,,,,,,,,,,,,,0.030758,0.031346,0.011241,0.025026,0.024496,0.071371,0.040047,0.029002,0.027639,0.031154,0.180002,0.181863,0.082657,0.037719,0.026210,0.208018,0.107909,0.039971,0.031260,0.021939,0.026901,0.032764,0.037674,0.024718,0.019954,0.342830,0.225446,0.080250,0.073660,0.045891,0.394308,0.359119,0.200514,0.064685,0.046617,0.104229,0.084049,0.025746,0.016591,0.026368,0.395158,0.183987,0.093332,0.049621,0.046030,0.048320,0.045184,0.023159,0.030797,0.015424,0.072323,0.055962,0.023213,0.023211,0.024548,0.017565,0.037000,0.019296,0.022175,0.029862,1.000021,0.440362,0.252786,0.112735,0.039510,0.116608,0.079426,0.045994,0.031124,0.036448
1737282974.574940,1737282974.574953,125.000000,0.000000,4331.922852,4351.025879,4262.948730,4319.358887,4354.102539,4359.102539,4358.974121,4553.589844,4552.307617,4555.512695,4495.512695,5645.256348,4309.358887,4264.230957,0.000000,2.000000,36.000000,,,,0.000000,0.000000,0.000000,0.000000,0.000000,0.000000,0.000000,0.000000,0.000000,0.000000,0.000000,0.000000,0.000000,0.000000,0.000000,0.000000,,,,,,,,,,,,,,,,,,,,,,,,,,,,,,,,,,,,,,,,,,,,,,,,,,,,,,,,,,,,,,,,,,,,,,,,,,,,,,,,,,,,,,,,,,,,,,,,,,,,,,,,,,,,,,,,,,,,,,,,,,,,,,,,,
1737282974.582748,1737282974.582661,126.000000,0.000000,4330.384766,4350.769043,4261.153809,4317.948730,4353.205078,4354.358887,4354.743652,4553.974121,4553.077148,4556.666504,4493.846191,5646.538574,4309.871582,4265.128418,0.000000,2.000000,36.000000,,,,0.000000,0.000000,0.000000,0.000000,0.000000,0.000000,0.000000,0.000000,0.000000,0.000000,0.000000,0.000000,0.000000,0.000000,0.000000,0.000000,,,,,,,,,,,,,,,,,,,,,,,,,,,,,,,,,,,,,,,,,,,,,,,,,,,,,,,,,,,,,,,,,,,,,,,,,,,,,,,,,,,,,,,,,,,,,,,,,,,,,,,,,,,,,,,,,,,,,,,,,,,,,,,,,
1737282974.590556,1737282974.590469,127.000000,0.000000,4327.436035,4353.077148,4267.307617,4318.333496,4352.563965,4353.846191,4356.025879,4553.717773,4558.333496,4555.897461,4495.000000,5648.717773,4310.256348,4263.077148,36.000000,2.000000,36.000000,,,,0.000000,0.000000,0.000000,0.000000,0.000000,0.000000,0.000000,0.000000,0.000000,0.000000,0.000000,0.000000,0.000000,0.000000,0.000000,0.000000,,,,,,,,,,,,,,,,,,,,,,,,,,,,,,,,,,,,,,,,,,,,,,,,,,,,,,,,,,,,,,,,,,,,,,,,,,,,,,,,,,,,,,,,,,,,,,,,,,,,,,,,,,,,,,,,,,,,,,,,,,,,,,,,,
1737282974.598364,1737282974.598177,0.000000,0.000000,4328.333496,4352.307617,4268.461426,4317.820313,4350.512695,4359.102539,4363.205078,4554.102539,4554.487305,4555.769043,4495.641113,5646.153809,4307.179688,4260.769043,0.000000,2.000000,36.000000,,,,0.000000,0.000000,0.000000,0.000000,0.000000,0.000000,0.000000,0.000000,0.000000,0.000000,0.000000,0.000000,0.000000,0.000000,0.000000,0.000000,,,,,,,,,,,,,,,,,0.000000,0.000000,0.661875,-0.747864,0.037048,0.035339,-0.096203,-0.977170,-0.120620,15.520355,-30.936558,16.268160,,,,,,,,,,,,,,,,,,,,,,,,,,,,,,,,,,,,,,,,,,,,,,,,,,,,,,,,,,,,,,,,,,,,,,,,,,,,,,,,,,,,,,,,,,,,,,,,,,,,,
1737282974.606172,1737282974.606085,1.000000,0.000000,4331.922852,4351.282227,4264.871582,4319.230957,4352.179688,4359.615234,4361.794922,4552.948730,4547.436035,4557.563965,4496.282227,5643.846191,4306.410156,4262.307617,0.000000,2.000000,36.000000,,,,0.000000,0.000000,0.000000,0.000000,0.000000,0.000000,0.000000,0.000000,0.000000,0.000000,0.000000,0.000000,0.000000,0.000000,0.000000,0.000000,,,,,,,,,,,,,,,,,,,,,,,,,,,,,,,,,,,,,,,,,,,,,,,,,,,,,,,,,,,,,,,,,,,,,,,,,,,,,,,,,,,,,,,,,,,,,,,,,,,,,,,,,,,,,,,,,,,,,,,,,,,,,,,,,
1737282974.613980,1737282974.613893,2.000000,0.000000,4332.692383,4349.358887,4263.205078,4319.487305,4353.974121,4357.948730,4359.871582,4551.410156,4548.717773,4558.717773,4497.179688,5643.717773,4305.128418,4259.230957,0.000000,2.000000,36.000000,,,,0.000000,0.000000,0.000000,0.000000,0.000000,0.000000,0.000000,0.000000,0.000000,0.000000,0.000000,0.000000,0.000000,0.000000,0.000000,0.000000,,,,,,,,,,,,,,,,,,,,,,,,,,,,,,,,,,,,,,,,,,,,,,,,,,,,,,,,,,,,,,,,,,,,,,,,,,,,,,,,,,,,,,,,,,,,,,,,,,,,,,,,,,,,,,,,,,,,,,,,,,,,,,,,,
1737282974.621788,1737282974.621801,3.000000,0.000000,4330.769043,4346.538574,4266.153809,4316.794922,4351.794922,4361.282227,4365.897461,4551.922852,4551.794922,4557.436035,4496.922852,5645.256348,4303.205078,4255.256348,0.000000,2.000000,36.000000,,,,0.000000,0.000000,0.000000,0.000000,0.000000,0.000000,0.000000,0.000000,0.000000,0.000000,0.000000,0.000000,0.000000,0.000000,0.000000,0.000000,,,,,,,,,,,,,,,,,,,,,,,,,,,,,,,,,,,,,,,,,,,,,,,,,,,,,,,,,,,,,,,,,,,,,,,,,,,,,,,,,,,,,,,,,,,,,,,,,,,,,,,,,,,,,,,,,,,,,,,,,,,,,,,,,
1737282974.629597,1737282974.629609,4.000000,0.000000,4330.769043,4349.871582,4267.563965,4316.666504,4352.820313,4362.563965,4367.563965,4553.589844,4550.512695,4556.538574,4495.128418,5646.538574,4303.974121,4258.717773,0.000000,2.000000,36.000000,,,,0.000000,0.000000,0.000000,0.000000,0.000000,0.000000,0.000000,0.000000,0.000000,0.000000,0.000000,0.000000,0.000000,0.000000,0.000000,0.000000,,,,,,,,,,,,,,,,,1.000000,0.000000,0.661806,-0.747925,0.037109,0.035278,-0.101087,-0.983518,-0.113783,15.451653,-30.976234,16.241344,,,,,,,,,,,,,,,,,,,,,,,,,,,,,,,,,,,,,,,,,,,,,,,,,,,,,,,,,,,,,,,,,,,,,,,,,,,,,,,,,,,,,,,,,,,,,,,,,,,,,
1737282974.637405,1737282974.637517,5.000000,0.000000,4331.538574,4353.077148,4265.000000,4319.871582,4354.230957,4360.256348,4363.333496,4553.461426,4548.974121,4557.692383,4493.077148,5643.974121,4302.692383,4259.487305,0.000000,2.000000,36.000000,,,,0.000000,0.000000,0.000000,0.000000,0.000000,0.000000,0.000000,0.000000,0.000000,0.000000,0.000000,0.000000,0.000000,0.000000,0.000000,0.000000,,,,,,,,,,,,,,,,,,,,,,,,,,,,,,,,,,,,,,,,,,,,,,,,,,,,,,,,,,,,,,,,,,,,,,,,,,,,,,,,,,,,,,,,,,,,,,,,,,,,,,,,,,,,,,,,,,,,,,,,,,,,,,,,,
1737282974.645213,1737282974.645325,6.000000,0.000000,4332.436035,4352.436035,4267.948730,4320.384766,4352.820313,4359.615234,4360.769043,4553.333496,4548.077148,4560.256348,4495.000000,5644.487305,4301.153809,4258.717773,0.000000,2.000000,36.000000,,,,0.000000,0.000000,0.000000,0.000000,0.000000,0.000000,0.000000,0.000000,0.000000,0.000000,0.000000,0.000000,0.000000,0.000000,0.000000,0.000000,,,,,,,,,,,,,,,,,,,,,,,,,,,,,,,,,,,,,,,,,,,,,,,,,,,,,,,,,,,,,,,,,,,,,,,,,,,,,,,,,,,,,,,,,,,,,,,,,,,,,,,,,,,,,,,,,,,,,,,,,,,,,,,,,
1737282974.653021,1737282974.653233,7.000000,0.000000,4332.563965,4352.436035,4267.563965,4318.333496,4353.077148,4359.871582,4362.307617,4553.846191,4547.820313,4560.769043,4495.000000,5647.692383,4300.897461,4260.897461,0.000000,2.000000,36.000000,,,,0.000000,0.000000,0.000000,0.000000,0.000000,0.000000,0.000000,0.000000,0.000000,0.000000,0.000000,0.000000,0.000000,0.000000,0.000000,0.000000,,,,,,,,,,,,,,,,,,,,,,,,,,,,,,,,,,,,,,,,,,,,,,,,,,,,,,,,,,,,,,,,,,,,,,,,,,,,,,,,,,,,,,,,,,,,,,,,,,,,,,,,,,,,,,,,,,,,,,,,,,,,,,,,,
1737282974.660829,1737282974.661041,8.000000,0.000000,4330.641113,4352.948730,4265.641113,4318.205078,4353.205078,4359.230957,4365.128418,4553.717773,4549.743652,4556.794922,4491.666504,5648.205078,4301.282227,4264.102539,0.000000,2.000000,36.000000,,,,0.000000,0.000000,0.000000,0.000000,0.000000,0.000000,0.000000,0.000000,0.000000,0.000000,0.000000,0.000000,0.000000,0.000000,0.000000,0.000000,,,,,,,,,,,,,,,,,2.000000,0.000000,0.661799,-0.747925,0.037231,0.035278,-0.102063,-0.974728,-0.124039,15.523155,-30.878611,16.167210,,,,,,,,,,,,,,,,,,,,,,,,,,,,,,,,,,,,,,,,,,,,,,,,,,,,,,,,,,,,,,,,,,,,,,,,,,,,,,,,,,,,,,,,,,,,,,,,,,,,,
1737282974.668637,1737282974.668949,9.000000,0.000000,4331.153809,4351.794922,4269.358887,4318.974121,4350.897461,4359.743652,4365.256348,4553.333496,4549.230957,4555.384766,4494.358887,5648.333496,4301.666504,4264.743652,0.000000,2.000000,36.000000,,,,0.000000,0.000000,0.000000,0.000000,0.000000,0.000000,0.000000,0.000000,0.000000,0.000000,0.000000,0.000000,0.000000,0.000000,0.000000,0.000000,,,,,,,,,,,,,,,,,,,,,,,,,,,,,,,,,,,,,,,,,,,,,,,,,,,,,,,,,,,,,,,,,,,,,,,,,,,,,,,,,,,,,,,,,,,,,,,,,,,,,,,,,,,,,,,,,,,,,,,,,,,,,,,,,
1737282974.676445,1737282974.676757,10.000000,0.000000,4332.692383,4350.256348,4268.461426,4317.948730,4351.538574,4360.769043,4365.256348,4553.974121,4547.307617,4558.205078,4497.307617,5646.153809,4300.769043,4260.384766,0.000000,2.000000,36.000000,,,,0.000000,0.000000,0.000000,0.000000,0.000000,0.000000,0.000000,0.000000,0.000000,0.000000,0.000000,0.000000,0.000000,0.000000,0.000000,0.000000,,,,,,,,,,,,,,,,,,,,,,,,,,,,,,,,,,,,,,,,,,,,,,,,,,,,,,,,,,,,,,,,,,,,,,,,,,,,,,,,,,,,,,,,,,,,,,,,,,,,,,,,,,,,,,,,,,,,,,,,,,,,,,,,,
1737282974.684253,1737282974.684465,11.000000,0.000000,4333.077148,4351.410156,4264.102539,4320.384766,4353.205078,4360.256348,4364.615234,4554.871582,4548.461426,4558.974121,4493.717773,5645.769043,4302.179688,4261.025879,1.000000,2.000000,36.000000,,,,0.000000,0.000000,0.000000,0.000000,0.000000,0.000000,0.000000,0.000000,0.000000,0.000000,0.000000,0.000000,0.000000,0.000000,0.000000,0.000000,,,,,,,,,,,,,,,,,,,,,,,,,,,,,,,,,,,,,,,,,,,,,,,,,,,,,,,,,,,,,,,,,,,,,,,,,,,,,,,,,,,,,,,,,,,,,,,,,,,,,,,,,,,,,,,,,,,,,,,,,,,,,,,,,
1737282974.692061,1737282974.692273,12.000000,0.000000,4331.538574,4351.282227,4266.794922,4325.000000,4350.897461,4360.769043,4362.948730,4554.871582,4549.102539,4559.615234,4491.666504,5646.153809,4303.846191,4261.794922,0.000000,2.000000,36.000000,,,,0.000000,0.000000,0.000000,0.000000,0.000000,0.000000,0.000000,0.000000,0.000000,0.000000,0.000000,0.000000,0.000000,0.000000,0.000000,0.000000,,,,,,,,,,,,,,,,,3.000000,0.000000,0.661799,-0.747925,0.037231,0.035278,-0.112318,-0.986449,-0.131852,15.587506,-30.757418,16.183823,,,,,,,,,,,,,,,,,,,,,,,,,,,,,,,,0.031641,0.036188,0.011354,0.025586,0.026687,0.066276,0.033517,0.022903,0.023811,0.033474,0.139686,0.123566,0.052819,0.027999,0.025441,0.143718,0.077064,0.023576,0.026162,0.021539,0.022482,0.019586,0.027400,0.022082,0.020114,0.291399,0.139542,0.044725,0.049748,0.034170,0.270812,0.224160,0.127181,0.039972,0.037705,0.076240,0.057480,0.018416,0.012210,0.026790,0.285748,0.099766,0.077337,0.033763,0.039113,0.031986,0.031809,0.022313,0.030417,0.015937,0.072941,0.039840,0.023642,0.020931,0.025801,0.017038,0.035283,0.020491,0.020184,0.031043,0.686048,0.246887,0.133698,0.066427,0.029681,0.095894,0.066449,0.043829,0.029192,0.035160
1737282974.699869,1737282974.699981,13.000000,0.000000,4329.102539,4348.461426,4268.846191,4326.538574,4351.538574,4360.512695,4362.307617,4554.615234,4547.820313,4560.897461,4493.974121,5645.512695,4303.077148,4258.589844,0.000000,2.000000,36.000000,,,,0.000000,0.000000,0.000000,0.000000,0.000000,0.000000,0.000000,0.000000,0.000000,0.000000,0.000000,0.000000,0.000000,0.000000,0.000000,0.000000,,,,,,,,,,,,,,,,,,,,,,,,,,,,,,,,,,,,,,,,,,,,,,,,,,,,,,,,,,,,,,,,,,,,,,,,,,,,,,,,,,,,,,,,,,,,,,,,,,,,,,,,,,,,,,,,,,,,,,,,,,,,,,,,,
1737282974.707677,1737282974.707789,14.000000,0.000000,4330.000000,4348.846191,4266.410156,4326.025879,4354.102539,4360.256348,4364.358887,4553.077148,4545.897461,4558.846191,4492.563965,5647.436035,4302.563965,4263.077148,0.000000,2.000000,36.000000,,,,0.000000,0.000000,0.000000,0.000000,0.000000,0.000000,0.000000,0.000000,0.000000,0.000000,0.000000,0.000000,0.000000,0.000000,0.000000,0.000000,,,,,,,,,,,,,,,,,,,,,,,,,,,,,,,,,,,,,,,,,,,,,,,,,,,,,,,,,,,,,,,,,,,,,,,,,,,,,,,,,,,,,,,,,,,,,,,,,,,,,,,,,,,,,,,,,,,,,,,,,,,,,,,,,
1737282974.715485,1737282974.715497,15.000000,0.000000,4331.538574,4350.641113,4265.897461,4322.692383,4352.692383,4360.641113,4367.051270,4553.846191,4547.179688,4556.538574,4491.538574,5647.179688,4300.897461,4263.077148,1.000000,2.000000,36.000000,,,,0.000000,0.000000,0.000000,0.000000,0.000000,0.000000,0.000000,0.000000,0.000000,0.000000,0.000000,0.000000,0.000000,0.000000,0.000000,0.000000,,,,,,,,,,,,,,,,,,,,,,,,,,,,,,,,,,,,,,,,,,,,,,,,,,,,,,,,,,,,,,,,,,,,,,,,,,,,,,,,,,,,,,,,,,,,,,,,,,,,,,,,,,,,,,,,,,,,,,,,,,,,,,,,,
1737282974.723294,1737282974.723305,16.000000,0.000000,4332.948730,4349.871582,4268.205078,4320.512695,4352.563965,4358.846191,4364.358887,4554.743652,4551.666504,4558.205078,4495.769043,5646.794922,4302.692383,4260.641113,0.000000,2.000000,36.000000,,,,0.000000,0.000000,0.000000,0.000000,0.000000,0.000000,0.000000,0.000000,0.000000,0.000000,0.000000,0.000000,0.000000,0.000000,0.000000,0.000000,,,,,,,,,,,,,,,,,4.000000,0.000000,0.661799,-0.747925,0.037231,0.035278,-0.096203,-0.983518,-0.116225,15.545422,-30.931675,16.232107,,,,,,,,,,,,,,,,,,,,,,,,,,,,,,,,,,,,,,,,,,,,,,,,,,,,,,,,,,,,,,,,,,,,,,,,,,,,,,,,,,,,,,,,,,,,,,,,,,,,,
1737282974.731102,1737282974.731013,17.000000,0.000000,4332.307617,4349.358887,4268.077148,4320.897461,4354.743652,4358.205078,4360.512695,4552.179688,4550.641113,4558.589844,4497.051270,5646.410156,4305.000000,4263.461426,0.000000,2.000000,36.000000,,,,0.000000,0.000000,0.000000,0.000000,0.000000,0.000000,0.000000,0.000000,0.000000,0.000000,0.000000,0.000000,0.000000,0.000000,0.000000,0.000000,,,,,,,,,,,,,,,,,,,,,,,,,,,,,,,,,,,,,,,,,,,,,,,,,,,,,,,,,,,,,,,,,,,,,,,,,,,,,,,,,,,,,,,,,,,,,,,,,,,,,,,,,,,,,,,,,,,,,,,,,,,,,,,,,
1737282974.738910,1737282974.738821,18.000000,0.000000,4329.358887,4349.743652,4265.000000,4319.743652,4353.717773,4358.974121,4363.077148,4551.794922,4547.051270,4556.282227,4493.205078,5644.102539,4301.282227,4261.922852,0.000000,2.000000,36.000000,,,,0.000000,0.000000,0.000000,0.000000,0.000000,0.000000,0.000000,0.000000,0.000000,0.000000,0.000000,0.000000,0.000000,0.000000,0.000000,0.000000,,,,,,,,,,,,,,,,,,,,,,,,,,,,,,,,,,,,,,,,,,,,,,,,,,,,,,,,,,,,,,,,,,,,,,,,,,,,,,,,,,,,,,,,,,,,,,,,,,,,,,,,,,,,,,,,,,,,,,,,,,,,,,,,,
1737282974.746718,1737282974.746529,19.000000,0.000000,4327.948730,4349.743652,4265.769043,4318.974121,4353.717773,4357.692383,4364.743652,4552.948730,4549.615234,4556.794922,4493.589844,5646.282227,4300.128418,4260.256348,0.000000,2.000000,36.000000,,,,0.000000,0.000000,0.000000,0.000000,0.000000,0.000000,0.000000,0.000000,0.000000,0.000000,0.000000,0.000000,0.000000,0.000000,0.000000,0.000000,,,,,,,,,,,,,,,,,,,,,,,,,,,,,,,,,,,,,,,,,,,,,,,,,,,,,,,,,,,,,,,,,,,,,,,,,,,,,,,,,,,,,,,,,,,,,,,,,,,,,,,,,,,,,,,,,,,,,,,,,,,,,,,,,
1737282974.754526,1737282974.754337,20.000000,0.000000,4329.615234,4351.153809,4266.538574,4320.897461,4356.794922,4358.974121,4365.384766,4553.077148,4551.153809,4557.948730,4495.641113,5647.179688,4303.205078,4260.256348,0.000000,2.000000,36.000000,,,,0.000000,0.000000,0.000000,0.000000,0.000000,0.000000,0.000000,0.000000,0.000000,0.000000,0.000000,0.000000,0.000000,0.000000,0.000000,0.000000,,,,,,,,,,,,,,,,,5.000000,0.000000,0.661733,-0.747986,0.037170,0.035278,-0.106947,-0.984984,-0.125015,15.507546,-30.955175,16.392229,,,,,,,,,,,,,,,,,,,,,,,,,,,,,,,,,,,,,,,,,,,,,,,,,,,,,,,,,,,,,,,,,,,,,,,,,,,,,,,,,,,,,,,,,,,,,,,,,,,,,
1737282974.762334,1737282974.762045,21.000000,0.000000,4332.820313,4352.563965,4263.846191,4323.077148,4355.897461,4362.820313,4366.538574,4554.230957,4547.436035,4557.307617,4494.487305,5646.153809,4303.589844,4262.563965,0.000000,2.000000,36.000000,,,,0.000000,0.000000,0.000000,0.000000,0.000000,0.000000,0.000000,0.000000,0.000000,0.000000,0.000000,0.000000,0.000000,0.000000,0.000000,0.000000,,,,,,,,,,,,,,,,,,,,,,,,,,,,,,,,,,,,,,,,,,,,,,,,,,,,,,,,,,,,,,,,,,,,,,,,,,,,,,,,,,,,,,,,,,,,,,,,,,,,,,,,,,,,,,,,,,,,,,,,,,,,,,,,,
1737282974.770142,1737282974.769853,22.000000,0.000000,4333.333496,4351.025879,4264.743652,4325.000000,4351.410156,4362.179688,4366.794922,4555.256348,4547.051270,4557.692383,4496.025879,5650.000000,4301.282227,4265.128418,0.000000,2.000000,36.000000,,,,0.000000,0.000000,0.000000,0.000000,0.000000,0.000000,0.000000,0.000000,0.000000,0.000000,0.000000,0.000000,0.000000,0.000000,0.000000,0.000000,,,,,,,,,,,,,,,,,,,,,,,,,,,,,,,,,,,,,,,,,,,,,,,,,,,,,,,,,,,,,,,,,,,,,,,,,,,,,,,,,,,,,,,,,,,,,,,,,,,,,,,,,,,,,,,,,,,,,,,,,,,,,,,,,
1737282974.777950,1737282974.777561,23.000000,0.000000,4331.025879,4348.333496,4268.077148,4321.666504,4351.538574,4359.487305,4366.794922,4554.358887,4548.333496,4557.563965,4495.512695,5649.743652,4300.641113,4258.974121,0.000000,2.000000,36.000000,,,,0.000000,0.000000,0.000000,0.000000,0.000000,0.000000,0.000000,0.000000,0.000000,0.000000,0.000000,0.000000,0.000000,0.000000,0.000000,0.000000,,,,,,,,,,,,,,,,,,,,,,,,,,,,,,,,,,,,,,,,,,,,,,,,,,,,,,,,,,,,,,,,,,,,,,,,,,,,,,,,,,,,,,,,,,,,,,,,,,,,,,,,,,,,,,,,,,,,,,,,,,,,,,,,,
1737282974.785758,1737282974.785469,24.000000,0.000000,4331.410156,4349.871582,4270.769043,4317.436035,4354.871582,4359.487305,4363.333496,4553.205078,4546.794922,4557.307617,4493.077148,5645.769043,4301.922852,4256.025879,0.000000,2.000000,36.000000,,,,0.000000,0.000000,0.000000,0.000000,0.000000,0.000000,0.000000,0.000000,0.000000,0.000000,0.000000,0.000000,0.000000,0.000000,0.000000,0.000000,,,,,,,,,,,,,,,,,6.000000,0.000000,0.661802,-0.747925,0.037170,0.035278,-0.093761,-0.979612,-0.113783,15.306792,-30.892990,16.336340,,,,,,,,,,,,,,,,,,,,,,,,,,,,,,,,,,,,,,,,,,,,,,,,,,,,,,,,,,,,,,,,,,,,,,,,,,,,,,,,,,,,,,,,,,,,,,,,,,,,,
1737282974.793566,1737282974.793278,25.000000,0.000000,4333.589844,4352.179688,4268.461426,4320.256348,4354.743652,4360.641113,4361.666504,4553.846191,4547.179688,4557.307617,4494.102539,5645.128418,4300.000000,4259.230957,0.000000,2.000000,36.000000,,,,0.000000,0.000000,0.000000,0.000000,0.000000,0.000000,0.000000,0.000000,0.000000,0.000000,0.000000,0.000000,0.000000,0.000000,0.000000,0.000000,,,,,,,,,,,,,,,,,,,,,,,,,,,,,,,,,,,,,,,,,,,,,,,,,,,,,,,,,,,,,,,,,,,,,,,,,,,,,,,,,,,,,,,,,,,,,,,,,,,,,,,,,,,,,,,,,,,,,,,,,,,,,,,,,
1737282974.801375,1737282974.801186,26.000000,0.000000,4330.897461,4352.051270,4267.692383,4320.641113,4352.563965,4361.410156,4365.000000,4554.615234,4550.256348,4558.205078,4495.256348,5647.436035,4299.102539,4260.384766,0.000000,2.000000,36.000000,,,,0.000000,0.000000,0.000000,0.000000,0.000000,0.000000,0.000000,0.000000,0.000000,0.000000,0.000000,0.000000,0.000000,0.000000,0.000000,0.000000,,,,,,,,,,,,,,,,,,,,,,,,,,,,,,,,,,,,,,,,,,,,,,,,,,,,,,,,,,,,,,,,,,,,,,,,,,,,,,,,,,,,,,,,,,,,,,,,,,,,,,,,,,,,,,,,,,,,,,,,,,,,,,,,,
1737282974.809183,1737282974.808994,27.000000,0.000000,4328.589844,4353.717773,4272.051270,4319.230957,4352.307617,4360.384766,4365.897461,4554.102539,4549.487305,4559.358887,4492.563965,5648.205078,4302.436035,4259.743652,0.000000,2.000000,36.000000,,,,0.000000,0.000000,0.000000,0.000000,0.000000,0.000000,0.000000,0.000000,0.000000,0.000000,0.000000,0.000000,0.000000,0.000000,0.000000,0.000000,,,,,,,,,,,,,,,,,,,,,,,,,,,,,,,,,,,,,,,,,,,,,,,,,,,,,,,,,,,,,,,,,,,,,,,,,,,,,,,,,,,,,,,,,,,,,,,,,,,,,,,,,,,,,,,,,,,,,,,,,,,,,,,,,
1737282974.816991,1737282974.816902,28.000000,0.000000,4330.384766,4352.436035,4268.589844,4322.820313,4352.692383,4360.000000,4364.487305,4554.230957,4548.589844,4557.692383,4489.487305,5646.282227,4301.666504,4258.205078,0.000000,2.000000,36.000000,,,,0.000000,0.000000,0.000000,0.000000,0.000000,0.000000,0.000000,0.000000,0.000000,0.000000,0.000000,0.000000,0.000000,0.000000,0.000000,0.000000,,,,,,,,,,,,,,,,,7.000000,0.000000,0.661799,-0.747925,0.037231,0.035278,-0.097180,-0.982053,-0.126480,15.326113,-30.920359,16.369373,,,,,,,,,,,,,,,,,,,,,,,,,,,,,,,,0.032987,0.038350,0.011524,0.025998,0.028418,0.062768,0.029487,0.019790,0.022015,0.035053,0.107667,0.083670,0.034721,0.022935,0.025791,0.098549,0.054744,0.016075,0.024178,0.021990,0.021726,0.013049,0.020400,0.019052,0.019878,0.256380,0.085188,0.025218,0.033146,0.026397,0.190519,0.133739,0.081908,0.024109,0.029874,0.055648,0.039289,0.015912,0.009987,0.026378,0.208739,0.056395,0.065290,0.024401,0.032788,0.022145,0.024101,0.023136,0.029220,0.018150,0.074729,0.029576,0.025427,0.019348,0.027835,0.016950,0.032976,0.022824,0.017768,0.031356,0.461942,0.131349,0.061013,0.037457,0.025024,0.078926,0.056827,0.044476,0.027964,0.033843
1737282974.824799,1737282974.824710,29.000000,0.000000,4331.666504,4350.897461,4263.717773,4324.358887,4350.897461,4358.846191,4363.077148,4553.846191,4552.563965,4555.641113,4494.743652,5647.179688,4299.102539,4259.615234,0.000000,2.000000,36.000000,,,,0.000000,0.000000,0.000000,0.000000,0.000000,0.000000,0.000000,0.000000,0.000000,0.000000,0.000000,0.000000,0.000000,0.000000,0.000000,0.000000,,,,,,,,,,,,,,,,,,,,,,,,,,,,,,,,,,,,,,,,,,,,,,,,,,,,,,,,,,,,,,,,,,,,,,,,,,,,,,,,,,,,,,,,,,,,,,,,,,,,,,,,,,,,,,,,,,,,,,,,,,,,,,,,,
1737282974.832607,1737282974.832618,30.000000,0.000000,4330.000000,4350.256348,4265.512695,4320.000000,4350.256348,4357.051270,4363.077148,4554.358887,4554.615234,4554.871582,4497.948730,5647.307617,4300.897461,4261.538574,0.000000,2.000000,36.000000,,,,0.000000,0.000000,0.000000,0.000000,0.000000,0.000000,0.000000,0.000000,0.000000,0.000000,0.000000,0.000000,0.000000,0.000000,0.000000,0.000000,,,,,,,,,,,,,,,,,,,,,,,,,,,,,,,,,,,,,,,,,,,,,,,,,,,,,,,,,,,,,,,,,,,,,,,,,,,,,,,,,,,,,,,,,,,,,,,,,,,,,,,,,,,,,,,,,,,,,,,,,,,,,,,,,
1737282974.840415,1737282974.840426,31.000000,0.000000,4329.615234,4347.563965,4266.153809,4318.717773,4351.794922,4357.179688,4361.410156,4555.128418,4552.563965,4555.897461,4493.205078,5646.025879,4302.179688,4259.358887,0.000000,2.000000,36.000000,,,,0.000000,0.000000,0.000000,0.000000,0.000000,0.000000,0.000000,0.000000,0.000000,0.000000,0.000000,0.000000,0.000000,0.000000,0.000000,0.000000,,,,,,,,,,,,,,,,,,,,,,,,,,,,,,,,,,,,,,,,,,,,,,,,,,,,,,,,,,,,,,,,,,,,,,,,,,,,,,,,,,,,,,,,,,,,,,,,,,,,,,,,,,,,,,,,,,,,,,,,,,,,,,,,,
1737282974.848223,1737282974.848333,32.000000,0.000000,4333.333496,4348.846191,4265.769043,4320.512695,4352.820313,4357.563965,4359.615234,4553.589844,4552.051270,4555.769043,4490.769043,5648.461426,4305.000000,4263.461426,0.000000,2.000000,36.000000,,,,0.000000,0.000000,0.000000,0.000000,0.000000,0.000000,0.000000,0.000000,0.000000,0.000000,0.000000,0.000000,0.000000,0.000000,0.000000,0.000000,,,,,,,,,,,,,,,,,8.000000,0.000000,0.661726,-0.747986,0.037292,0.035278,-0.104993,-0.977658,-0.124039,15.276834,-30.961655,16.365768,,,,,,,,,,,,,,,,,,,,,,,,,,,,,,,,,,,,,,,,,,,,,,,,,,,,,,,,,,,,,,,,,,,,,,,,,,,,,,,,,,,,,,,,,,,,,,,,,,,,,
1737282974.856031,1737282974.856141,33.000000,0.000000,4331.922852,4351.282227,4266.153809,4317.436035,4352.307617,4355.769043,4361.153809,4555.641113,4552.820313,4555.256348,4492.563965,5645.384766,4307.692383,4266.666504,0.000000,2.000000,36.000000,,,,0.000000,0.000000,0.000000,0.000000,0.000000,0.000000,0.000000,0.000000,0.000000,0.000000,0.000000,0.000000,0.000000,0.000000,0.000000,0.000000,,,,,,,,,,,,,,,,,,,,,,,,,,,,,,,,,,,,,,,,,,,,,,,,,,,,,,,,,,,,,,,,,,,,,,,,,,,,,,,,,,,,,,,,,,,,,,,,,,,,,,,,,,,,,,,,,,,,,,,,,,,,,,,,,
1737282974.863839,1737282974.864049,34.000000,0.000000,4330.384766,4351.666504,4265.897461,4318.461426,4351.282227,4355.256348,4359.743652,4558.461426,4551.410156,4557.820313,4496.410156,5644.230957,4308.077148,4262.307617,0.000000,2.000000,36.000000,,,,0.000000,0.000000,0.000000,0.000000,0.000000,0.000000,0.000000,0.000000,0.000000,0.000000,0.000000,0.000000,0.000000,0.000000,0.000000,0.000000,,,,,,,,,,,,,,,,,,,,,,,,,,,,,,,,,,,,,,,,,,,,,,,,,,,,,,,,,,,,,,,,,,,,,,,,,,,,,,,,,,,,,,,,,,,,,,,,,,,,,,,,,,,,,,,,,,,,,,,,,,,,,,,,,
1737282974.871647,1737282974.871857,35.000000,0.000000,4331.794922,4352.051270,4266.410156,4320.897461,4351.282227,4356.282227,4358.974121,4554.743652,4551.922852,4559.615234,4496.794922,5647.948730,4309.358887,4258.589844,0.000000,2.000000,36.000000,,,,0.000000,0.000000,0.000000,0.000000,0.000000,0.000000,0.000000,0.000000,0.000000,0.000000,0.000000,0.000000,0.000000,0.000000,0.000000,0.000000,,,,,,,,,,,,,,,,,,,,,,,,,,,,,,,,,,,,,,,,,,,,,,,,,,,,,,,,,,,,,,,,,,,,,,,,,,,,,,,,,,,,,,,,,,,,,,,,,,,,,,,,,,,,,,,,,,,,,,,,,,,,,,,,,
1737282974.879455,1737282974.879765,36.000000,0.000000,4330.641113,4352.820313,4266.410156,4317.692383,4352.820313,4356.538574,4363.205078,4551.282227,4553.589844,4558.333496,4493.205078,5644.615234,4307.948730,4257.563965,0.000000,2.000000,36.000000,,,,0.000000,0.000000,0.000000,0.000000,0.000000,0.000000,0.000000,0.000000,0.000000,0.000000,0.000000,0.000000,0.000000,0.000000,0.000000,0.000000,,,,,,,,,,,,,,,,,9.000000,0.000000,0.661799,-0.747925,0.037231,0.035278,-0.099133,-0.984984,-0.113295,15.349152,-30.898823,16.345858,,,,,,,,,,,,,,,,,,,,,,,,,,,,,,,,,,,,,,,,,,,,,,,,,,,,,,,,,,,,,,,,,,,,,,,,,,,,,,,,,,,,,,,,,,,,,,,,,,,,,
1737282974.887263,1737282974.887573,37.000000,0.000000,4331.538574,4351.153809,4266.794922,4318.846191,4352.820313,4357.436035,4363.077148,4551.922852,4552.820313,4556.410156,4493.461426,5642.820313,4305.512695,4260.897461,0.000000,2.000000,36.000000,,,,0.000000,0.000000,0.000000,0.000000,0.000000,0.000000,0.000000,0.000000,0.000000,0.000000,0.000000,0.000000,0.000000,0.000000,0.000000,0.000000,,,,,,,,,,,,,,,,,,,,,,,,,,,,,,,,,,,,,,,,,,,,,,,,,,,,,,,,,,,,,,,,,,,,,,,,,,,,,,,,,,,,,,,,,,,,,,,,,,,,,,,,,,,,,,,,,,,,,,,,,,,,,,,,,
1737282974.895071,1737282974.895281,38.000000,0.000000,4330.769043,4348.589844,4266.282227,4320.384766,4351.666504,4357.436035,4360.897461,4551.282227,4552.820313,4556.410156,4493.205078,5644.871582,4302.692383,4263.974121,0.000000,2.000000,36.000000,,,,0.000000,0.000000,0.000000,0.000000,0.000000,0.000000,0.000000,0.000000,0.000000,0.000000,0.000000,0.000000,0.000000,0.000000,0.000000,0.000000,,,,,,,,,,,,,,,,,,,,,,,,,,,,,,,,,,,,,,,,,,,,,,,,,,,,,,,,,,,,,,,,,,,,,,,,,,,,,,,,,,,,,,,,,,,,,,,,,,,,,,,,,,,,,,,,,,,,,,,,,,,,,,,,,
1737282974.902880,1737282974.903089,39.000000,0.000000,4330.256348,4353.461426,4265.897461,4317.948730,4354.102539,4356.922852,4363.846191,4552.051270,4551.282227,4557.948730,4491.794922,5646.410156,4303.846191,4263.589844,0.000000,2.000000,36.000000,,,,0.000000,0.000000,0.000000,0.000000,0.000000,0.000000,0.000000,0.000000,0.000000,0.000000,0.000000,0.000000,0.000000,0.000000,0.000000,0.000000,,,,,,,,,,,,,,,,,,,,,,,,,,,,,,,,,,,,,,,,,,,,,,,,,,,,,,,,,,,,,,,,,,,,,,,,,,,,,,,,,,,,,,,,,,,,,,,,,,,,,,,,,,,,,,,,,,,,,,,,,,,,,,,,,
1737282974.910688,1737282974.910797,40.000000,0.000000,4331.922852,4358.333496,4267.563965,4318.333496,4355.256348,4358.461426,4366.153809,4556.922852,4550.000000,4558.461426,4492.563965,5647.436035,4306.666504,4263.077148,0.000000,2.000000,36.000000,,,,0.000000,0.000000,0.000000,0.000000,0.000000,0.000000,0.000000,0.000000,0.000000,0.000000,0.000000,0.000000,0.000000,0.000000,0.000000,0.000000,,,,,,,,,,,,,,,,,10.000000,0.000000,0.661727,-0.747986,0.037170,0.035400,-0.095226,-0.980588,-0.116713,15.447570,-30.842274,16.461273,,,,,,,,,,,,,,,,,,,,,,,,,,,,,,,,,,,,,,,,,,,,,,,,,,,,,,,,,,,,,,,,,,,,,,,,,,,,,,,,,,,,,,,,,,,,,,,,,,,,,
1737282974.918496,1737282974.918705,41.000000,0.000000,4330.000000,4354.230957,4268.205078,4320.000000,4352.563965,4358.974121,4367.307617,4557.948730,4550.641113,4558.333496,4491.410156,5645.769043,4302.179688,4262.436035,0.000000,2.000000,36.000000,,,,0.000000,0.000000,0.000000,0.000000,0.000000,0.000000,0.000000,0.000000,0.000000,0.000000,0.000000,0.000000,0.000000,0.000000,0.000000,0.000000,,,,,,,,,,,,,,,,,,,,,,,,,,,,,,,,,,,,,,,,,,,,,,,,,,,,,,,,,,,,,,,,,,,,,,,,,,,,,,,,,,,,,,,,,,,,,,,,,,,,,,,,,,,,,,,,,,,,,,,,,,,,,,,,,
1737282974.926304,1737282974.926513,42.000000,0.000000,4328.974121,4350.384766,4267.820313,4317.692383,4352.820313,4360.256348,4367.051270,4553.589844,4546.922852,4556.794922,4492.051270,5645.512695,4296.794922,4262.563965,0.000000,2.000000,36.000000,,,,0.000000,0.000000,0.000000,0.000000,0.000000,0.000000,0.000000,0.000000,0.000000,0.000000,0.000000,0.000000,0.000000,0.000000,0.000000,0.000000,,,,,,,,,,,,,,,,,,,,,,,,,,,,,,,,,,,,,,,,,,,,,,,,,,,,,,,,,,,,,,,,,,,,,,,,,,,,,,,,,,,,,,,,,,,,,,,,,,,,,,,,,,,,,,,,,,,,,,,,,,,,,,,,,
1737282974.934112,1737282974.934422,43.000000,0.000000,4330.641113,4352.436035,4268.333496,4317.563965,4352.051270,4365.641113,4367.948730,4550.769043,4543.846191,4553.974121,4492.051270,5647.051270,4293.974121,4258.077148,0.000000,2.000000,36.000000,,,,0.000000,0.000000,0.000000,0.000000,0.000000,0.000000,0.000000,0.000000,0.000000,0.000000,0.000000,0.000000,0.000000,0.000000,0.000000,0.000000,,,,,,,,,,,,,,,,,,,,,,,,,,,,,,,,,,,,,,,,,,,,,,,,,,,,,,,,,,,,,,,,,,,,,,,,,,,,,,,,,,,,,,,,,,,,,,,,,,,,,,,,,,,,,,,,,,,,,,,,,,,,,,,,,
1737282974.941920,1737282974.942230,44.000000,0.000000,4331.410156,4355.256348,4273.974121,4326.282227,4353.846191,4369.743652,4372.179688,4549.358887,4544.102539,4552.179688,4487.179688,5647.692383,4290.128418,4253.846191,0.000000,2.000000,36.000000,,,,0.000000,0.000000,0.000000,0.000000,0.000000,0.000000,0.000000,0.000000,0.000000,0.000000,0.000000,0.000000,0.000000,0.000000,0.000000,0.000000,1.000000,0.000000,0.000000,0.000000,0.000000,0.000000,0.000000,0.000000,0.000000,0.000000,0.000000,0.000000,0.000000,0.000000,0.000000,0.000000,11.000000,0.000000,0.661658,-0.748047,0.037231,0.035339,-0.093761,-0.980100,-0.107923,15.286146,-30.824713,16.481812,,,,,,,,,,,,,,,,,,,,,,,,,,,,,,,,0.035344,0.037321,0.012480,0.025984,0.029412,0.059749,0.028140,0.018672,0.021542,0.035332,0.087496,0.060242,0.027662,0.021207,0.027039,0.074345,0.039864,0.015849,0.024200,0.023065,0.024159,0.011357,0.017357,0.016483,0.019115,0.241581,0.056668,0.019107,0.024081,0.022316,0.160773,0.083909,0.062818,0.016598,0.024236,0.044817,0.029390,0.016333,0.009387,0.025003,0.175498,0.042508,0.057009,0.021042,0.028118,0.018503,0.021175,0.025091,0.027228,0.021441,0.076945,0.024690,0.027943,0.018246,0.030420,0.017314,0.030975,0.026191,0.015705,0.030621,0.354065,0.079638,0.031081,0.024564,0.024566,0.066889,0.050782,0.048661,0.027471,0.032986
1737282974.949728,1737282974.950038,45.000000,0.000000,4330.384766,4354.743652,4279.230957,4331.025879,4359.615234,4368.461426,4376.538574,4547.820313,4542.051270,4552.692383,4486.538574,5645.256348,4285.128418,4256.025879,0.000000,2.000000,36.000000,,,,0.000000,0.000000,0.000000,0.000000,0.000000,0.000000,0.000000,0.000000,0.000000,0.000000,0.000000,0.000000,0.000000,0.000000,0.000000,0.000000,,,,,,,,,,,,,,,,,,,,,,,,,,,,,,,,,,,,,,,,,,,,,,,,,,,,,,,,,,,,,,,,,,,,,,,,,,,,,,,,,,,,,,,,,,,,,,,,,,,,,,,,,,,,,,,,,,,,,,,,,,,,,,,,,
1737282974.957536,1737282974.957746,46.000000,0.000000,4328.333496,4353.077148,4277.436035,4327.307617,4357.692383,4370.897461,4380.128418,4547.948730,4539.871582,4554.230957,4490.256348,5642.692383,4282.179688,4255.641113,0.000000,2.000000,36.000000,,,,0.000000,0.000000,0.000000,0.000000,0.000000,0.000000,0.000000,0.000000,0.000000,0.000000,0.000000,0.000000,0.000000,0.000000,0.000000,0.000000,,,,,,,,,,,,,,,,,,,,,,,,,,,,,,,,,,,,,,,,,,,,,,,,,,,,,,,,,,,,,,,,,,,,,,,,,,,,,,,,,,,,,,,,,,,,,,,,,,,,,,,,,,,,,,,,,,,,,,,,,,,,,,,,,
1737282974.965344,1737282974.965654,47.000000,0.000000,4329.358887,4352.179688,4278.974121,4327.692383,4352.820313,4372.820313,4378.077148,4547.820313,4538.589844,4554.358887,4488.846191,5647.820313,4283.717773,4255.384766,0.000000,2.000000,36.000000,,,,0.000000,0.000000,0.000000,0.000000,0.000000,0.000000,0.000000,0.000000,0.000000,0.000000,0.000000,0.000000,0.000000,0.000000,0.000000,0.000000,,,,,,,,,,,,,,,,,,,,,,,,,,,,,,,,,,,,,,,,,,,,,,,,,,,,,,,,,,,,,,,,,,,,,,,,,,,,,,,,,,,,,,,,,,,,,,,,,,,,,,,,,,,,,,,,,,,,,,,,,,,,,,,,,
1737282974.973152,1737282974.973462,48.000000,0.000000,4329.871582,4352.948730,4278.077148,4329.871582,4354.358887,4368.205078,4375.512695,4548.205078,4536.922852,4553.717773,4485.256348,5650.897461,4283.333496,4255.641113,0.000000,2.000000,36.000000,,,,0.000000,0.000000,0.000000,0.000000,0.000000,0.000000,0.000000,0.000000,0.000000,0.000000,0.000000,0.000000,0.000000,0.000000,0.000000,0.000000,,,,,,,,,,,,,,,,,12.000000,0.000000,0.661658,-0.748047,0.037231,0.035339,-0.095715,-0.988402,-0.123550,15.207531,-30.842241,16.550297,,,,,,,,,,,,,,,,,,,,,,,,,,,,,,,,,,,,,,,,,,,,,,,,,,,,,,,,,,,,,,,,,,,,,,,,,,,,,,,,,,,,,,,,,,,,,,,,,,,,,
1737282974.980960,1737282974.981271,49.000000,0.000000,4327.948730,4353.077148,4274.615234,4327.820313,4355.512695,4366.410156,4377.179688,4549.102539,4539.615234,4553.846191,4488.589844,5646.025879,4284.615234,4254.102539,0.000000,2.000000,36.000000,,,,0.000000,0.000000,0.000000,0.000000,0.000000,0.000000,0.000000,0.000000,0.000000,0.000000,0.000000,0.000000,0.000000,0.000000,0.000000,0.000000,,,,,,,,,,,,,,,,,,,,,,,,,,,,,,,,,,,,,,,,,,,,,,,,,,,,,,,,,,,,,,,,,,,,,,,,,,,,,,,,,,,,,,,,,,,,,,,,,,,,,,,,,,,,,,,,,,,,,,,,,,,,,,,,,
1737282974.988768,1737282974.988979,50.000000,0.000000,4330.000000,4350.769043,4275.897461,4326.794922,4354.871582,4368.333496,4374.358887,4547.179688,4545.000000,4556.794922,4493.205078,5646.794922,4288.205078,4258.205078,0.000000,2.000000,36.000000,,,,0.000000,0.000000,0.000000,0.000000,0.000000,0.000000,0.000000,0.000000,0.000000,0.000000,0.000000,0.000000,0.000000,0.000000,0.000000,0.000000,,,,,,,,,,,,,,,,,,,,,,,,,,,,,,,,,,,,,,,,,,,,,,,,,,,,,,,,,,,,,,,,,,,,,,,,,,,,,,,,,,,,,,,,,,,,,,,,,,,,,,,,,,,,,,,,,,,,,,,,,,,,,,,,,
1737282974.996577,1737282974.996887,51.000000,0.000000,4332.948730,4350.384766,4274.615234,4325.512695,4356.025879,4366.794922,4370.641113,4548.077148,4545.897461,4557.179688,4491.922852,5649.615234,4288.974121,4258.974121,0.000000,2.000000,36.000000,,,,0.000000,0.000000,0.000000,0.000000,0.000000,0.000000,0.000000,0.000000,0.000000,0.000000,0.000000,0.000000,0.000000,0.000000,0.000000,0.000000,,,,,,,,,,,,,,,,,,,,,,,,,,,,,,,,,,,,,,,,,,,,,,,,,,,,,,,,,,,,,,,,,,,,,,,,,,,,,,,,,,,,,,,,,,,,,,,,,,,,,,,,,,,,,,,,,,,,,,,,,,,,,,,,,
1737282975.004385,1737282975.004695,52.000000,0.000000,4331.666504,4353.717773,4274.615234,4323.974121,4354.871582,4362.820313,4370.897461,4550.512695,4545.000000,4553.205078,4490.897461,5647.948730,4292.820313,4259.871582,0.000000,2.000000,36.000000,,,,0.000000,0.000000,0.000000,0.000000,0.000000,0.000000,0.000000,0.000000,0.000000,0.000000,0.000000,0.000000,0.000000,0.000000,0.000000,0.000000,,,,,,,,,,,,,,,,,13.000000,0.000000,0.661661,-0.748047,0.037292,0.035217,-0.107923,-0.964962,-0.114760,15.220112,-30.758018,16.578602,,,,,,,,,,,,,,,,,,,,,,,,,,,,,,,,,,,,,,,,,,,,,,,,,,,,,,,,,,,,,,,,,,,,,,,,,,,,,,,,,,,,,,,,,,,,,,,,,,,,,
1737282975.012193,1737282975.012503,53.000000,0.000000,4330.641113,4354.615234,4275.512695,4326.410156,4353.333496,4360.641113,4369.871582,4549.743652,4546.794922,4554.230957,4493.974121,5647.563965,4297.692383,4263.717773,0.000000,2.000000,36.000000,,,,0.000000,0.000000,0.000000,0.000000,0.000000,0.000000,0.000000,0.000000,0.000000,0.000000,0.000000,0.000000,0.000000,0.000000,0.000000,0.000000,,,,,,,,,,,,,,,,,,,,,,,,,,,,,,,,,,,,,,,,,,,,,,,,,,,,,,,,,,,,,,,,,,,,,,,,,,,,,,,,,,,,,,,,,,,,,,,,,,,,,,,,,,,,,,,,,,,,,,,,,,,,,,,,,
1737282975.020001,1737282975.020211,54.000000,0.000000,4331.282227,4353.461426,4271.410156,4326.153809,4354.487305,4360.641113,4366.410156,4550.256348,4546.282227,4558.077148,4495.897461,5647.820313,4299.358887,4261.282227,0.000000,2.000000,36.000000,,,,0.000000,0.000000,0.000000,0.000000,0.000000,0.000000,0.000000,0.000000,0.000000,0.000000,0.000000,0.000000,0.000000,0.000000,0.000000,0.000000,,,,,,,,,,,,,,,,,,,,,,,,,,,,,,,,,,,,,,,,,,,,,,,,,,,,,,,,,,,,,,,,,,,,,,,,,,,,,,,,,,,,,,,,,,,,,,,,,,,,,,,,,,,,,,,,,,,,,,,,,,,,,,,,,
1737282975.027809,1737282975.028119,55.000000,0.000000,4331.538574,4353.717773,4269.487305,4324.615234,4353.717773,4360.512695,4363.205078,4553.077148,4547.051270,4557.948730,4496.153809,5648.974121,4301.794922,4261.410156,0.000000,2.000000,36.000000,,,,0.000000,0.000000,0.000000,0.000000,0.000000,0.000000,0.000000,0.000000,0.000000,0.000000,0.000000,0.000000,0.000000,0.000000,0.000000,0.000000,,,,,,,,,,,,,,,,,,,,,,,,,,,,,,,,,,,,,,,,,,,,,,,,,,,,,,,,,,,,,,,,,,,,,,,,,,,,,,,,,,,,,,,,,,,,,,,,,,,,,,,,,,,,,,,,,,,,,,,,,,,,,,,,,
1737282975.035617,1737282975.035927,56.000000,0.000000,4330.641113,4351.153809,4271.410156,4323.333496,4351.666504,4358.333496,4361.025879,4552.948730,4550.769043,4556.153809,4496.922852,5648.333496,4301.794922,4262.307617,0.000000,2.000000,36.000000,,,,0.000000,0.000000,0.000000,0.000000,0.000000,0.000000,0.000000,0.000000,0.000000,0.000000,0.000000,0.000000,0.000000,0.000000,0.000000,0.000000,,,,,,,,,,,,,,,,,14.000000,0.000000,0.661799,-0.747925,0.037292,0.035217,-0.097180,-0.984007,-0.122574,15.064767,-30.865549,16.470741,,,,,,,,,,,,,,,,,,,,,,,,,,,,,,,,,,,,,,,,,,,,,,,,,,,,,,,,,,,,,,,,,,,,,,,,,,,,,,,,,,,,,,,,,,,,,,,,,,,,,
1737282975.043425,1737282975.043835,57.000000,0.000000,4331.794922,4348.077148,4273.461426,4321.282227,4351.794922,4357.179688,4361.538574,4551.538574,4552.051270,4559.615234,4497.948730,5645.128418,4302.307617,4264.230957,0.000000,2.000000,36.000000,,,,0.000000,0.000000,0.000000,0.000000,0.000000,0.000000,0.000000,0.000000,0.000000,0.000000,0.000000,0.000000,0.000000,0.000000,0.000000,0.000000,,,,,,,,,,,,,,,,,,,,,,,,,,,,,,,,,,,,,,,,,,,,,,,,,,,,,,,,,,,,,,,,,,,,,,,,,,,,,,,,,,,,,,,,,,,,,,,,,,,,,,,,,,,,,,,,,,,,,,,,,,,,,,,,,
1737282975.051233,1737282975.051643,58.000000,0.000000,4334.102539,4348.717773,4271.666504,4322.307617,4353.333496,4359.487305,4364.487305,4553.077148,4549.615234,4563.333496,4495.384766,5646.282227,4304.743652,4265.641113,0.000000,2.000000,36.000000,,,,0.000000,0.000000,0.000000,0.000000,0.000000,0.000000,0.000000,0.000000,0.000000,0.000000,0.000000,0.000000,0.000000,0.000000,0.000000,0.000000,,,,,,,,,,,,,,,,,,,,,,,,,,,,,,,,,,,,,,,,,,,,,,,,,,,,,,,,,,,,,,,,,,,,,,,,,,,,,,,,,,,,,,,,,,,,,,,,,,,,,,,,,,,,,,,,,,,,,,,,,,,,,,,,,
1737282975.059041,1737282975.059551,59.000000,0.000000,4332.563965,4350.384766,4266.153809,4321.282227,4354.487305,4358.333496,4364.487305,4554.743652,4550.641113,4561.025879,4491.410156,5647.948730,4303.589844,4261.153809,0.000000,2.000000,36.000000,,,,0.000000,0.000000,0.000000,0.000000,0.000000,0.000000,0.000000,0.000000,0.000000,0.000000,0.000000,0.000000,0.000000,0.000000,0.000000,0.000000,,,,,,,,,,,,,,,,,,,,,,,,,,,,,,,,,,,,,,,,,,,,,,,,,,,,,,,,,,,,,,,,,,,,,,,,,,,,,,,,,,,,,,,,,,,,,,,,,,,,,,,,,,,,,,,,,,,,,,,,,,,,,,,,,
1737282975.066849,1737282975.067359,60.000000,0.000000,4331.025879,4352.051270,4267.692383,4317.692383,4353.077148,4355.512695,4362.820313,4553.461426,4552.436035,4558.205078,4494.871582,5650.128418,4305.256348,4260.256348,0.000000,2.000000,36.000000,,,,0.000000,0.000000,0.000000,0.000000,0.000000,0.000000,0.000000,0.000000,0.000000,0.000000,0.000000,0.000000,0.000000,0.000000,0.000000,0.000000,,,,,,,,,,,,,,,,,15.000000,0.000000,0.661730,-0.747986,0.037292,0.035217,-0.096691,-0.986937,-0.124039,15.324957,-30.812328,16.490334,,,,,,,,,,,,,,,,,,,,,,,,,,,,,,,,0.038879,0.033749,0.014464,0.025533,0.029599,0.055457,0.028972,0.018784,0.021396,0.033982,0.076955,0.046550,0.027880,0.020745,0.028699,0.066169,0.030340,0.019921,0.025164,0.024103,0.028153,0.012062,0.017555,0.014853,0.017989,0.239506,0.043102,0.019965,0.020200,0.020559,0.169321,0.059356,0.058220,0.014633,0.021241,0.042012,0.025043,0.017594,0.009614,0.022630,0.179458,0.042175,0.050567,0.021329,0.025656,0.018339,0.021020,0.026823,0.024631,0.024824,0.078535,0.023036,0.030377,0.017256,0.033292,0.018499,0.029909,0.029774,0.014485,0.028954,0.340179,0.062990,0.024580,0.021103,0.025902,0.058576,0.047789,0.056031,0.027615,0.032761
1737282975.074658,1737282975.075067,61.000000,0.000000,4329.871582,4350.000000,4271.025879,4316.922852,4351.025879,4358.589844,4365.641113,4552.820313,4549.102539,4558.205078,4497.179688,5649.230957,4307.692383,4260.641113,0.000000,2.000000,36.000000,,,,0.000000,0.000000,0.000000,0.000000,0.000000,0.000000,0.000000,0.000000,0.000000,0.000000,0.000000,0.000000,0.000000,0.000000,0.000000,0.000000,,,,,,,,,,,,,,,,,,,,,,,,,,,,,,,,,,,,,,,,,,,,,,,,,,,,,,,,,,,,,,,,,,,,,,,,,,,,,,,,,,,,,,,,,,,,,,,,,,,,,,,,,,,,,,,,,,,,,,,,,,,,,,,,,
1737282975.082466,1737282975.082875,62.000000,0.000000,4329.487305,4348.205078,4267.179688,4318.461426,4351.922852,4360.897461,4364.487305,4555.384766,4550.256348,4558.333496,4494.230957,5645.769043,4305.769043,4262.051270,0.000000,2.000000,36.000000,,,,0.000000,0.000000,0.000000,0.000000,0.000000,0.000000,0.000000,0.000000,0.000000,0.000000,0.000000,0.000000,0.000000,0.000000,0.000000,0.000000,,,,,,,,,,,,,,,,,,,,,,,,,,,,,,,,,,,,,,,,,,,,,,,,,,,,,,,,,,,,,,,,,,,,,,,,,,,,,,,,,,,,,,,,,,,,,,,,,,,,,,,,,,,,,,,,,,,,,,,,,,,,,,,,,
1737282975.090274,1737282975.090583,63.000000,0.000000,4331.025879,4351.666504,4265.384766,4317.692383,4352.307617,4356.153809,4358.846191,4556.666504,4555.641113,4557.307617,4497.051270,5647.820313,4304.487305,4264.102539,0.000000,2.000000,36.000000,,,,0.000000,0.000000,0.000000,0.000000,0.000000,0.000000,0.000000,0.000000,0.000000,0.000000,0.000000,0.000000,0.000000,0.000000,0.000000,0.000000,,,,,,,,,,,,,,,,,,,,,,,,,,,,,,,,,,,,,,,,,,,,,,,,,,,,,,,,,,,,,,,,,,,,,,,,,,,,,,,,,,,,,,,,,,,,,,,,,,,,,,,,,,,,,,,,,,,,,,,,,,,,,,,,,
1737282975.098082,1737282975.098391,64.000000,0.000000,4330.128418,4352.948730,4268.333496,4317.179688,4351.794922,4353.974121,4358.589844,4555.512695,4554.615234,4557.179688,4498.077148,5650.384766,4305.897461,4261.538574,0.000000,2.000000,36.000000,,,,0.000000,0.000000,0.000000,0.000000,0.000000,0.000000,0.000000,0.000000,0.000000,0.000000,0.000000,0.000000,0.000000,0.000000,0.000000,0.000000,,,,,,,,,,,,,,,,,16.000000,0.000000,0.661733,-0.747986,0.037231,0.035217,-0.103040,-0.973752,-0.122085,15.259128,-30.847761,16.424633,,,,,,,,,,,,,,,,,,,,,,,,,,,,,,,,,,,,,,,,,,,,,,,,,,,,,,,,,,,,,,,,,,,,,,,,,,,,,,,,,,,,,,,,,,,,,,,,,,,,,
1737282975.105890,1737282975.106099,65.000000,0.000000,4328.461426,4351.794922,4269.615234,4320.256348,4353.717773,4356.794922,4359.871582,4555.641113,4550.384766,4559.230957,4495.256348,5650.512695,4310.641113,4260.769043,0.000000,2.000000,36.000000,,,,0.000000,0.000000,0.000000,0.000000,0.000000,0.000000,0.000000,0.000000,0.000000,0.000000,0.000000,0.000000,0.000000,0.000000,0.000000,0.000000,,,,,,,,,,,,,,,,,,,,,,,,,,,,,,,,,,,,,,,,,,,,,,,,,,,,,,,,,,,,,,,,,,,,,,,,,,,,,,,,,,,,,,,,,,,,,,,,,,,,,,,,,,,,,,,,,,,,,,,,,,,,,,,,,
1737282975.113698,1737282975.113907,66.000000,0.000000,4327.436035,4349.615234,4267.179688,4318.717773,4354.487305,4358.461426,4360.384766,4556.153809,4552.692383,4560.000000,4493.974121,5645.256348,4310.512695,4259.615234,0.000000,2.000000,36.000000,,,,0.000000,0.000000,0.000000,0.000000,0.000000,0.000000,0.000000,0.000000,0.000000,0.000000,0.000000,0.000000,0.000000,0.000000,0.000000,0.000000,,,,,,,,,,,,,,,,,,,,,,,,,,,,,,,,,,,,,,,,,,,,,,,,,,,,,,,,,,,,,,,,,,,,,,,,,,,,,,,,,,,,,,,,,,,,,,,,,,,,,,,,,,,,,,,,,,,,,,,,,,,,,,,,,
1737282975.121506,1737282975.121615,67.000000,0.000000,4324.871582,4347.307617,4262.948730,4314.743652,4351.025879,4356.794922,4358.974121,4555.128418,4557.563965,4557.563965,4496.794922,5643.333496,4307.307617,4259.871582,0.000000,2.000000,36.000000,,,,0.000000,0.000000,0.000000,0.000000,0.000000,0.000000,0.000000,0.000000,0.000000,0.000000,0.000000,0.000000,0.000000,0.000000,0.000000,0.000000,,,,,,,,,,,,,,,,,,,,,,,,,,,,,,,,,,,,,,,,,,,,,,,,,,,,,,,,,,,,,,,,,,,,,,,,,,,,,,,,,,,,,,,,,,,,,,,,,,,,,,,,,,,,,,,,,,,,,,,,,,,,,,,,,
1737282975.129314,1737282975.129423,68.000000,0.000000,4326.025879,4346.666504,4262.692383,4315.512695,4349.615234,4354.871582,4356.025879,4554.871582,4556.922852,4557.179688,4498.717773,5649.743652,4309.871582,4261.922852,0.000000,2.000000,36.000000,,,,0.000000,0.000000,0.000000,0.000000,0.000000,0.000000,0.000000,0.000000,0.000000,0.000000,0.000000,0.000000,0.000000,0.000000,0.000000,0.000000,,,,,,,,,,,,,,,,,17.000000,0.000000,0.661871,-0.747864,0.037231,0.035217,-0.101575,-0.977170,-0.119644,15.133215,-30.729652,16.498837,,,,,,,,,,,,,,,,,,,,,,,,,,,,,,,,,,,,,,,,,,,,,,,,,,,,,,,,,,,,,,,,,,,,,,,,,,,,,,,,,,,,,,,,,,,,,,,,,,,,,
1737282975.137122,1737282975.137131,69.000000,0.000000,4331.025879,4346.025879,4262.563965,4316.153809,4352.051270,4355.641113,4357.692383,4556.666504,4556.282227,4559.871582,4495.897461,5647.948730,4312.563965,4260.384766,0.000000,2.000000,36.000000,,,,0.000000,0.000000,0.000000,0.000000,0.000000,0.000000,0.000000,0.000000,0.000000,0.000000,0.000000,0.000000,0.000000,0.000000,0.000000,0.000000,,,,,,,,,,,,,,,,,,,,,,,,,,,,,,,,,,,,,,,,,,,,,,,,,,,,,,,,,,,,,,,,,,,,,,,,,,,,,,,,,,,,,,,,,,,,,,,,,,,,,,,,,,,,,,,,,,,,,,,,,,,,,,,,,
1737282975.144930,1737282975.144939,70.000000,0.000000,4332.436035,4348.077148,4262.820313,4317.307617,4351.666504,4355.128418,4357.051270,4559.102539,4559.102539,4560.256348,4496.538574,5645.769043,4316.153809,4263.461426,0.000000,2.000000,36.000000,,,,0.000000,0.000000,0.000000,0.000000,0.000000,0.000000,0.000000,0.000000,0.000000,0.000000,0.000000,0.000000,0.000000,0.000000,0.000000,0.000000,,,,,,,,,,,,,,,,,,,,,,,,,,,,,,,,,,,,,,,,,,,,,,,,,,,,,,,,,,,,,,,,,,,,,,,,,,,,,,,,,,,,,,,,,,,,,,,,,,,,,,,,,,,,,,,,,,,,,,,,,,,,,,,,,
1737282975.152738,1737282975.152647,71.000000,0.000000,4328.846191,4348.717773,4262.948730,4317.307617,4349.102539,4350.128418,4353.846191,4560.641113,4561.282227,4558.717773,4499.230957,5647.436035,4322.563965,4267.436035,0.000000,2.000000,36.000000,,,,0.000000,0.000000,0.000000,0.000000,0.000000,0.000000,0.000000,0.000000,0.000000,0.000000,0.000000,0.000000,0.000000,0.000000,0.000000,0.000000,,,,,,,,,,,,,,,,,,,,,,,,,,,,,,,,,,,,,,,,,,,,,,,,,,,,,,,,,,,,,,,,,,,,,,,,,,,,,,,,,,,,,,,,,,,,,,,,,,,,,,,,,,,,,,,,,,,,,,,,,,,,,,,,,
1737282975.160546,1737282975.160455,72.000000,0.000000,4329.487305,4345.641113,4259.102539,4312.436035,4348.461426,4345.512695,4351.153809,4560.512695,4562.820313,4559.743652,4498.589844,5647.051270,4327.820313,4269.358887,0.000000,2.000000,36.000000,,,,0.000000,0.000000,0.000000,0.000000,0.000000,0.000000,0.000000,0.000000,0.000000,0.000000,0.000000,0.000000,0.000000,0.000000,0.000000,0.000000,,,,,,,,,,,,,,,,,18.000000,0.000000,0.661805,-0.747925,0.037231,0.035156,-0.090343,-0.977658,-0.112807,15.303227,-30.823353,16.382286,,,,,,,,,,,,,,,,,,,,,,,,,,,,,,,,,,,,,,,,,,,,,,,,,,,,,,,,,,,,,,,,,,,,,,,,,,,,,,,,,,,,,,,,,,,,,,,,,,,,,
1737282975.168355,1737282975.168163,73.000000,0.000000,4334.358887,4343.974121,4257.179688,4309.102539,4348.589844,4343.717773,4345.769043,4560.512695,4564.230957,4561.025879,4496.922852,5647.307617,4330.384766,4271.410156,0.000000,2.000000,36.000000,,,,0.000000,0.000000,0.000000,0.000000,0.000000,0.000000,0.000000,0.000000,0.000000,0.000000,0.000000,0.000000,0.000000,0.000000,0.000000,0.000000,,,,,,,,,,,,,,,,,,,,,,,,,,,,,,,,,,,,,,,,,,,,,,,,,,,,,,,,,,,,,,,,,,,,,,,,,,,,,,,,,,,,,,,,,,,,,,,,,,,,,,,,,,,,,,,,,,,,,,,,,,,,,,,,,
1737282975.176163,1737282975.175971,74.000000,0.000000,4331.794922,4345.000000,4257.436035,4309.358887,4348.077148,4346.922852,4349.743652,4560.384766,4562.436035,4558.205078,4495.897461,5646.153809,4325.256348,4266.282227,0.000000,2.000000,36.000000,,,,0.000000,0.000000,0.000000,0.000000,0.000000,0.000000,0.000000,0.000000,0.000000,0.000000,0.000000,0.000000,0.000000,0.000000,0.000000,0.000000,,,,,,,,,,,,,,,,,,,,,,,,,,,,,,,,,,,,,,,,,,,,,,,,,,,,,,,,,,,,,,,,,,,,,,,,,,,,,,,,,,,,,,,,,,,,,,,,,,,,,,,,,,,,,,,,,,,,,,,,,,,,,,,,,
1737282975.183971,1737282975.183679,75.000000,0.000000,4328.589844,4349.358887,4259.743652,4311.410156,4349.230957,4352.948730,4359.230957,4556.794922,4557.820313,4556.025879,4495.512695,5645.384766,4316.922852,4265.769043,1.000000,2.000000,36.000000,,,,0.000000,0.000000,0.000000,0.000000,0.000000,0.000000,0.000000,0.000000,0.000000,0.000000,0.000000,0.000000,0.000000,0.000000,0.000000,0.000000,,,,,,,,,,,,,,,,,,,,,,,,,,,,,,,,,,,,,,,,,,,,,,,,,,,,,,,,,,,,,,,,,,,,,,,,,,,,,,,,,,,,,,,,,,,,,,,,,,,,,,,,,,,,,,,,,,,,,,,,,,,,,,,,,
1737282975.191779,1737282975.191587,76.000000,0.000000,4331.025879,4350.769043,4262.051270,4315.641113,4352.307617,4356.282227,4361.025879,4554.102539,4554.871582,4558.589844,4495.512695,5645.641113,4312.307617,4268.589844,0.000000,2.000000,36.000000,,,,0.000000,0.000000,0.000000,0.000000,0.000000,0.000000,0.000000,0.000000,0.000000,0.000000,0.000000,0.000000,0.000000,0.000000,0.000000,0.000000,,,,,,,,,,,,,,,,,19.000000,0.000000,0.661815,-0.747925,0.037109,0.035095,-0.110365,-0.984984,-0.123062,15.306237,-30.841019,16.377392,,,,,,,,,,,,,,,,,,,,,,,,,,,,,,,,0.042962,0.028855,0.017016,0.024818,0.029058,0.049077,0.030948,0.019603,0.021080,0.031227,0.074313,0.036745,0.031382,0.020285,0.030267,0.069201,0.024512,0.026784,0.026746,0.024632,0.032372,0.013151,0.019639,0.014300,0.016960,0.242043,0.035430,0.022542,0.018750,0.019704,0.200965,0.045661,0.057797,0.015586,0.020757,0.043369,0.023092,0.018719,0.010325,0.019481,0.205838,0.044276,0.044857,0.022801,0.025333,0.019524,0.022491,0.026855,0.021933,0.027259,0.078850,0.021996,0.031899,0.016261,0.036249,0.020639,0.029833,0.032393,0.014101,0.026781,0.386998,0.057319,0.023581,0.021283,0.026799,0.054005,0.047106,0.065381,0.028587,0.032976
1737282975.199587,1737282975.199395,77.000000,0.000000,4332.179688,4348.846191,4263.461426,4320.512695,4352.436035,4357.563965,4361.538574,4555.512695,4555.897461,4559.871582,4496.922852,5643.461426,4310.512695,4263.077148,0.000000,2.000000,36.000000,,,,0.000000,0.000000,0.000000,0.000000,0.000000,0.000000,0.000000,0.000000,0.000000,0.000000,0.000000,0.000000,0.000000,0.000000,0.000000,0.000000,,,,,,,,,,,,,,,,,,,,,,,,,,,,,,,,,,,,,,,,,,,,,,,,,,,,,,,,,,,,,,,,,,,,,,,,,,,,,,,,,,,,,,,,,,,,,,,,,,,,,,,,,,,,,,,,,,,,,,,,,,,,,,,,,
1737282975.207395,1737282975.207303,78.000000,0.000000,4331.666504,4350.256348,4265.256348,4320.128418,4350.897461,4356.922852,4360.256348,4556.025879,4557.692383,4558.077148,4500.000000,5643.846191,4310.897461,4263.205078,0.000000,2.000000,36.000000,,,,0.000000,0.000000,0.000000,0.000000,0.000000,0.000000,0.000000,0.000000,0.000000,0.000000,0.000000,0.000000,0.000000,0.000000,0.000000,0.000000,,,,,,,,,,,,,,,,,,,,,,,,,,,,,,,,,,,,,,,,,,,,,,,,,,,,,,,,,,,,,,,,,,,,,,,,,,,,,,,,,,,,,,,,,,,,,,,,,,,,,,,,,,,,,,,,,,,,,,,,,,,,,,,,,
1737282975.215203,1737282975.215111,79.000000,0.000000,4328.846191,4349.871582,4261.538574,4314.102539,4351.153809,4353.589844,4357.307617,4556.025879,4558.974121,4558.333496,4499.230957,5644.102539,4313.205078,4264.230957,1.000000,2.000000,36.000000,,,,0.000000,0.000000,0.000000,0.000000,0.000000,0.000000,0.000000,0.000000,0.000000,0.000000,0.000000,0.000000,0.000000,0.000000,0.000000,0.000000,,,,,,,,,,,,,,,,,,,,,,,,,,,,,,,,,,,,,,,,,,,,,,,,,,,,,,,,,,,,,,,,,,,,,,,,,,,,,,,,,,,,,,,,,,,,,,,,,,,,,,,,,,,,,,,,,,,,,,,,,,,,,,,,,
1737282975.223011,1737282975.223019,80.000000,0.000000,4328.333496,4347.307617,4261.153809,4313.717773,4351.922852,4352.563965,4357.179688,4556.025879,4560.000000,4562.307617,4494.615234,5645.256348,4316.410156,4261.666504,0.000000,2.000000,36.000000,,,,0.000000,0.000000,0.000000,0.000000,0.000000,0.000000,0.000000,0.000000,0.000000,0.000000,0.000000,0.000000,0.000000,0.000000,0.000000,0.000000,,,,,,,,,,,,,,,,,20.000000,0.000000,0.661812,-0.747925,0.037109,0.035156,-0.108412,-0.993774,-0.113783,15.325614,-30.873583,16.322985,,,,,,,,,,,,,,,,,,,,,,,,,,,,,,,,,,,,,,,,,,,,,,,,,,,,,,,,,,,,,,,,,,,,,,,,,,,,,,,,,,,,,,,,,,,,,,,,,,,,,
1737282975.230819,1737282975.230827,81.000000,0.000000,4331.282227,4348.846191,4264.871582,4315.641113,4351.282227,4354.871582,4358.589844,4555.256348,4560.128418,4562.563965,4494.358887,5647.692383,4316.666504,4265.641113,0.000000,2.000000,36.000000,,,,0.000000,0.000000,0.000000,0.000000,0.000000,0.000000,0.000000,0.000000,0.000000,0.000000,0.000000,0.000000,0.000000,0.000000,0.000000,0.000000,,,,,,,,,,,,,,,,,,,,,,,,,,,,,,,,,,,,,,,,,,,,,,,,,,,,,,,,,,,,,,,,,,,,,,,,,,,,,,,,,,,,,,,,,,,,,,,,,,,,,,,,,,,,,,,,,,,,,,,,,,,,,,,,,
1737282975.238627,1737282975.238735,82.000000,0.000000,4331.538574,4351.922852,4261.794922,4314.615234,4351.282227,4356.025879,4361.538574,4558.077148,4555.128418,4557.051270,4494.487305,5646.025879,4311.666504,4263.717773,0.000000,2.000000,36.000000,,,,0.000000,0.000000,0.000000,0.000000,0.000000,0.000000,0.000000,0.000000,0.000000,0.000000,0.000000,0.000000,0.000000,0.000000,0.000000,0.000000,,,,,,,,,,,,,,,,,,,,,,,,,,,,,,,,,,,,,,,,,,,,,,,,,,,,,,,,,,,,,,,,,,,,,,,,,,,,,,,,,,,,,,,,,,,,,,,,,,,,,,,,,,,,,,,,,,,,,,,,,,,,,,,,,
1737282975.246436,1737282975.246543,83.000000,0.000000,4331.666504,4352.820313,4261.538574,4317.563965,4353.077148,4358.333496,4364.743652,4556.794922,4549.102539,4555.000000,4493.077148,5646.922852,4307.307617,4261.538574,1.000000,2.000000,36.000000,,,,0.000000,0.000000,0.000000,0.000000,0.000000,0.000000,0.000000,0.000000,0.000000,0.000000,0.000000,0.000000,0.000000,0.000000,0.000000,0.000000,,,,,,,,,,,,,,,,,,,,,,,,,,,,,,,,,,,,,,,,,,,,,,,,,,,,,,,,,,,,,,,,,,,,,,,,,,,,,,,,,,,,,,,,,,,,,,,,,,,,,,,,,,,,,,,,,,,,,,,,,,,,,,,,,
1737282975.254243,1737282975.254451,84.000000,0.000000,4331.410156,4352.563965,4266.794922,4320.769043,4352.948730,4361.922852,4367.820313,4551.666504,4549.615234,4556.025879,4493.077148,5648.461426,4303.974121,4266.410156,0.000000,2.000000,36.000000,,,,0.000000,0.000000,0.000000,0.000000,0.000000,0.000000,0.000000,0.000000,0.000000,0.000000,0.000000,0.000000,0.000000,0.000000,0.000000,0.000000,,,,,,,,,,,,,,,,,21.000000,0.000000,0.661806,-0.747925,0.037170,0.035217,-0.095715,-0.982542,-0.121109,15.309719,-30.986225,16.357353,,,,,,,,,,,,,,,,,,,,,,,,,,,,,,,,,,,,,,,,,,,,,,,,,,,,,,,,,,,,,,,,,,,,,,,,,,,,,,,,,,,,,,,,,,,,,,,,,,,,,
1737282975.262052,1737282975.262259,85.000000,0.000000,4332.179688,4351.153809,4268.333496,4319.487305,4353.461426,4361.025879,4366.282227,4552.307617,4549.230957,4554.871582,4494.615234,5647.307617,4303.717773,4268.205078,0.000000,2.000000,36.000000,,,,0.000000,0.000000,0.000000,0.000000,0.000000,0.000000,0.000000,0.000000,0.000000,0.000000,0.000000,0.000000,0.000000,0.000000,0.000000,0.000000,,,,,,,,,,,,,,,,,,,,,,,,,,,,,,,,,,,,,,,,,,,,,,,,,,,,,,,,,,,,,,,,,,,,,,,,,,,,,,,,,,,,,,,,,,,,,,,,,,,,,,,,,,,,,,,,,,,,,,,,,,,,,,,,,
1737282975.269860,1737282975.270167,86.000000,0.000000,4333.717773,4351.153809,4267.692383,4318.333496,4355.897461,4361.410156,4363.717773,4555.000000,4547.436035,4554.743652,4495.000000,5646.666504,4306.538574,4266.794922,0.000000,2.000000,36.000000,,,,0.000000,0.000000,0.000000,0.000000,0.000000,0.000000,0.000000,0.000000,0.000000,0.000000,0.000000,0.000000,0.000000,0.000000,0.000000,0.000000,,,,,,,,,,,,,,,,,,,,,,,,,,,,,,,,,,,,,,,,,,,,,,,,,,,,,,,,,,,,,,,,,,,,,,,,,,,,,,,,,,,,,,,,,,,,,,,,,,,,,,,,,,,,,,,,,,,,,,,,,,,,,,,,,
1737282975.277668,1737282975.277975,87.000000,0.000000,4330.512695,4353.461426,4265.769043,4320.128418,4354.615234,4365.256348,4366.410156,4552.436035,4549.358887,4557.436035,4493.974121,5644.230957,4302.179688,4264.743652,1.000000,2.000000,36.000000,,,,0.000000,0.000000,0.000000,0.000000,0.000000,0.000000,0.000000,0.000000,0.000000,0.000000,0.000000,0.000000,0.000000,0.000000,0.000000,0.000000,,,,,,,,,,,,,,,,,,,,,,,,,,,,,,,,,,,,,,,,,,,,,,,,,,,,,,,,,,,,,,,,,,,,,,,,,,,,,,,,,,,,,,,,,,,,,,,,,,,,,,,,,,,,,,,,,,,,,,,,,,,,,,,,,
1737282975.285476,1737282975.285683,88.000000,0.000000,4329.871582,4354.230957,4267.051270,4322.307617,4352.436035,4365.000000,4365.384766,4549.230957,4549.487305,4558.077148,4496.025879,5645.384766,4297.948730,4266.794922,0.000000,2.000000,36.000000,,,,0.000000,0.000000,0.000000,0.000000,0.000000,0.000000,0.000000,0.000000,0.000000,0.000000,0.000000,0.000000,0.000000,0.000000,0.000000,0.000000,,,,,,,,,,,,,,,,,22.000000,0.000000,0.661740,-0.747986,0.037109,0.035217,-0.091320,-0.985960,-0.127945,15.245414,-30.870935,16.254951,,,,,,,,,,,,,,,,,,,,,,,,,,,,,,,,,,,,,,,,,,,,,,,,,,,,,,,,,,,,,,,,,,,,,,,,,,,,,,,,,,,,,,,,,,,,,,,,,,,,,
1737282975.293284,1737282975.293491,89.000000,0.000000,4331.410156,4351.410156,4268.846191,4320.128418,4351.794922,4360.384766,4362.820313,4551.922852,4546.410156,4557.563965,4496.666504,5646.794922,4302.179688,4267.051270,0.000000,2.000000,36.000000,,,,0.000000,0.000000,0.000000,0.000000,0.000000,0.000000,0.000000,0.000000,0.000000,0.000000,0.000000,0.000000,0.000000,0.000000,0.000000,0.000000,,,,,,,,,,,,,,,,,,,,,,,,,,,,,,,,,,,,,,,,,,,,,,,,,,,,,,,,,,,,,,,,,,,,,,,,,,,,,,,,,,,,,,,,,,,,,,,,,,,,,,,,,,,,,,,,,,,,,,,,,,,,,,,,,
1737282975.301092,1737282975.301199,90.000000,0.000000,4331.922852,4352.820313,4266.282227,4319.615234,4352.436035,4358.589844,4364.743652,4554.743652,4546.282227,4557.307617,4495.897461,5645.128418,4304.743652,4263.333496,0.000000,2.000000,36.000000,,,,0.000000,0.000000,0.000000,0.000000,0.000000,0.000000,0.000000,0.000000,0.000000,0.000000,0.000000,0.000000,0.000000,0.000000,0.000000,0.000000,,,,,,,,,,,,,,,,,,,,,,,,,,,,,,,,,,,,,,,,,,,,,,,,,,,,,,,,,,,,,,,,,,,,,,,,,,,,,,,,,,,,,,,,,,,,,,,,,,,,,,,,,,,,,,,,,,,,,,,,,,,,,,,,,
1737282975.308900,1737282975.309007,91.000000,0.000000,4333.589844,4355.897461,4267.563965,4322.820313,4353.205078,4360.769043,4364.230957,4553.717773,4548.589844,4556.666504,4495.897461,5645.512695,4302.436035,4263.717773,1.000000,2.000000,36.000000,,,,0.000000,0.000000,0.000000,0.000000,0.000000,0.000000,0.000000,0.000000,0.000000,0.000000,0.000000,0.000000,0.000000,0.000000,0.000000,0.000000,,,,,,,,,,,,,,,,,,,,,,,,,,,,,,,,,,,,,,,,,,,,,,,,,,,,,,,,,,,,,,,,,,,,,,,,,,,,,,,,,,,,,,,,,,,,,,,,,,,,,,,,,,,,,,,,,,,,,,,,,,,,,,,,,
1737282975.316708,1737282975.316715,92.000000,0.000000,4330.512695,4351.922852,4270.000000,4321.794922,4352.948730,4361.282227,4361.794922,4553.846191,4547.820313,4556.410156,4494.102539,5645.128418,4301.410156,4261.922852,0.000000,2.000000,36.000000,,,,0.000000,0.000000,0.000000,0.000000,0.000000,0.000000,0.000000,0.000000,0.000000,0.000000,0.000000,0.000000,0.000000,0.000000,0.000000,0.000000,,,,,,,,,,,,,,,,,23.000000,0.000000,0.661743,-0.747986,0.037109,0.035156,-0.102063,-0.985472,-0.121597,15.204206,-30.833841,16.396124,,,,,,,,,,,,,,,,,,,,,,,,,,,,,,,,0.046525,0.023535,0.019052,0.024132,0.027929,0.041474,0.032966,0.020807,0.021028,0.027843,0.081305,0.029699,0.036601,0.019581,0.031423,0.084015,0.022052,0.037093,0.029257,0.024662,0.036388,0.013749,0.022628,0.014815,0.016543,0.249146,0.031474,0.026280,0.018408,0.019124,0.249734,0.040221,0.060574,0.018666,0.022250,0.046655,0.021743,0.019990,0.011976,0.016089,0.242728,0.046107,0.040861,0.024420,0.026579,0.023059,0.025202,0.024651,0.019789,0.028037,0.078952,0.020448,0.031966,0.015761,0.039059,0.023128,0.029974,0.033095,0.014203,0.024763,0.479459,0.056871,0.023804,0.022820,0.026482,0.057391,0.049697,0.076496,0.030881,0.033194
1737282975.324516,1737282975.324523,93.000000,0.000000,4329.230957,4351.538574,4268.461426,4319.615234,4353.333496,4359.871582,4362.051270,4555.641113,4546.794922,4556.410156,4495.769043,5644.487305,4303.974121,4262.436035,0.000000,2.000000,36.000000,,,,0.000000,0.000000,0.000000,0.000000,0.000000,0.000000,0.000000,0.000000,0.000000,0.000000,0.000000,0.000000,0.000000,0.000000,0.000000,0.000000,,,,,,,,,,,,,,,,,,,,,,,,,,,,,,,,,,,,,,,,,,,,,,,,,,,,,,,,,,,,,,,,,,,,,,,,,,,,,,,,,,,,,,,,,,,,,,,,,,,,,,,,,,,,,,,,,,,,,,,,,,,,,,,,,
1737282975.332324,1737282975.332231,94.000000,0.000000,4332.948730,4353.974121,4266.025879,4321.282227,4354.358887,4359.743652,4365.128418,4555.641113,4547.436035,4556.410156,4495.512695,5645.769043,4303.077148,4263.461426,0.000000,2.000000,36.000000,,,,0.000000,0.000000,0.000000,0.000000,0.000000,0.000000,0.000000,0.000000,0.000000,0.000000,0.000000,0.000000,0.000000,0.000000,0.000000,0.000000,,,,,,,,,,,,,,,,,,,,,,,,,,,,,,,,,,,,,,,,,,,,,,,,,,,,,,,,,,,,,,,,,,,,,,,,,,,,,,,,,,,,,,,,,,,,,,,,,,,,,,,,,,,,,,,,,,,,,,,,,,,,,,,,,
1737282975.340132,1737282975.340039,95.000000,0.000000,4331.538574,4351.153809,4266.922852,4322.051270,4352.948730,4361.282227,4365.641113,4552.563965,4550.128418,4557.179688,4491.025879,5646.922852,4300.000000,4260.769043,1.000000,2.000000,36.000000,,,,0.000000,0.000000,0.000000,0.000000,0.000000,0.000000,0.000000,0.000000,0.000000,0.000000,0.000000,0.000000,0.000000,0.000000,0.000000,0.000000,,,,,,,,,,,,,,,,,,,,,,,,,,,,,,,,,,,,,,,,,,,,,,,,,,,,,,,,,,,,,,,,,,,,,,,,,,,,,,,,,,,,,,,,,,,,,,,,,,,,,,,,,,,,,,,,,,,,,,,,,,,,,,,,,
1737282975.347941,1737282975.347747,96.000000,0.000000,4328.333496,4351.922852,4270.256348,4321.153809,4349.871582,4361.025879,4362.948730,4551.538574,4551.538574,4557.820313,4493.205078,5648.205078,4301.922852,4263.974121,0.000000,2.000000,36.000000,,,,0.000000,0.000000,0.000000,0.000000,0.000000,0.000000,0.000000,0.000000,0.000000,0.000000,0.000000,0.000000,0.000000,0.000000,0.000000,0.000000,,,,,,,,,,,,,,,,,24.000000,0.000000,0.661671,-0.748047,0.037109,0.035217,-0.095715,-0.982542,-0.121597,15.300452,-30.983791,16.306511,,,,,,,,,,,,,,,,,,,,,,,,,,,,,,,,,,,,,,,,,,,,,,,,,,,,,,,,,,,,,,,,,,,,,,,,,,,,,,,,,,,,,,,,,,,,,,,,,,,,,
1737282975.355749,1737282975.355655,97.000000,0.000000,4329.230957,4353.077148,4270.897461,4318.846191,4353.077148,4360.512695,4364.230957,4554.871582,4551.794922,4557.051270,4495.897461,5648.461426,4302.436035,4264.487305,0.000000,2.000000,36.000000,,,,0.000000,0.000000,0.000000,0.000000,0.000000,0.000000,0.000000,0.000000,0.000000,0.000000,0.000000,0.000000,0.000000,0.000000,0.000000,0.000000,,,,,,,,,,,,,,,,,,,,,,,,,,,,,,,,,,,,,,,,,,,,,,,,,,,,,,,,,,,,,,,,,,,,,,,,,,,,,,,,,,,,,,,,,,,,,,,,,,,,,,,,,,,,,,,,,,,,,,,,,,,,,,,,,
1737282975.363557,1737282975.363463,98.000000,0.000000,4331.666504,4349.358887,4271.153809,4319.230957,4356.666504,4361.794922,4365.256348,4554.871582,4552.820313,4557.051270,4493.717773,5648.461426,4301.666504,4263.717773,0.000000,2.000000,36.000000,,,,0.000000,0.000000,0.000000,0.000000,0.000000,0.000000,0.000000,0.000000,0.000000,0.000000,0.000000,0.000000,0.000000,0.000000,0.000000,0.000000,,,,,,,,,,,,,,,,,,,,,,,,,,,,,,,,,,,,,,,,,,,,,,,,,,,,,,,,,,,,,,,,,,,,,,,,,,,,,,,,,,,,,,,,,,,,,,,,,,,,,,,,,,,,,,,,,,,,,,,,,,,,,,,,,
1737282975.371365,1737282975.371371,99.000000,0.000000,4332.436035,4346.282227,4269.358887,4322.436035,4352.307617,4360.897461,4363.846191,4551.666504,4551.666504,4558.589844,4494.743652,5648.333496,4303.205078,4265.128418,1.000000,2.000000,36.000000,,,,0.000000,0.000000,0.000000,0.000000,0.000000,0.000000,0.000000,0.000000,0.000000,0.000000,0.000000,0.000000,0.000000,0.000000,0.000000,0.000000,,,,,,,,,,,,,,,,,,,,,,,,,,,,,,,,,,,,,,,,,,,,,,,,,,,,,,,,,,,,,,,,,,,,,,,,,,,,,,,,,,,,,,,,,,,,,,,,,,,,,,,,,,,,,,,,,,,,,,,,,,,,,,,,,
1737282975.379173,1737282975.379180,100.000000,0.000000,4332.563965,4347.820313,4268.717773,4322.179688,4348.333496,4359.358887,4365.256348,4552.179688,4549.615234,4557.820313,4496.794922,5645.897461,4302.179688,4263.333496,0.000000,2.000000,36.000000,,,,0.000000,0.000000,0.000000,0.000000,0.000000,0.000000,0.000000,0.000000,0.000000,0.000000,0.000000,0.000000,0.000000,0.000000,0.000000,0.000000,,,,,,,,,,,,,,,,,25.000000,0.000000,0.661740,-0.747986,0.037109,0.035217,-0.095715,-0.981077,-0.120132,15.253740,-30.985413,16.525860,,,,,,,,,,,,,,,,,,,,,,,,,,,,,,,,,,,,,,,,,,,,,,,,,,,,,,,,,,,,,,,,,,,,,,,,,,,,,,,,,,,,,,,,,,,,,,,,,,,,,
1737282975.386981,1737282975.387087,101.000000,0.000000,4331.666504,4351.538574,4272.179688,4322.563965,4351.282227,4359.871582,4365.641113,4553.205078,4547.820313,4556.922852,4495.897461,5647.179688,4301.538574,4263.205078,0.000000,2.000000,36.000000,,,,0.000000,0.000000,0.000000,0.000000,0.000000,0.000000,0.000000,0.000000,0.000000,0.000000,0.000000,0.000000,0.000000,0.000000,0.000000,0.000000,,,,,,,,,,,,,,,,,,,,,,,,,,,,,,,,,,,,,,,,,,,,,,,,,,,,,,,,,,,,,,,,,,,,,,,,,,,,,,,,,,,,,,,,,,,,,,,,,,,,,,,,,,,,,,,,,,,,,,,,,,,,,,,,,
1737282975.394789,1737282975.394895,102.000000,0.000000,4328.717773,4351.410156,4270.384766,4324.487305,4353.846191,4362.948730,4364.358887,4551.282227,4546.794922,4557.820313,4492.563965,5648.333496,4301.538574,4262.563965,0.000000,2.000000,36.000000,,,,0.000000,0.000000,0.000000,0.000000,0.000000,0.000000,0.000000,0.000000,0.000000,0.000000,0.000000,0.000000,0.000000,0.000000,0.000000,0.000000,,,,,,,,,,,,,,,,,,,,,,,,,,,,,,,,,,,,,,,,,,,,,,,,,,,,,,,,,,,,,,,,,,,,,,,,,,,,,,,,,,,,,,,,,,,,,,,,,,,,,,,,,,,,,,,,,,,,,,,,,,,,,,,,,
1737282975.402597,1737282975.402803,103.000000,0.000000,4329.487305,4352.179688,4269.102539,4322.563965,4353.333496,4361.794922,4363.589844,4550.769043,4548.333496,4557.563965,4491.538574,5645.769043,4301.538574,4261.025879,1.000000,2.000000,36.000000,,,,0.000000,0.000000,0.000000,0.000000,0.000000,0.000000,0.000000,0.000000,0.000000,0.000000,0.000000,0.000000,0.000000,0.000000,0.000000,0.000000,,,,,,,,,,,,,,,,,,,,,,,,,,,,,,,,,,,,,,,,,,,,,,,,,,,,,,,,,,,,,,,,,,,,,,,,,,,,,,,,,,,,,,,,,,,,,,,,,,,,,,,,,,,,,,,,,,,,,,,,,,,,,,,,,
1737282975.410405,1737282975.410611,104.000000,0.000000,4331.410156,4356.538574,4270.512695,4319.487305,4353.846191,4359.871582,4362.948730,4552.563965,4552.307617,4557.307617,4492.179688,5644.871582,4303.717773,4262.051270,0.000000,2.000000,36.000000,,,,0.000000,0.000000,0.000000,0.000000,0.000000,0.000000,0.000000,0.000000,0.000000,0.000000,0.000000,0.000000,0.000000,0.000000,0.000000,0.000000,,,,,,,,,,,,,,,,,26.000000,0.000000,0.661809,-0.747925,0.037048,0.035278,-0.104017,-0.993285,-0.119644,15.245032,-30.953537,16.406607,,,,,,,,,,,,,,,,,,,,,,,,,,,,,,,,,,,,,,,,,,,,,,,,,,,,,,,,,,,,,,,,,,,,,,,,,,,,,,,,,,,,,,,,,,,,,,,,,,,,,
1737282975.418213,1737282975.418519,105.000000,0.000000,4330.256348,4354.615234,4267.051270,4318.205078,4353.589844,4361.794922,4364.487305,4553.333496,4552.563965,4558.333496,4490.769043,5645.769043,4302.179688,4264.102539,0.000000,2.000000,36.000000,,,,0.000000,0.000000,0.000000,0.000000,0.000000,0.000000,0.000000,0.000000,0.000000,0.000000,0.000000,0.000000,0.000000,0.000000,0.000000,0.000000,,,,,,,,,,,,,,,,,,,,,,,,,,,,,,,,,,,,,,,,,,,,,,,,,,,,,,,,,,,,,,,,,,,,,,,,,,,,,,,,,,,,,,,,,,,,,,,,,,,,,,,,,,,,,,,,,,,,,,,,,,,,,,,,,
1737282975.426021,1737282975.426327,106.000000,0.000000,4331.666504,4350.256348,4265.512695,4321.153809,4352.563965,4361.153809,4366.282227,4552.436035,4546.666504,4557.948730,4491.153809,5648.846191,4301.538574,4266.794922,0.000000,2.000000,36.000000,,,,0.000000,0.000000,0.000000,0.000000,0.000000,0.000000,0.000000,0.000000,0.000000,0.000000,0.000000,0.000000,0.000000,0.000000,0.000000,0.000000,,,,,,,,,,,,,,,,,,,,,,,,,,,,,,,,,,,,,,,,,,,,,,,,,,,,,,,,,,,,,,,,,,,,,,,,,,,,,,,,,,,,,,,,,,,,,,,,,,,,,,,,,,,,,,,,,,,,,,,,,,,,,,,,,
1737282975.433829,1737282975.434235,107.000000,0.000000,4331.282227,4351.538574,4266.153809,4321.666504,4354.743652,4360.897461,4367.692383,4551.794922,4547.563965,4556.538574,4493.846191,5647.820313,4303.461426,4264.615234,1.000000,2.000000,36.000000,,,,0.000000,0.000000,0.000000,0.000000,0.000000,0.000000,0.000000,0.000000,0.000000,0.000000,0.000000,0.000000,0.000000,0.000000,0.000000,0.000000,,,,,,,,,,,,,,,,,,,,,,,,,,,,,,,,,,,,,,,,,,,,,,,,,,,,,,,,,,,,,,,,,,,,,,,,,,,,,,,,,,,,,,,,,,,,,,,,,,,,,,,,,,,,,,,,,,,,,,,,,,,,,,,,,
1737282975.441638,1737282975.442043,108.000000,0.000000,4328.717773,4351.282227,4265.512695,4318.846191,4356.922852,4362.820313,4364.871582,4553.333496,4552.820313,4556.025879,4491.794922,5647.051270,4303.333496,4259.743652,0.000000,2.000000,36.000000,,,,0.000000,0.000000,0.000000,0.000000,0.000000,0.000000,0.000000,0.000000,0.000000,0.000000,0.000000,0.000000,0.000000,0.000000,0.000000,0.000000,1.000000,0.000000,0.000000,0.000000,0.000000,0.000000,0.000000,0.000000,0.000000,0.000000,0.000000,0.000000,0.000000,0.000000,0.000000,0.000000,27.000000,0.000000,0.661809,-0.747925,0.037048,0.035278,-0.112807,-0.983030,-0.128922,15.187196,-30.891518,16.215946,,,,,,,,,,,,,,,,,,,,,,,,,,,,,,,,0.049206,0.018971,0.019800,0.023644,0.026468,0.034755,0.034455,0.022055,0.022169,0.024802,0.099704,0.026283,0.042972,0.019222,0.032152,0.111931,0.023161,0.051261,0.033491,0.024563,0.040083,0.013657,0.025073,0.016153,0.016935,0.267999,0.031206,0.033121,0.018907,0.018798,0.315737,0.041720,0.065126,0.024060,0.024743,0.051387,0.020982,0.022899,0.014915,0.013155,0.282407,0.047315,0.039418,0.026207,0.028404,0.029707,0.028640,0.021290,0.018780,0.027130,0.080711,0.018791,0.030319,0.016388,0.041277,0.025029,0.029326,0.031674,0.014393,0.023559,0.619770,0.063164,0.029559,0.026065,0.025043,0.072935,0.057011,0.087917,0.034240,0.032953
1737282975.449446,1737282975.449751,109.000000,0.000000,4329.230957,4348.077148,4267.307617,4319.615234,4354.358887,4361.666504,4361.666504,4554.871582,4551.922852,4557.436035,4489.487305,5649.230957,4303.461426,4261.794922,0.000000,2.000000,36.000000,,,,0.000000,0.000000,0.000000,0.000000,0.000000,0.000000,0.000000,0.000000,0.000000,0.000000,0.000000,0.000000,0.000000,0.000000,0.000000,0.000000,,,,,,,,,,,,,,,,,,,,,,,,,,,,,,,,,,,,,,,,,,,,,,,,,,,,,,,,,,,,,,,,,,,,,,,,,,,,,,,,,,,,,,,,,,,,,,,,,,,,,,,,,,,,,,,,,,,,,,,,,,,,,,,,,
1737282975.457254,1737282975.457559,110.000000,0.000000,4329.358887,4349.487305,4267.436035,4321.794922,4352.820313,4359.230957,4364.487305,4553.717773,4548.974121,4558.589844,4493.974121,5644.871582,4302.179688,4263.333496,0.000000,2.000000,36.000000,,,,0.000000,0.000000,0.000000,0.000000,0.000000,0.000000,0.000000,0.000000,0.000000,0.000000,0.000000,0.000000,0.000000,0.000000,0.000000,0.000000,,,,,,,,,,,,,,,,,,,,,,,,,,,,,,,,,,,,,,,,,,,,,,,,,,,,,,,,,,,,,,,,,,,,,,,,,,,,,,,,,,,,,,,,,,,,,,,,,,,,,,,,,,,,,,,,,,,,,,,,,,,,,,,,,
1737282975.465062,1737282975.465267,111.000000,0.000000,4329.358887,4352.948730,4267.051270,4321.282227,4356.025879,4360.000000,4366.410156,4551.794922,4548.461426,4559.230957,4496.282227,5644.358887,4301.025879,4261.538574,1.000000,2.000000,36.000000,,,,0.000000,0.000000,0.000000,0.000000,0.000000,0.000000,0.000000,0.000000,0.000000,0.000000,0.000000,0.000000,0.000000,0.000000,0.000000,0.000000,,,,,,,,,,,,,,,,,,,,,,,,,,,,,,,,,,,,,,,,,,,,,,,,,,,,,,,,,,,,,,,,,,,,,,,,,,,,,,,,,,,,,,,,,,,,,,,,,,,,,,,,,,,,,,,,,,,,,,,,,,,,,,,,,
1737282975.472870,1737282975.473075,112.000000,0.000000,4330.512695,4350.897461,4268.974121,4318.846191,4354.743652,4361.282227,4366.025879,4551.922852,4548.846191,4558.846191,4493.589844,5647.820313,4302.563965,4258.461426,0.000000,2.000000,36.000000,,,,0.000000,0.000000,0.000000,0.000000,0.000000,0.000000,0.000000,0.000000,0.000000,0.000000,0.000000,0.000000,0.000000,0.000000,0.000000,0.000000,,,,,,,,,,,,,,,,,28.000000,0.000000,0.661813,-0.747925,0.036987,0.035278,-0.113783,-0.983030,-0.129410,15.135143,-31.002365,16.211018,,,,,,,,,,,,,,,,,,,,,,,,,,,,,,,,,,,,,,,,,,,,,,,,,,,,,,,,,,,,,,,,,,,,,,,,,,,,,,,,,,,,,,,,,,,,,,,,,,,,,
1737282975.480678,1737282975.480783,113.000000,0.000000,4330.769043,4348.846191,4269.230957,4317.948730,4350.512695,4360.000000,4365.769043,4553.077148,4548.589844,4559.743652,4493.333496,5647.563965,4305.769043,4259.743652,0.000000,2.000000,36.000000,,,,0.000000,0.000000,0.000000,0.000000,0.000000,0.000000,0.000000,0.000000,0.000000,0.000000,0.000000,0.000000,0.000000,0.000000,0.000000,0.000000,,,,,,,,,,,,,,,,,,,,,,,,,,,,,,,,,,,,,,,,,,,,,,,,,,,,,,,,,,,,,,,,,,,,,,,,,,,,,,,,,,,,,,,,,,,,,,,,,,,,,,,,,,,,,,,,,,,,,,,,,,,,,,,,,
1737282975.488486,1737282975.488691,114.000000,0.000000,4330.769043,4350.769043,4268.077148,4319.871582,4351.666504,4359.230957,4361.666504,4552.436035,4548.333496,4559.102539,4494.102539,5647.179688,4304.743652,4264.230957,0.000000,2.000000,36.000000,,,,0.000000,0.000000,0.000000,0.000000,0.000000,0.000000,0.000000,0.000000,0.000000,0.000000,0.000000,0.000000,0.000000,0.000000,0.000000,0.000000,,,,,,,,,,,,,,,,,,,,,,,,,,,,,,,,,,,,,,,,,,,,,,,,,,,,,,,,,,,,,,,,,,,,,,,,,,,,,,,,,,,,,,,,,,,,,,,,,,,,,,,,,,,,,,,,,,,,,,,,,,,,,,,,,
1737282975.496294,1737282975.496499,115.000000,0.000000,4331.153809,4351.538574,4265.256348,4321.666504,4353.974121,4359.871582,4360.256348,4553.717773,4547.563965,4556.153809,4492.948730,5645.769043,4299.871582,4259.871582,1.000000,2.000000,36.000000,,,,0.000000,0.000000,0.000000,0.000000,0.000000,0.000000,0.000000,0.000000,0.000000,0.000000,0.000000,0.000000,0.000000,0.000000,0.000000,0.000000,,,,,,,,,,,,,,,,,,,,,,,,,,,,,,,,,,,,,,,,,,,,,,,,,,,,,,,,,,,,,,,,,,,,,,,,,,,,,,,,,,,,,,,,,,,,,,,,,,,,,,,,,,,,,,,,,,,,,,,,,,,,,,,,,
1737282975.504102,1737282975.504407,116.000000,0.000000,4333.846191,4349.102539,4266.153809,4320.512695,4352.563965,4360.384766,4363.974121,4555.384766,4549.358887,4555.000000,4496.922852,5647.563965,4303.589844,4260.128418,0.000000,2.000000,36.000000,,,,0.000000,0.000000,0.000000,0.000000,0.000000,0.000000,0.000000,0.000000,0.000000,0.000000,0.000000,0.000000,0.000000,0.000000,0.000000,0.000000,,,,,,,,,,,,,,,,,29.000000,0.000000,0.661744,-0.747986,0.036987,0.035278,-0.094738,-0.991332,-0.125992,15.188295,-31.218796,16.189917,,,,,,,,,,,,,,,,,,,,,,,,,,,,,,,,,,,,,,,,,,,,,,,,,,,,,,,,,,,,,,,,,,,,,,,,,,,,,,,,,,,,,,,,,,,,,,,,,,,,,
1737282975.511910,1737282975.512216,117.000000,0.000000,4334.358887,4348.589844,4270.128418,4318.717773,4351.794922,4359.358887,4367.051270,4553.333496,4550.384766,4556.282227,4499.230957,5650.512695,4304.871582,4264.871582,0.000000,2.000000,36.000000,,,,0.000000,0.000000,0.000000,0.000000,0.000000,0.000000,0.000000,0.000000,0.000000,0.000000,0.000000,0.000000,0.000000,0.000000,0.000000,0.000000,,,,,,,,,,,,,,,,,,,,,,,,,,,,,,,,,,,,,,,,,,,,,,,,,,,,,,,,,,,,,,,,,,,,,,,,,,,,,,,,,,,,,,,,,,,,,,,,,,,,,,,,,,,,,,,,,,,,,,,,,,,,,,,,,
1737282975.519719,1737282975.520024,118.000000,0.000000,4328.846191,4350.897461,4268.974121,4318.846191,4353.333496,4360.256348,4366.666504,4552.179688,4550.512695,4557.051270,4493.717773,5648.461426,4300.000000,4260.897461,0.000000,2.000000,36.000000,,,,0.000000,0.000000,0.000000,0.000000,0.000000,0.000000,0.000000,0.000000,0.000000,0.000000,0.000000,0.000000,0.000000,0.000000,0.000000,0.000000,,,,,,,,,,,,,,,,,,,,,,,,,,,,,,,,,,,,,,,,,,,,,,,,,,,,,,,,,,,,,,,,,,,,,,,,,,,,,,,,,,,,,,,,,,,,,,,,,,,,,,,,,,,,,,,,,,,,,,,,,,,,,,,,,
1737282975.527527,1737282975.527732,119.000000,0.000000,4328.333496,4352.948730,4266.538574,4320.000000,4354.615234,4362.307617,4363.333496,4553.589844,4551.666504,4555.769043,4493.974121,5648.717773,4303.589844,4262.436035,1.000000,2.000000,36.000000,,,,0.000000,0.000000,0.000000,0.000000,0.000000,0.000000,0.000000,0.000000,0.000000,0.000000,0.000000,0.000000,0.000000,0.000000,0.000000,0.000000,,,,,,,,,,,,,,,,,,,,,,,,,,,,,,,,,,,,,,,,,,,,,,,,,,,,,,,,,,,,,,,,,,,,,,,,,,,,,,,,,,,,,,,,,,,,,,,,,,,,,,,,,,,,,,,,,,,,,,,,,,,,,,,,,
1737282975.535335,1737282975.535540,120.000000,0.000000,4333.717773,4351.538574,4265.384766,4319.487305,4353.846191,4359.871582,4364.358887,4555.769043,4548.846191,4556.282227,4496.025879,5649.871582,4306.025879,4265.000000,0.000000,2.000000,36.000000,,,,0.000000,0.000000,0.000000,0.000000,0.000000,0.000000,0.000000,0.000000,0.000000,0.000000,0.000000,0.000000,0.000000,0.000000,0.000000,0.000000,,,,,,,,,,,,,,,,,30.000000,0.000000,0.661747,-0.747986,0.036987,0.035217,-0.108412,-0.972775,-0.129410,15.152800,-31.063583,16.004259,,,,,,,,,,,,,,,,,,,,,,,,,,,,,,,,,,,,,,,,,,,,,,,,,,,,,,,,,,,,,,,,,,,,,,,,,,,,,,,,,,,,,,,,,,,,,,,,,,,,,
1737282975.543143,1737282975.543248,121.000000,0.000000,4333.333496,4351.282227,4266.794922,4316.922852,4351.538574,4356.538574,4366.025879,4554.871582,4547.179688,4558.589844,4494.871582,5647.307617,4301.025879,4262.051270,0.000000,2.000000,36.000000,,,,0.000000,0.000000,0.000000,0.000000,0.000000,0.000000,0.000000,0.000000,0.000000,0.000000,0.000000,0.000000,0.000000,0.000000,0.000000,0.000000,,,,,,,,,,,,,,,,,,,,,,,,,,,,,,,,,,,,,,,,,,,,,,,,,,,,,,,,,,,,,,,,,,,,,,,,,,,,,,,,,,,,,,,,,,,,,,,,,,,,,,,,,,,,,,,,,,,,,,,,,,,,,,,,,
1737282975.550951,1737282975.551156,122.000000,0.000000,4328.461426,4352.051270,4268.333496,4318.717773,4352.436035,4357.692383,4364.871582,4553.333496,4550.384766,4558.205078,4493.717773,5644.102539,4299.358887,4261.025879,0.000000,2.000000,36.000000,,,,0.000000,0.000000,0.000000,0.000000,0.000000,0.000000,0.000000,0.000000,0.000000,0.000000,0.000000,0.000000,0.000000,0.000000,0.000000,0.000000,,,,,,,,,,,,,,,,,,,,,,,,,,,,,,,,,,,,,,,,,,,,,,,,,,,,,,,,,,,,,,,,,,,,,,,,,,,,,,,,,,,,,,,,,,,,,,,,,,,,,,,,,,,,,,,,,,,,,,,,,,,,,,,,,
1737282975.558759,1737282975.558964,123.000000,0.000000,4328.205078,4350.000000,4265.128418,4322.307617,4355.000000,4359.615234,4366.538574,4553.717773,4550.512695,4555.897461,4490.897461,5643.589844,4300.384766,4261.794922,1.000000,2.000000,36.000000,,,,0.000000,0.000000,0.000000,0.000000,0.000000,0.000000,0.000000,0.000000,0.000000,0.000000,0.000000,0.000000,0.000000,0.000000,0.000000,0.000000,,,,,,,,,,,,,,,,,,,,,,,,,,,,,,,,,,,,,,,,,,,,,,,,,,,,,,,,,,,,,,,,,,,,,,,,,,,,,,,,,,,,,,,,,,,,,,,,,,,,,,,,,,,,,,,,,,,,,,,,,,,,,,,,,
1737282975.566567,1737282975.566872,124.000000,0.000000,4333.461426,4350.128418,4266.410156,4322.948730,4353.717773,4358.846191,4365.769043,4553.333496,4550.512695,4557.436035,4491.410156,5646.025879,4301.538574,4262.948730,0.000000,2.000000,36.000000,,,,0.000000,0.000000,0.000000,0.000000,0.000000,0.000000,0.000000,0.000000,0.000000,0.000000,0.000000,0.000000,0.000000,0.000000,0.000000,0.000000,,,,,,,,,,,,,,,,,31.000000,0.000000,0.661747,-0.747986,0.036987,0.035217,-0.096691,-0.978147,-0.131364,15.087520,-30.957224,16.087166,,,,,,,,,,,,,,,,,,,,,,,,,,,,,,,,0.051118,0.016377,0.019119,0.023384,0.024963,0.031182,0.035584,0.023433,0.025098,0.022830,0.127708,0.027221,0.049954,0.020009,0.032544,0.149168,0.028138,0.068345,0.040116,0.024703,0.043656,0.013068,0.025859,0.017972,0.017932,0.305103,0.035634,0.046528,0.020643,0.018963,0.395372,0.048466,0.071590,0.032070,0.027117,0.058187,0.021606,0.028847,0.018825,0.011348,0.322144,0.049365,0.041056,0.028638,0.029793,0.039123,0.032005,0.018863,0.019142,0.025158,0.086422,0.018621,0.027331,0.018286,0.042306,0.025664,0.027783,0.028694,0.014490,0.023485,0.800237,0.080539,0.048642,0.032387,0.023042,0.100839,0.069767,0.096676,0.037536,0.032004
1737282975.574375,1737282975.574681,125.000000,0.000000,4332.051270,4351.153809,4268.974121,4318.717773,4351.282227,4359.358887,4363.846191,4553.333496,4553.846191,4558.846191,4493.846191,5644.871582,4299.871582,4260.897461,0.000000,2.000000,36.000000,,,,0.000000,0.000000,0.000000,0.000000,0.000000,0.000000,0.000000,0.000000,0.000000,0.000000,0.000000,0.000000,0.000000,0.000000,0.000000,0.000000,,,,,,,,,,,,,,,,,,,,,,,,,,,,,,,,,,,,,,,,,,,,,,,,,,,,,,,,,,,,,,,,,,,,,,,,,,,,,,,,,,,,,,,,,,,,,,,,,,,,,,,,,,,,,,,,,,,,,,,,,,,,,,,,,
