title:bread1, start timestamp:1737282806.755770, stop timestamp:1737282809.785309, headset type:EPOCX, headset serial:E50208A5, headset firmware:720, channels:168, sampling rate:eeg_128;mot_32;pm_0.1;pow_8, samples:389       , version:2.2, 
Timestamp,OriginalTimestamp,EEG.Counter,EEG.Interpolated,EEG.AF3,EEG.F7,EEG.F3,EEG.FC5,EEG.T7,EEG.P7,EEG.O1,EEG.O2,EEG.P8,EEG.T8,EEG.FC6,EEG.F4,EEG.F8,EEG.AF4,EEG.RawCq,EEG.Battery,EEG.BatteryPercent,MarkerIndex,MarkerType,MarkerValueInt,EEG.MarkerHardware,CQ.AF3,CQ.F7,CQ.F3,CQ.FC5,CQ.T7,CQ.P7,CQ.O1,CQ.O2,CQ.P8,CQ.T8,CQ.FC6,CQ.F4,CQ.F8,CQ.AF4,CQ.Overall,EQ.SampleRateQuality,EQ.OVERALL,EQ.AF3,EQ.F7,EQ.F3,EQ.FC5,EQ.T7,EQ.P7,EQ.O1,EQ.O2,EQ.P8,EQ.T8,EQ.FC6,EQ.F4,EQ.F8,EQ.AF4,MOT.CounterMems,MOT.InterpolatedMems,MOT.Q0,MOT.Q1,MOT.Q2,MOT.Q3,MOT.AccX,MOT.AccY,MOT.AccZ,MOT.MagX,MOT.MagY,MOT.MagZ,PM.Attention.IsActive,PM.Attention.Scaled,PM.Attention.Raw,PM.Attention.Min,PM.Attention.Max,PM.Engagement.IsActive,PM.Engagement.Scaled,PM.Engagement.Raw,PM.Engagement.Min,PM.Engagement.Max,PM.Excitement.IsActive,PM.Excitement.Scaled,PM.Excitement.Raw,PM.Excitement.Min,PM.Excitement.Max,PM.LongTermExcitement,PM.Stress.IsActive,PM.Stress.Scaled,PM.Stress.Raw,PM.Stress.Min,PM.Stress.Max,PM.Relaxation.IsActive,PM.Relaxation.Scaled,PM.Relaxation.Raw,PM.Relaxation.Min,PM.Relaxation.Max,PM.Interest.IsActive,PM.Interest.Scaled,PM.Interest.Raw,PM.Interest.Min,PM.Interest.Max,POW.AF3.Theta,POW.AF3.Alpha,POW.AF3.BetaL,POW.AF3.BetaH,POW.AF3.Gamma,POW.F7.Theta,POW.F7.Alpha,POW.F7.BetaL,POW.F7.BetaH,POW.F7.Gamma,POW.F3.Theta,POW.F3.Alpha,POW.F3.BetaL,POW.F3.BetaH,POW.F3.Gamma,POW.FC5.Theta,POW.FC5.Alpha,POW.FC5.BetaL,POW.FC5.BetaH,POW.FC5.Gamma,POW.T7.Theta,POW.T7.Alpha,POW.T7.BetaL,POW.T7.BetaH,POW.T7.Gamma,POW.P7.Theta,POW.P7.Alpha,POW.P7.BetaL,POW.P7.BetaH,POW.P7.Gamma,POW.O1.Theta,POW.O1.Alpha,POW.O1.BetaL,POW.O1.BetaH,POW.O1.Gamma,POW.O2.Theta,POW.O2.Alpha,POW.O2.BetaL,POW.O2.BetaH,POW.O2.Gamma,POW.P8.Theta,POW.P8.Alpha,POW.P8.BetaL,POW.P8.BetaH,POW.P8.Gamma,POW.T8.Theta,POW.T8.Alpha,POW.T8.BetaL,POW.T8.BetaH,POW.T8.Gamma,POW.FC6.Theta,POW.FC6.Alpha,POW.FC6.BetaL,POW.FC6.BetaH,POW.FC6.Gamma,POW.F4.Theta,POW.F4.Alpha,POW.F4.BetaL,POW.F4.BetaH,POW.F4.Gamma,POW.F8.Theta,POW.F8.Alpha,POW.F8.BetaL,POW.F8.BetaH,POW.F8.Gamma,POW.AF4.Theta,POW.AF4.Alpha,POW.AF4.BetaL,POW.AF4.BetaH,POW.AF4.Gamma
1737282806.755770,1737282806.756466,8.000000,0.000000,4327.563965,4346.794922,4265.128418,4318.846191,4354.743652,4356.538574,4362.820313,4552.307617,4552.179688,4558.205078,4494.358887,5628.461426,4302.179688,4258.717773,0.000000,2.000000,37.000000,,,,0.000000,0.000000,0.000000,0.000000,0.000000,0.000000,0.000000,0.000000,0.000000,0.000000,0.000000,0.000000,0.000000,0.000000,0.000000,0.000000,,,,,,,,,,,,,,,,,2.000000,0.000000,0.661184,-0.748535,0.036804,0.034302,-0.116713,-0.992797,-0.109388,15.215610,-30.653553,15.652665,,,,,,,,,,,,,,,,,,,,,,,,,,,,,,,,,,,,,,,,,,,,,,,,,,,,,,,,,,,,,,,,,,,,,,,,,,,,,,,,,,,,,,,,,,,,,,,,,,,,,
1737282806.763578,1737282806.764174,9.000000,0.000000,4330.000000,4351.410156,4270.256348,4321.794922,4351.922852,4360.512695,4365.384766,4552.179688,4547.948730,4556.922852,4495.641113,5631.025879,4297.563965,4259.487305,0.000000,2.000000,37.000000,,,,0.000000,0.000000,0.000000,0.000000,0.000000,0.000000,0.000000,0.000000,0.000000,0.000000,0.000000,0.000000,0.000000,0.000000,0.000000,0.000000,,,,,,,,,,,,,,,,,,,,,,,,,,,,,,,,,,,,,,,,,,,,,,,,,,,,,,,,,,,,,,,,,,,,,,,,,,,,,,,,,,,,,,,,,,,,,,,,,,,,,,,,,,,,,,,,,,,,,,,,,,,,,,,,,
1737282806.771387,1737282806.772082,10.000000,0.000000,4323.974121,4349.230957,4266.794922,4320.769043,4351.666504,4364.230957,4375.897461,4553.205078,4545.641113,4555.384766,4496.282227,5623.205078,4287.051270,4246.410156,0.000000,2.000000,37.000000,,,,0.000000,0.000000,0.000000,0.000000,0.000000,0.000000,0.000000,0.000000,0.000000,0.000000,0.000000,0.000000,0.000000,0.000000,0.000000,0.000000,,,,,,,,,,,,,,,,,,,,,,,,,,,,,,,,,,,,,,,,,,,,,,,,,,,,,,,,,,,,,,,,,,,,,,,,,,,,,,,,,,,,,,,,,,,,,,,,,,,,,,,,,,,,,,,,,,,,,,,,,,,,,,,,,
1737282806.779194,1737282806.779891,11.000000,0.000000,4322.436035,4349.358887,4266.282227,4323.205078,4354.487305,4367.307617,4379.102539,4556.282227,4545.128418,4555.000000,4493.205078,5623.333496,4276.538574,4241.410156,0.000000,2.000000,37.000000,,,,0.000000,0.000000,0.000000,0.000000,0.000000,0.000000,0.000000,0.000000,0.000000,0.000000,0.000000,0.000000,0.000000,0.000000,0.000000,0.000000,,,,,,,,,,,,,,,,,,,,,,,,,,,,,,,,,,,,,,,,,,,,,,,,,,,,,,,,,,,,,,,,,,,,,,,,,,,,,,,,,,,,,,,,,,,,,,,,,,,,,,,,,,,,,,,,,,,,,,,,,,,,,,,,,
1737282806.787003,1737282806.787799,12.000000,0.000000,4326.025879,4349.358887,4268.205078,4325.128418,4354.487305,4371.153809,4378.077148,4554.487305,4541.794922,4555.128418,4487.307617,5621.794922,4268.846191,4238.333496,0.000000,2.000000,37.000000,,,,0.000000,0.000000,0.000000,0.000000,0.000000,0.000000,0.000000,0.000000,0.000000,0.000000,0.000000,0.000000,0.000000,0.000000,0.000000,0.000000,,,,,,,,,,,,,,,,,3.000000,0.000000,0.661263,-0.748474,0.036743,0.034180,-0.092296,-0.983518,-0.112807,15.060715,-30.721531,15.637399,,,,,,,,,,,,,,,,,,,,,,,,,,,,,,,,0.108721,0.011080,0.031185,0.024386,0.019036,0.037358,0.021711,0.024580,0.026132,0.025668,0.055128,0.033676,0.029316,0.034008,0.022321,0.066183,0.038561,0.018109,0.021616,0.029871,0.029327,0.016260,0.015819,0.013706,0.019728,0.205874,0.086694,0.010153,0.022446,0.028412,0.377336,0.064453,0.023916,0.062701,0.024407,0.040973,0.020475,0.039750,0.027928,0.033407,0.115652,0.056869,0.036338,0.022038,0.023462,0.052420,0.018004,0.023869,0.020386,0.024834,0.112975,0.036375,0.024566,0.017569,0.016835,0.091089,0.035509,0.013811,0.011831,0.021366,1.028059,0.202988,0.067521,0.016352,0.025242,0.756881,0.152382,0.053309,0.041438,0.023280
1737282806.794811,1737282806.795607,13.000000,0.000000,4322.307617,4346.025879,4267.436035,4322.307617,4353.333496,4373.717773,4384.615234,4552.436035,4538.333496,4553.461426,4483.077148,5616.410156,4266.025879,4229.102539,0.000000,2.000000,37.000000,,,,0.000000,0.000000,0.000000,0.000000,0.000000,0.000000,0.000000,0.000000,0.000000,0.000000,0.000000,0.000000,0.000000,0.000000,0.000000,0.000000,,,,,,,,,,,,,,,,,,,,,,,,,,,,,,,,,,,,,,,,,,,,,,,,,,,,,,,,,,,,,,,,,,,,,,,,,,,,,,,,,,,,,,,,,,,,,,,,,,,,,,,,,,,,,,,,,,,,,,,,,,,,,,,,,
1737282806.802619,1737282806.803515,14.000000,0.000000,4321.794922,4348.717773,4272.051270,4325.512695,4354.871582,4371.922852,4381.794922,4552.179688,4538.974121,4553.205078,4488.974121,5623.589844,4275.128418,4236.410156,0.000000,2.000000,37.000000,,,,0.000000,0.000000,0.000000,0.000000,0.000000,0.000000,0.000000,0.000000,0.000000,0.000000,0.000000,0.000000,0.000000,0.000000,0.000000,0.000000,,,,,,,,,,,,,,,,,,,,,,,,,,,,,,,,,,,,,,,,,,,,,,,,,,,,,,,,,,,,,,,,,,,,,,,,,,,,,,,,,,,,,,,,,,,,,,,,,,,,,,,,,,,,,,,,,,,,,,,,,,,,,,,,,
1737282806.810427,1737282806.811323,15.000000,0.000000,4320.512695,4348.205078,4267.692383,4324.871582,4356.666504,4368.717773,4378.205078,4552.436035,4541.922852,4553.974121,4488.205078,5618.974121,4273.333496,4233.077148,0.000000,2.000000,37.000000,,,,0.000000,0.000000,0.000000,0.000000,0.000000,0.000000,0.000000,0.000000,0.000000,0.000000,0.000000,0.000000,0.000000,0.000000,0.000000,0.000000,,,,,,,,,,,,,,,,,,,,,,,,,,,,,,,,,,,,,,,,,,,,,,,,,,,,,,,,,,,,,,,,,,,,,,,,,,,,,,,,,,,,,,,,,,,,,,,,,,,,,,,,,,,,,,,,,,,,,,,,,,,,,,,,,
1737282806.818235,1737282806.819231,16.000000,0.000000,4323.589844,4348.333496,4268.461426,4323.077148,4357.436035,4369.230957,4376.922852,4552.563965,4544.230957,4553.846191,4487.051270,5619.358887,4270.641113,4235.769043,0.000000,2.000000,37.000000,,,,0.000000,0.000000,0.000000,0.000000,0.000000,0.000000,0.000000,0.000000,0.000000,0.000000,0.000000,0.000000,0.000000,0.000000,0.000000,0.000000,,,,,,,,,,,,,,,,,4.000000,0.000000,0.661193,-0.748535,0.036804,0.034119,-0.108412,-0.985472,-0.120132,15.104644,-30.949377,15.606992,,,,,,,,,,,,,,,,,,,,,,,,,,,,,,,,,,,,,,,,,,,,,,,,,,,,,,,,,,,,,,,,,,,,,,,,,,,,,,,,,,,,,,,,,,,,,,,,,,,,,
1737282806.826043,1737282806.827039,17.000000,0.000000,4327.179688,4348.461426,4270.769043,4323.846191,4355.384766,4371.153809,4376.666504,4552.820313,4543.333496,4554.487305,4489.871582,5626.666504,4277.179688,4247.563965,0.000000,2.000000,37.000000,,,,0.000000,0.000000,0.000000,0.000000,0.000000,0.000000,0.000000,0.000000,0.000000,0.000000,0.000000,0.000000,0.000000,0.000000,0.000000,0.000000,,,,,,,,,,,,,,,,,,,,,,,,,,,,,,,,,,,,,,,,,,,,,,,,,,,,,,,,,,,,,,,,,,,,,,,,,,,,,,,,,,,,,,,,,,,,,,,,,,,,,,,,,,,,,,,,,,,,,,,,,,,,,,,,,
1737282806.833851,1737282806.834747,18.000000,0.000000,4324.615234,4345.769043,4264.743652,4324.102539,4353.461426,4367.179688,4375.256348,4552.692383,4541.794922,4556.922852,4488.717773,5620.128418,4283.205078,4245.897461,0.000000,2.000000,37.000000,,,,0.000000,0.000000,0.000000,0.000000,0.000000,0.000000,0.000000,0.000000,0.000000,0.000000,0.000000,0.000000,0.000000,0.000000,0.000000,0.000000,,,,,,,,,,,,,,,,,,,,,,,,,,,,,,,,,,,,,,,,,,,,,,,,,,,,,,,,,,,,,,,,,,,,,,,,,,,,,,,,,,,,,,,,,,,,,,,,,,,,,,,,,,,,,,,,,,,,,,,,,,,,,,,,,
1737282806.841659,1737282806.842555,19.000000,0.000000,4328.717773,4350.512695,4271.282227,4326.538574,4354.615234,4361.666504,4365.384766,4551.538574,4544.358887,4558.205078,4492.051270,5624.230957,4291.538574,4252.051270,0.000000,2.000000,37.000000,,,,0.000000,0.000000,0.000000,0.000000,0.000000,0.000000,0.000000,0.000000,0.000000,0.000000,0.000000,0.000000,0.000000,0.000000,0.000000,0.000000,,,,,,,,,,,,,,,,,,,,,,,,,,,,,,,,,,,,,,,,,,,,,,,,,,,,,,,,,,,,,,,,,,,,,,,,,,,,,,,,,,,,,,,,,,,,,,,,,,,,,,,,,,,,,,,,,,,,,,,,,,,,,,,,,
1737282806.849467,1737282806.850263,20.000000,0.000000,4330.384766,4351.025879,4271.666504,4324.743652,4354.743652,4364.102539,4367.051270,4552.563965,4547.051270,4555.769043,4492.179688,5626.025879,4292.179688,4254.358887,0.000000,2.000000,37.000000,,,,0.000000,0.000000,0.000000,0.000000,0.000000,0.000000,0.000000,0.000000,0.000000,0.000000,0.000000,0.000000,0.000000,0.000000,0.000000,0.000000,,,,,,,,,,,,,,,,,5.000000,0.000000,0.661193,-0.748535,0.036743,0.034180,-0.101087,-0.995727,-0.119155,15.160846,-30.954439,15.762959,,,,,,,,,,,,,,,,,,,,,,,,,,,,,,,,,,,,,,,,,,,,,,,,,,,,,,,,,,,,,,,,,,,,,,,,,,,,,,,,,,,,,,,,,,,,,,,,,,,,,
1737282806.857275,1737282806.858071,21.000000,0.000000,4328.846191,4349.230957,4268.717773,4322.948730,4354.358887,4363.717773,4368.205078,4552.948730,4544.871582,4554.487305,4494.615234,5624.615234,4293.717773,4258.333496,0.000000,2.000000,37.000000,,,,0.000000,0.000000,0.000000,0.000000,0.000000,0.000000,0.000000,0.000000,0.000000,0.000000,0.000000,0.000000,0.000000,0.000000,0.000000,0.000000,,,,,,,,,,,,,,,,,,,,,,,,,,,,,,,,,,,,,,,,,,,,,,,,,,,,,,,,,,,,,,,,,,,,,,,,,,,,,,,,,,,,,,,,,,,,,,,,,,,,,,,,,,,,,,,,,,,,,,,,,,,,,,,,,
1737282806.865084,1737282806.865779,22.000000,0.000000,4329.358887,4350.128418,4272.179688,4321.666504,4354.102539,4356.922852,4362.307617,4551.666504,4545.512695,4557.436035,4498.717773,5632.307617,4301.410156,4262.948730,0.000000,2.000000,37.000000,,,,0.000000,0.000000,0.000000,0.000000,0.000000,0.000000,0.000000,0.000000,0.000000,0.000000,0.000000,0.000000,0.000000,0.000000,0.000000,0.000000,,,,,,,,,,,,,,,,,,,,,,,,,,,,,,,,,,,,,,,,,,,,,,,,,,,,,,,,,,,,,,,,,,,,,,,,,,,,,,,,,,,,,,,,,,,,,,,,,,,,,,,,,,,,,,,,,,,,,,,,,,,,,,,,,
1737282806.872892,1737282806.873587,23.000000,0.000000,4329.615234,4348.205078,4266.922852,4316.538574,4353.846191,4358.846191,4365.769043,4551.794922,4550.769043,4556.666504,4493.461426,5628.589844,4300.897461,4255.769043,0.000000,2.000000,37.000000,,,,0.000000,0.000000,0.000000,0.000000,0.000000,0.000000,0.000000,0.000000,0.000000,0.000000,0.000000,0.000000,0.000000,0.000000,0.000000,0.000000,,,,,,,,,,,,,,,,,,,,,,,,,,,,,,,,,,,,,,,,,,,,,,,,,,,,,,,,,,,,,,,,,,,,,,,,,,,,,,,,,,,,,,,,,,,,,,,,,,,,,,,,,,,,,,,,,,,,,,,,,,,,,,,,,
1737282806.880700,1737282806.881295,24.000000,0.000000,4333.589844,4350.384766,4265.128418,4318.717773,4352.948730,4361.153809,4363.077148,4551.025879,4550.256348,4555.000000,4495.897461,5629.743652,4303.717773,4266.666504,0.000000,2.000000,37.000000,,,,0.000000,0.000000,0.000000,0.000000,0.000000,0.000000,0.000000,0.000000,0.000000,0.000000,0.000000,0.000000,0.000000,0.000000,0.000000,0.000000,,,,,,,,,,,,,,,,,6.000000,0.000000,0.661190,-0.748535,0.036804,0.034180,-0.094738,-0.983030,-0.116713,15.211428,-30.908997,15.703330,,,,,,,,,,,,,,,,,,,,,,,,,,,,,,,,,,,,,,,,,,,,,,,,,,,,,,,,,,,,,,,,,,,,,,,,,,,,,,,,,,,,,,,,,,,,,,,,,,,,,
1737282806.888508,1737282806.889103,25.000000,0.000000,4330.897461,4350.641113,4264.743652,4318.974121,4351.666504,4357.179688,4361.025879,4553.846191,4547.563965,4557.436035,4499.102539,5630.897461,4305.000000,4268.589844,0.000000,2.000000,37.000000,,,,0.000000,0.000000,0.000000,0.000000,0.000000,0.000000,0.000000,0.000000,0.000000,0.000000,0.000000,0.000000,0.000000,0.000000,0.000000,0.000000,,,,,,,,,,,,,,,,,,,,,,,,,,,,,,,,,,,,,,,,,,,,,,,,,,,,,,,,,,,,,,,,,,,,,,,,,,,,,,,,,,,,,,,,,,,,,,,,,,,,,,,,,,,,,,,,,,,,,,,,,,,,,,,,,
1737282806.896316,1737282806.896811,26.000000,0.000000,4329.230957,4349.102539,4267.948730,4317.307617,4350.641113,4357.692383,4361.410156,4555.384766,4548.461426,4559.358887,4496.025879,5626.922852,4304.871582,4261.282227,0.000000,2.000000,37.000000,,,,0.000000,0.000000,0.000000,0.000000,0.000000,0.000000,0.000000,0.000000,0.000000,0.000000,0.000000,0.000000,0.000000,0.000000,0.000000,0.000000,,,,,,,,,,,,,,,,,,,,,,,,,,,,,,,,,,,,,,,,,,,,,,,,,,,,,,,,,,,,,,,,,,,,,,,,,,,,,,,,,,,,,,,,,,,,,,,,,,,,,,,,,,,,,,,,,,,,,,,,,,,,,,,,,
1737282806.904124,1737282806.904619,27.000000,0.000000,4333.846191,4351.666504,4271.410156,4321.153809,4350.641113,4359.615234,4357.051270,4551.922852,4549.358887,4558.205078,4496.538574,5631.282227,4309.615234,4268.846191,0.000000,2.000000,37.000000,,,,0.000000,0.000000,0.000000,0.000000,0.000000,0.000000,0.000000,0.000000,0.000000,0.000000,0.000000,0.000000,0.000000,0.000000,0.000000,0.000000,,,,,,,,,,,,,,,,,,,,,,,,,,,,,,,,,,,,,,,,,,,,,,,,,,,,,,,,,,,,,,,,,,,,,,,,,,,,,,,,,,,,,,,,,,,,,,,,,,,,,,,,,,,,,,,,,,,,,,,,,,,,,,,,,
1737282806.911932,1737282806.912327,28.000000,0.000000,4329.871582,4352.307617,4263.333496,4320.128418,4352.692383,4358.974121,4361.025879,4551.922852,4548.846191,4558.846191,4494.743652,5630.641113,4306.282227,4262.307617,0.000000,2.000000,37.000000,,,,0.000000,0.000000,0.000000,0.000000,0.000000,0.000000,0.000000,0.000000,0.000000,0.000000,0.000000,0.000000,0.000000,0.000000,0.000000,0.000000,,,,,,,,,,,,,,,,,7.000000,0.000000,0.661187,-0.748535,0.036804,0.034241,-0.098645,-0.976193,-0.125015,15.240285,-30.801430,15.749663,,,,,,,,,,,,,,,,,,,,,,,,,,,,,,,,0.128989,0.011897,0.027993,0.022705,0.017815,0.045060,0.023374,0.023630,0.027681,0.029516,0.047270,0.031638,0.033363,0.037160,0.023758,0.072520,0.038313,0.018690,0.020932,0.027584,0.029815,0.017611,0.017744,0.016467,0.021461,0.183792,0.071986,0.012682,0.019155,0.029520,0.414049,0.059606,0.017392,0.054015,0.025229,0.051793,0.020398,0.041252,0.030247,0.031036,0.121339,0.061771,0.035822,0.021166,0.024760,0.047129,0.017978,0.025656,0.026269,0.031633,0.107781,0.037469,0.028853,0.016592,0.015923,0.095247,0.041555,0.016169,0.012347,0.024801,1.039341,0.172264,0.060967,0.019561,0.027157,0.792638,0.117729,0.071835,0.052470,0.026315
1737282806.919740,1737282806.920135,29.000000,0.000000,4328.717773,4353.205078,4268.589844,4321.410156,4353.077148,4358.974121,4361.538574,4552.307617,4549.615234,4561.794922,4497.436035,5633.077148,4307.307617,4263.589844,0.000000,2.000000,37.000000,,,,0.000000,0.000000,0.000000,0.000000,0.000000,0.000000,0.000000,0.000000,0.000000,0.000000,0.000000,0.000000,0.000000,0.000000,0.000000,0.000000,,,,,,,,,,,,,,,,,,,,,,,,,,,,,,,,,,,,,,,,,,,,,,,,,,,,,,,,,,,,,,,,,,,,,,,,,,,,,,,,,,,,,,,,,,,,,,,,,,,,,,,,,,,,,,,,,,,,,,,,,,,,,,,,,
1737282806.927548,1737282806.927843,30.000000,0.000000,4329.871582,4352.051270,4273.717773,4323.333496,4350.769043,4361.410156,4358.077148,4551.922852,4551.922852,4558.205078,4498.717773,5630.128418,4308.077148,4268.077148,0.000000,2.000000,37.000000,,,,0.000000,0.000000,0.000000,0.000000,0.000000,0.000000,0.000000,0.000000,0.000000,0.000000,0.000000,0.000000,0.000000,0.000000,0.000000,0.000000,,,,,,,,,,,,,,,,,,,,,,,,,,,,,,,,,,,,,,,,,,,,,,,,,,,,,,,,,,,,,,,,,,,,,,,,,,,,,,,,,,,,,,,,,,,,,,,,,,,,,,,,,,,,,,,,,,,,,,,,,,,,,,,,,
1737282806.935356,1737282806.935751,31.000000,0.000000,4330.384766,4352.307617,4267.563965,4319.487305,4351.282227,4360.000000,4361.282227,4553.333496,4549.615234,4554.358887,4496.153809,5625.897461,4305.256348,4263.589844,0.000000,2.000000,37.000000,,,,0.000000,0.000000,0.000000,0.000000,0.000000,0.000000,0.000000,0.000000,0.000000,0.000000,0.000000,0.000000,0.000000,0.000000,0.000000,0.000000,,,,,,,,,,,,,,,,,,,,,,,,,,,,,,,,,,,,,,,,,,,,,,,,,,,,,,,,,,,,,,,,,,,,,,,,,,,,,,,,,,,,,,,,,,,,,,,,,,,,,,,,,,,,,,,,,,,,,,,,,,,,,,,,,
1737282806.943164,1737282806.943559,32.000000,0.000000,4334.487305,4353.974121,4270.769043,4318.846191,4354.358887,4355.128418,4360.128418,4551.282227,4548.974121,4556.922852,4498.717773,5634.358887,4307.436035,4265.897461,0.000000,2.000000,37.000000,,,,0.000000,0.000000,0.000000,0.000000,0.000000,0.000000,0.000000,0.000000,0.000000,0.000000,0.000000,0.000000,0.000000,0.000000,0.000000,0.000000,,,,,,,,,,,,,,,,,8.000000,0.000000,0.661256,-0.748474,0.036804,0.034241,-0.098157,-0.987914,-0.113783,15.249590,-30.821287,15.941364,,,,,,,,,,,,,,,,,,,,,,,,,,,,,,,,,,,,,,,,,,,,,,,,,,,,,,,,,,,,,,,,,,,,,,,,,,,,,,,,,,,,,,,,,,,,,,,,,,,,,
1737282806.950972,1737282806.951467,33.000000,0.000000,4330.384766,4347.948730,4268.846191,4319.358887,4353.846191,4358.589844,4359.487305,4549.615234,4551.922852,4556.153809,4496.025879,5632.051270,4301.025879,4259.615234,0.000000,2.000000,37.000000,,,,0.000000,0.000000,0.000000,0.000000,0.000000,0.000000,0.000000,0.000000,0.000000,0.000000,0.000000,0.000000,0.000000,0.000000,0.000000,0.000000,,,,,,,,,,,,,,,,,,,,,,,,,,,,,,,,,,,,,,,,,,,,,,,,,,,,,,,,,,,,,,,,,,,,,,,,,,,,,,,,,,,,,,,,,,,,,,,,,,,,,,,,,,,,,,,,,,,,,,,,,,,,,,,,,
1737282806.958781,1737282806.959276,34.000000,0.000000,4330.256348,4350.000000,4267.179688,4320.512695,4353.589844,4361.794922,4360.000000,4549.487305,4549.358887,4554.230957,4495.000000,5630.384766,4301.538574,4264.871582,0.000000,2.000000,37.000000,,,,0.000000,0.000000,0.000000,0.000000,0.000000,0.000000,0.000000,0.000000,0.000000,0.000000,0.000000,0.000000,0.000000,0.000000,0.000000,0.000000,,,,,,,,,,,,,,,,,,,,,,,,,,,,,,,,,,,,,,,,,,,,,,,,,,,,,,,,,,,,,,,,,,,,,,,,,,,,,,,,,,,,,,,,,,,,,,,,,,,,,,,,,,,,,,,,,,,,,,,,,,,,,,,,,
1737282806.966589,1737282806.967184,35.000000,0.000000,4332.692383,4354.358887,4268.717773,4319.871582,4354.871582,4358.717773,4362.948730,4552.948730,4547.051270,4556.666504,4494.102539,5627.820313,4306.410156,4266.666504,0.000000,2.000000,37.000000,,,,0.000000,0.000000,0.000000,0.000000,0.000000,0.000000,0.000000,0.000000,0.000000,0.000000,0.000000,0.000000,0.000000,0.000000,0.000000,0.000000,,,,,,,,,,,,,,,,,,,,,,,,,,,,,,,,,,,,,,,,,,,,,,,,,,,,,,,,,,,,,,,,,,,,,,,,,,,,,,,,,,,,,,,,,,,,,,,,,,,,,,,,,,,,,,,,,,,,,,,,,,,,,,,,,
1737282806.974397,1737282806.974992,36.000000,0.000000,4329.871582,4349.230957,4265.384766,4318.974121,4354.102539,4357.948730,4366.410156,4554.615234,4549.487305,4558.461426,4490.897461,5624.487305,4302.436035,4257.179688,0.000000,2.000000,37.000000,,,,0.000000,0.000000,0.000000,0.000000,0.000000,0.000000,0.000000,0.000000,0.000000,0.000000,0.000000,0.000000,0.000000,0.000000,0.000000,0.000000,,,,,,,,,,,,,,,,,9.000000,0.000000,0.661249,-0.748474,0.036865,0.034302,-0.098157,-0.996215,-0.130387,15.207964,-30.739159,15.947227,,,,,,,,,,,,,,,,,,,,,,,,,,,,,,,,,,,,,,,,,,,,,,,,,,,,,,,,,,,,,,,,,,,,,,,,,,,,,,,,,,,,,,,,,,,,,,,,,,,,,
1737282806.982205,1737282806.982900,37.000000,0.000000,4332.563965,4349.487305,4268.077148,4322.563965,4353.589844,4357.436035,4362.307617,4550.128418,4549.358887,4558.333496,4494.102539,5633.205078,4303.205078,4264.871582,0.000000,2.000000,37.000000,,,,0.000000,0.000000,0.000000,0.000000,0.000000,0.000000,0.000000,0.000000,0.000000,0.000000,0.000000,0.000000,0.000000,0.000000,0.000000,0.000000,,,,,,,,,,,,,,,,,,,,,,,,,,,,,,,,,,,,,,,,,,,,,,,,,,,,,,,,,,,,,,,,,,,,,,,,,,,,,,,,,,,,,,,,,,,,,,,,,,,,,,,,,,,,,,,,,,,,,,,,,,,,,,,,,
1737282806.990013,1737282806.990708,38.000000,0.000000,4329.871582,4348.461426,4264.615234,4320.897461,4352.948730,4355.512695,4362.820313,4552.563965,4548.846191,4556.282227,4493.974121,5628.333496,4300.769043,4262.179688,0.000000,2.000000,37.000000,,,,0.000000,0.000000,0.000000,0.000000,0.000000,0.000000,0.000000,0.000000,0.000000,0.000000,0.000000,0.000000,0.000000,0.000000,0.000000,0.000000,,,,,,,,,,,,,,,,,,,,,,,,,,,,,,,,,,,,,,,,,,,,,,,,,,,,,,,,,,,,,,,,,,,,,,,,,,,,,,,,,,,,,,,,,,,,,,,,,,,,,,,,,,,,,,,,,,,,,,,,,,,,,,,,,
1737282806.997821,1737282806.998616,39.000000,0.000000,4328.974121,4347.179688,4264.871582,4319.358887,4353.205078,4356.153809,4361.666504,4555.641113,4548.846191,4554.102539,4494.230957,5627.563965,4302.563965,4263.589844,0.000000,2.000000,37.000000,,,,0.000000,0.000000,0.000000,0.000000,0.000000,0.000000,0.000000,0.000000,0.000000,0.000000,0.000000,0.000000,0.000000,0.000000,0.000000,0.000000,,,,,,,,,,,,,,,,,,,,,,,,,,,,,,,,,,,,,,,,,,,,,,,,,,,,,,,,,,,,,,,,,,,,,,,,,,,,,,,,,,,,,,,,,,,,,,,,,,,,,,,,,,,,,,,,,,,,,,,,,,,,,,,,,
1737282807.005629,1737282807.006424,40.000000,0.000000,4332.051270,4351.025879,4269.230957,4319.102539,4353.077148,4356.922852,4359.871582,4552.051270,4548.333496,4553.846191,4496.282227,5633.077148,4307.820313,4270.000000,0.000000,2.000000,37.000000,,,,0.000000,0.000000,0.000000,0.000000,0.000000,0.000000,0.000000,0.000000,0.000000,0.000000,0.000000,0.000000,0.000000,0.000000,0.000000,0.000000,,,,,,,,,,,,,,,,,10.000000,0.000000,0.661246,-0.748474,0.036865,0.034363,-0.087901,-0.976193,-0.114760,15.203835,-30.781908,15.935838,,,,,,,,,,,,,,,,,,,,,,,,,,,,,,,,,,,,,,,,,,,,,,,,,,,,,,,,,,,,,,,,,,,,,,,,,,,,,,,,,,,,,,,,,,,,,,,,,,,,,
1737282807.013437,1737282807.014331,41.000000,0.000000,4328.717773,4349.487305,4263.461426,4317.820313,4351.153809,4354.871582,4364.743652,4551.666504,4550.769043,4555.641113,4495.512695,5624.358887,4305.000000,4260.000000,0.000000,2.000000,37.000000,,,,0.000000,0.000000,0.000000,0.000000,0.000000,0.000000,0.000000,0.000000,0.000000,0.000000,0.000000,0.000000,0.000000,0.000000,0.000000,0.000000,,,,,,,,,,,,,,,,,,,,,,,,,,,,,,,,,,,,,,,,,,,,,,,,,,,,,,,,,,,,,,,,,,,,,,,,,,,,,,,,,,,,,,,,,,,,,,,,,,,,,,,,,,,,,,,,,,,,,,,,,,,,,,,,,
1737282807.021245,1737282807.022139,42.000000,0.000000,4331.025879,4349.743652,4266.282227,4322.051270,4351.922852,4354.230957,4360.128418,4553.589844,4551.153809,4556.794922,4498.717773,5628.461426,4308.077148,4266.025879,0.000000,2.000000,37.000000,,,,0.000000,0.000000,0.000000,0.000000,0.000000,0.000000,0.000000,0.000000,0.000000,0.000000,0.000000,0.000000,0.000000,0.000000,0.000000,0.000000,,,,,,,,,,,,,,,,,,,,,,,,,,,,,,,,,,,,,,,,,,,,,,,,,,,,,,,,,,,,,,,,,,,,,,,,,,,,,,,,,,,,,,,,,,,,,,,,,,,,,,,,,,,,,,,,,,,,,,,,,,,,,,,,,
1737282807.029053,1737282807.030047,43.000000,0.000000,4330.897461,4350.641113,4267.436035,4320.897461,4353.846191,4358.333496,4358.589844,4554.743652,4548.333496,4557.307617,4496.922852,5634.358887,4307.051270,4268.461426,0.000000,2.000000,37.000000,,,,0.000000,0.000000,0.000000,0.000000,0.000000,0.000000,0.000000,0.000000,0.000000,0.000000,0.000000,0.000000,0.000000,0.000000,0.000000,0.000000,,,,,,,,,,,,,,,,,,,,,,,,,,,,,,,,,,,,,,,,,,,,,,,,,,,,,,,,,,,,,,,,,,,,,,,,,,,,,,,,,,,,,,,,,,,,,,,,,,,,,,,,,,,,,,,,,,,,,,,,,,,,,,,,,
1737282807.036862,1737282807.037856,44.000000,0.000000,4330.128418,4351.025879,4268.077148,4319.743652,4353.205078,4357.436035,4359.743652,4553.205078,4548.589844,4557.948730,4495.256348,5632.051270,4305.641113,4266.922852,0.000000,2.000000,37.000000,,,,0.000000,0.000000,0.000000,0.000000,0.000000,0.000000,0.000000,0.000000,0.000000,0.000000,0.000000,0.000000,0.000000,0.000000,0.000000,0.000000,1.000000,0.000000,0.000000,0.000000,0.000000,0.000000,0.000000,0.000000,0.000000,0.000000,0.000000,0.000000,0.000000,0.000000,0.000000,0.000000,11.000000,0.000000,0.661312,-0.748413,0.036865,0.034424,-0.101575,-0.989867,-0.124527,15.166784,-30.803719,15.775588,,,,,,,,,,,,,,,,,,,,,,,,,,,,,,,,0.176760,0.012798,0.028292,0.021821,0.016969,0.055242,0.026484,0.023715,0.027067,0.032935,0.038975,0.027961,0.035814,0.037936,0.024487,0.087446,0.039719,0.018942,0.019014,0.024416,0.031364,0.019396,0.020746,0.020035,0.022831,0.237139,0.061512,0.017751,0.017785,0.029139,0.606870,0.062405,0.016897,0.047158,0.026407,0.061760,0.020174,0.040776,0.032086,0.027888,0.153743,0.067911,0.035083,0.019761,0.026720,0.045949,0.017347,0.029687,0.034729,0.038094,0.148659,0.040922,0.035860,0.015431,0.017094,0.136596,0.050387,0.020456,0.012863,0.028797,1.495976,0.183333,0.063901,0.026503,0.029247,1.076299,0.112118,0.096709,0.063420,0.030638
1737282807.044670,1737282807.045564,45.000000,0.000000,4333.205078,4348.077148,4272.436035,4321.153809,4352.051270,4353.974121,4360.641113,4552.436035,4549.358887,4558.333496,4497.820313,5631.025879,4308.333496,4273.205078,0.000000,2.000000,37.000000,,,,0.000000,0.000000,0.000000,0.000000,0.000000,0.000000,0.000000,0.000000,0.000000,0.000000,0.000000,0.000000,0.000000,0.000000,0.000000,0.000000,,,,,,,,,,,,,,,,,,,,,,,,,,,,,,,,,,,,,,,,,,,,,,,,,,,,,,,,,,,,,,,,,,,,,,,,,,,,,,,,,,,,,,,,,,,,,,,,,,,,,,,,,,,,,,,,,,,,,,,,,,,,,,,,,
1737282807.052478,1737282807.053372,46.000000,0.000000,4329.358887,4345.128418,4265.384766,4316.922852,4352.051270,4358.717773,4366.922852,4555.000000,4548.846191,4555.897461,4495.384766,5625.128418,4304.102539,4265.512695,0.000000,2.000000,37.000000,,,,0.000000,0.000000,0.000000,0.000000,0.000000,0.000000,0.000000,0.000000,0.000000,0.000000,0.000000,0.000000,0.000000,0.000000,0.000000,0.000000,,,,,,,,,,,,,,,,,,,,,,,,,,,,,,,,,,,,,,,,,,,,,,,,,,,,,,,,,,,,,,,,,,,,,,,,,,,,,,,,,,,,,,,,,,,,,,,,,,,,,,,,,,,,,,,,,,,,,,,,,,,,,,,,,
1737282807.060286,1737282807.061080,47.000000,0.000000,4329.743652,4353.589844,4265.512695,4320.769043,4353.077148,4360.384766,4360.897461,4553.846191,4549.102539,4552.948730,4498.333496,5631.025879,4307.436035,4268.333496,0.000000,2.000000,37.000000,,,,0.000000,0.000000,0.000000,0.000000,0.000000,0.000000,0.000000,0.000000,0.000000,0.000000,0.000000,0.000000,0.000000,0.000000,0.000000,0.000000,,,,,,,,,,,,,,,,,,,,,,,,,,,,,,,,,,,,,,,,,,,,,,,,,,,,,,,,,,,,,,,,,,,,,,,,,,,,,,,,,,,,,,,,,,,,,,,,,,,,,,,,,,,,,,,,,,,,,,,,,,,,,,,,,
1737282807.068094,1737282807.068888,48.000000,0.000000,4330.384766,4354.615234,4266.282227,4324.487305,4354.358887,4356.666504,4358.077148,4549.743652,4550.769043,4555.128418,4497.820313,5633.846191,4306.025879,4268.717773,0.000000,2.000000,37.000000,,,,0.000000,0.000000,0.000000,0.000000,0.000000,0.000000,0.000000,0.000000,0.000000,0.000000,0.000000,0.000000,0.000000,0.000000,0.000000,0.000000,,,,,,,,,,,,,,,,,12.000000,0.000000,0.661319,-0.748413,0.036865,0.034302,-0.097668,-0.981565,-0.118667,15.216773,-30.723347,15.748029,,,,,,,,,,,,,,,,,,,,,,,,,,,,,,,,,,,,,,,,,,,,,,,,,,,,,,,,,,,,,,,,,,,,,,,,,,,,,,,,,,,,,,,,,,,,,,,,,,,,,
1737282807.075902,1737282807.076596,49.000000,0.000000,4331.410156,4348.974121,4263.846191,4320.512695,4353.205078,4358.205078,4363.205078,4550.384766,4550.897461,4558.717773,4493.589844,5629.487305,4301.025879,4261.025879,0.000000,2.000000,37.000000,,,,0.000000,0.000000,0.000000,0.000000,0.000000,0.000000,0.000000,0.000000,0.000000,0.000000,0.000000,0.000000,0.000000,0.000000,0.000000,0.000000,,,,,,,,,,,,,,,,,,,,,,,,,,,,,,,,,,,,,,,,,,,,,,,,,,,,,,,,,,,,,,,,,,,,,,,,,,,,,,,,,,,,,,,,,,,,,,,,,,,,,,,,,,,,,,,,,,,,,,,,,,,,,,,,,
1737282807.083710,1737282807.084404,50.000000,0.000000,4333.846191,4350.512695,4267.179688,4319.487305,4352.179688,4359.743652,4360.641113,4553.077148,4549.743652,4557.307617,4500.000000,5635.256348,4307.051270,4265.128418,0.000000,2.000000,37.000000,,,,0.000000,0.000000,0.000000,0.000000,0.000000,0.000000,0.000000,0.000000,0.000000,0.000000,0.000000,0.000000,0.000000,0.000000,0.000000,0.000000,,,,,,,,,,,,,,,,,,,,,,,,,,,,,,,,,,,,,,,,,,,,,,,,,,,,,,,,,,,,,,,,,,,,,,,,,,,,,,,,,,,,,,,,,,,,,,,,,,,,,,,,,,,,,,,,,,,,,,,,,,,,,,,,,
1737282807.091518,1737282807.092112,51.000000,0.000000,4328.846191,4350.128418,4263.461426,4318.333496,4351.922852,4357.179688,4362.563965,4554.743652,4548.846191,4554.358887,4500.512695,5632.179688,4305.897461,4258.974121,0.000000,2.000000,37.000000,,,,0.000000,0.000000,0.000000,0.000000,0.000000,0.000000,0.000000,0.000000,0.000000,0.000000,0.000000,0.000000,0.000000,0.000000,0.000000,0.000000,,,,,,,,,,,,,,,,,,,,,,,,,,,,,,,,,,,,,,,,,,,,,,,,,,,,,,,,,,,,,,,,,,,,,,,,,,,,,,,,,,,,,,,,,,,,,,,,,,,,,,,,,,,,,,,,,,,,,,,,,,,,,,,,,
1737282807.099326,1737282807.100020,52.000000,0.000000,4330.897461,4349.871582,4264.871582,4320.000000,4351.410156,4355.769043,4361.666504,4552.436035,4548.077148,4556.025879,4496.922852,5629.871582,4307.179688,4262.307617,0.000000,2.000000,37.000000,,,,0.000000,0.000000,0.000000,0.000000,0.000000,0.000000,0.000000,0.000000,0.000000,0.000000,0.000000,0.000000,0.000000,0.000000,0.000000,0.000000,,,,,,,,,,,,,,,,,13.000000,0.000000,0.661388,-0.748352,0.036865,0.034302,-0.101087,-0.977658,-0.121109,15.178429,-30.884344,15.723226,,,,,,,,,,,,,,,,,,,,,,,,,,,,,,,,,,,,,,,,,,,,,,,,,,,,,,,,,,,,,,,,,,,,,,,,,,,,,,,,,,,,,,,,,,,,,,,,,,,,,
1737282807.107134,1737282807.107828,53.000000,0.000000,4331.922852,4347.692383,4266.153809,4319.487305,4351.666504,4357.436035,4360.256348,4550.512695,4549.358887,4558.205078,4496.153809,5630.897461,4311.153809,4266.153809,0.000000,2.000000,37.000000,,,,0.000000,0.000000,0.000000,0.000000,0.000000,0.000000,0.000000,0.000000,0.000000,0.000000,0.000000,0.000000,0.000000,0.000000,0.000000,0.000000,,,,,,,,,,,,,,,,,,,,,,,,,,,,,,,,,,,,,,,,,,,,,,,,,,,,,,,,,,,,,,,,,,,,,,,,,,,,,,,,,,,,,,,,,,,,,,,,,,,,,,,,,,,,,,,,,,,,,,,,,,,,,,,,,
1737282807.114942,1737282807.115736,54.000000,0.000000,4328.589844,4343.333496,4261.666504,4314.615234,4351.922852,4355.897461,4358.846191,4551.410156,4553.077148,4557.820313,4497.307617,5629.230957,4311.282227,4264.487305,0.000000,2.000000,37.000000,,,,0.000000,0.000000,0.000000,0.000000,0.000000,0.000000,0.000000,0.000000,0.000000,0.000000,0.000000,0.000000,0.000000,0.000000,0.000000,0.000000,,,,,,,,,,,,,,,,,,,,,,,,,,,,,,,,,,,,,,,,,,,,,,,,,,,,,,,,,,,,,,,,,,,,,,,,,,,,,,,,,,,,,,,,,,,,,,,,,,,,,,,,,,,,,,,,,,,,,,,,,,,,,,,,,
1737282807.122750,1737282807.123545,55.000000,0.000000,4332.307617,4348.077148,4264.615234,4316.282227,4351.153809,4353.717773,4353.589844,4550.256348,4553.077148,4558.205078,4499.743652,5634.358887,4315.000000,4274.358887,0.000000,2.000000,37.000000,,,,0.000000,0.000000,0.000000,0.000000,0.000000,0.000000,0.000000,0.000000,0.000000,0.000000,0.000000,0.000000,0.000000,0.000000,0.000000,0.000000,,,,,,,,,,,,,,,,,,,,,,,,,,,,,,,,,,,,,,,,,,,,,,,,,,,,,,,,,,,,,,,,,,,,,,,,,,,,,,,,,,,,,,,,,,,,,,,,,,,,,,,,,,,,,,,,,,,,,,,,,,,,,,,,,
1737282807.130559,1737282807.131453,56.000000,0.000000,4330.256348,4352.051270,4261.922852,4317.692383,4351.538574,4356.666504,4356.410156,4551.922852,4552.051270,4558.333496,4495.769043,5630.128418,4311.282227,4267.563965,0.000000,2.000000,37.000000,,,,0.000000,0.000000,0.000000,0.000000,0.000000,0.000000,0.000000,0.000000,0.000000,0.000000,0.000000,0.000000,0.000000,0.000000,0.000000,0.000000,,,,,,,,,,,,,,,,,14.000000,0.000000,0.661456,-0.748291,0.036926,0.034241,-0.107435,-0.973263,-0.119155,15.093919,-30.862577,15.650904,,,,,,,,,,,,,,,,,,,,,,,,,,,,,,,,,,,,,,,,,,,,,,,,,,,,,,,,,,,,,,,,,,,,,,,,,,,,,,,,,,,,,,,,,,,,,,,,,,,,,
1737282807.138367,1737282807.139261,57.000000,0.000000,4332.436035,4349.743652,4263.846191,4318.333496,4353.974121,4355.641113,4355.897461,4552.948730,4553.589844,4556.538574,4499.743652,5631.794922,4315.512695,4267.179688,0.000000,2.000000,37.000000,,,,0.000000,0.000000,0.000000,0.000000,0.000000,0.000000,0.000000,0.000000,0.000000,0.000000,0.000000,0.000000,0.000000,0.000000,0.000000,0.000000,,,,,,,,,,,,,,,,,,,,,,,,,,,,,,,,,,,,,,,,,,,,,,,,,,,,,,,,,,,,,,,,,,,,,,,,,,,,,,,,,,,,,,,,,,,,,,,,,,,,,,,,,,,,,,,,,,,,,,,,,,,,,,,,,
1737282807.146175,1737282807.147169,58.000000,0.000000,4338.717773,4347.563965,4267.051270,4319.487305,4351.666504,4351.794922,4354.230957,4552.179688,4553.205078,4555.641113,4502.692383,5636.410156,4323.077148,4275.769043,0.000000,2.000000,37.000000,,,,0.000000,0.000000,0.000000,0.000000,0.000000,0.000000,0.000000,0.000000,0.000000,0.000000,0.000000,0.000000,0.000000,0.000000,0.000000,0.000000,,,,,,,,,,,,,,,,,,,,,,,,,,,,,,,,,,,,,,,,,,,,,,,,,,,,,,,,,,,,,,,,,,,,,,,,,,,,,,,,,,,,,,,,,,,,,,,,,,,,,,,,,,,,,,,,,,,,,,,,,,,,,,,,,
1737282807.153983,1737282807.154977,59.000000,0.000000,4337.436035,4346.410156,4261.666504,4316.666504,4348.717773,4351.282227,4354.358887,4552.692383,4553.333496,4557.179688,4499.615234,5629.743652,4319.871582,4274.230957,0.000000,2.000000,37.000000,,,,0.000000,0.000000,0.000000,0.000000,0.000000,0.000000,0.000000,0.000000,0.000000,0.000000,0.000000,0.000000,0.000000,0.000000,0.000000,0.000000,,,,,,,,,,,,,,,,,,,,,,,,,,,,,,,,,,,,,,,,,,,,,,,,,,,,,,,,,,,,,,,,,,,,,,,,,,,,,,,,,,,,,,,,,,,,,,,,,,,,,,,,,,,,,,,,,,,,,,,,,,,,,,,,,
1737282807.161791,1737282807.162885,60.000000,0.000000,4338.974121,4351.282227,4266.410156,4317.179688,4351.410156,4351.538574,4347.820313,4553.717773,4555.897461,4557.948730,4505.128418,5635.000000,4324.615234,4283.077148,0.000000,2.000000,37.000000,,,,0.000000,0.000000,0.000000,0.000000,0.000000,0.000000,0.000000,0.000000,0.000000,0.000000,0.000000,0.000000,0.000000,0.000000,0.000000,0.000000,,,,,,,,,,,,,,,,,15.000000,0.000000,0.661391,-0.748352,0.036865,0.034241,-0.109388,-0.980588,-0.125015,15.117861,-31.009653,15.635813,,,,,,,,,,,,,,,,,,,,,,,,,,,,,,,,0.263883,0.015331,0.030801,0.021542,0.016459,0.063699,0.030349,0.025084,0.024481,0.034839,0.030740,0.023160,0.035758,0.035637,0.024322,0.114486,0.043243,0.019550,0.016800,0.021452,0.035989,0.022477,0.025153,0.023591,0.023534,0.367400,0.062002,0.024527,0.019780,0.027735,0.975346,0.082983,0.022120,0.044188,0.027931,0.066405,0.020047,0.039241,0.033349,0.024706,0.212788,0.079392,0.035072,0.018403,0.029305,0.050451,0.016243,0.036038,0.043731,0.042252,0.241897,0.047839,0.043183,0.014864,0.020238,0.220665,0.062167,0.026769,0.013534,0.032368,2.489551,0.270328,0.080678,0.040833,0.031705,1.665798,0.157502,0.124023,0.075173,0.035451
1737282807.169599,1737282807.170693,61.000000,0.000000,4337.436035,4352.179688,4266.410156,4316.410156,4350.000000,4349.102539,4351.794922,4556.282227,4559.102539,4558.461426,4503.333496,5635.256348,4327.820313,4280.769043,0.000000,2.000000,37.000000,,,,0.000000,0.000000,0.000000,0.000000,0.000000,0.000000,0.000000,0.000000,0.000000,0.000000,0.000000,0.000000,0.000000,0.000000,0.000000,0.000000,,,,,,,,,,,,,,,,,,,,,,,,,,,,,,,,,,,,,,,,,,,,,,,,,,,,,,,,,,,,,,,,,,,,,,,,,,,,,,,,,,,,,,,,,,,,,,,,,,,,,,,,,,,,,,,,,,,,,,,,,,,,,,,,,
1737282807.177407,1737282807.178601,62.000000,0.000000,4337.179688,4352.948730,4263.461426,4317.692383,4347.820313,4346.410156,4354.487305,4554.487305,4560.769043,4561.922852,4501.410156,5633.589844,4330.000000,4281.794922,0.000000,2.000000,37.000000,,,,0.000000,0.000000,0.000000,0.000000,0.000000,0.000000,0.000000,0.000000,0.000000,0.000000,0.000000,0.000000,0.000000,0.000000,0.000000,0.000000,,,,,,,,,,,,,,,,,,,,,,,,,,,,,,,,,,,,,,,,,,,,,,,,,,,,,,,,,,,,,,,,,,,,,,,,,,,,,,,,,,,,,,,,,,,,,,,,,,,,,,,,,,,,,,,,,,,,,,,,,,,,,,,,,
1737282807.185215,1737282807.186409,63.000000,0.000000,4339.615234,4353.461426,4266.666504,4317.563965,4348.717773,4347.436035,4347.563965,4552.307617,4558.205078,4561.282227,4507.436035,5640.128418,4334.230957,4291.282227,0.000000,2.000000,37.000000,,,,0.000000,0.000000,0.000000,0.000000,0.000000,0.000000,0.000000,0.000000,0.000000,0.000000,0.000000,0.000000,0.000000,0.000000,0.000000,0.000000,,,,,,,,,,,,,,,,,,,,,,,,,,,,,,,,,,,,,,,,,,,,,,,,,,,,,,,,,,,,,,,,,,,,,,,,,,,,,,,,,,,,,,,,,,,,,,,,,,,,,,,,,,,,,,,,,,,,,,,,,,,,,,,,,
1737282807.193023,1737282807.194317,64.000000,0.000000,4335.384766,4347.948730,4264.358887,4311.922852,4347.820313,4346.282227,4344.230957,4556.025879,4558.846191,4558.333496,4506.666504,5637.179688,4334.230957,4286.410156,0.000000,2.000000,37.000000,,,,0.000000,0.000000,0.000000,0.000000,0.000000,0.000000,0.000000,0.000000,0.000000,0.000000,0.000000,0.000000,0.000000,0.000000,0.000000,0.000000,,,,,,,,,,,,,,,,,16.000000,0.000000,0.661470,-0.748291,0.036743,0.034180,-0.095715,-0.987914,-0.113295,15.172741,-31.142021,15.672232,,,,,,,,,,,,,,,,,,,,,,,,,,,,,,,,,,,,,,,,,,,,,,,,,,,,,,,,,,,,,,,,,,,,,,,,,,,,,,,,,,,,,,,,,,,,,,,,,,,,,
1737282807.200831,1737282807.202125,65.000000,0.000000,4339.358887,4351.538574,4267.692383,4316.794922,4348.333496,4342.179688,4339.102539,4553.589844,4561.666504,4561.153809,4508.974121,5639.102539,4342.948730,4295.000000,0.000000,2.000000,37.000000,,,,0.000000,0.000000,0.000000,0.000000,0.000000,0.000000,0.000000,0.000000,0.000000,0.000000,0.000000,0.000000,0.000000,0.000000,0.000000,0.000000,,,,,,,,,,,,,,,,,,,,,,,,,,,,,,,,,,,,,,,,,,,,,,,,,,,,,,,,,,,,,,,,,,,,,,,,,,,,,,,,,,,,,,,,,,,,,,,,,,,,,,,,,,,,,,,,,,,,,,,,,,,,,,,,,
1737282807.208640,1737282807.209833,66.000000,0.000000,4340.641113,4353.461426,4266.666504,4317.948730,4350.256348,4343.974121,4341.282227,4551.025879,4560.256348,4562.051270,4510.000000,5639.230957,4343.589844,4295.641113,0.000000,2.000000,37.000000,,,,0.000000,0.000000,0.000000,0.000000,0.000000,0.000000,0.000000,0.000000,0.000000,0.000000,0.000000,0.000000,0.000000,0.000000,0.000000,0.000000,,,,,,,,,,,,,,,,,,,,,,,,,,,,,,,,,,,,,,,,,,,,,,,,,,,,,,,,,,,,,,,,,,,,,,,,,,,,,,,,,,,,,,,,,,,,,,,,,,,,,,,,,,,,,,,,,,,,,,,,,,,,,,,,,
1737282807.216447,1737282807.217641,67.000000,0.000000,4335.000000,4351.282227,4261.410156,4310.384766,4349.871582,4346.794922,4343.205078,4557.820313,4559.358887,4560.384766,4506.794922,5638.077148,4338.333496,4287.307617,0.000000,2.000000,37.000000,,,,0.000000,0.000000,0.000000,0.000000,0.000000,0.000000,0.000000,0.000000,0.000000,0.000000,0.000000,0.000000,0.000000,0.000000,0.000000,0.000000,,,,,,,,,,,,,,,,,,,,,,,,,,,,,,,,,,,,,,,,,,,,,,,,,,,,,,,,,,,,,,,,,,,,,,,,,,,,,,,,,,,,,,,,,,,,,,,,,,,,,,,,,,,,,,,,,,,,,,,,,,,,,,,,,
1737282807.224256,1737282807.225349,68.000000,0.000000,4336.666504,4350.641113,4264.230957,4309.230957,4347.436035,4342.948730,4334.743652,4560.000000,4561.538574,4562.820313,4508.077148,5642.051270,4343.333496,4294.102539,0.000000,2.000000,37.000000,,,,0.000000,0.000000,0.000000,0.000000,0.000000,0.000000,0.000000,0.000000,0.000000,0.000000,0.000000,0.000000,0.000000,0.000000,0.000000,0.000000,,,,,,,,,,,,,,,,,17.000000,0.000000,0.661470,-0.748291,0.036682,0.034241,-0.099133,-0.974728,-0.111342,15.172133,-31.094486,15.721675,,,,,,,,,,,,,,,,,,,,,,,,,,,,,,,,,,,,,,,,,,,,,,,,,,,,,,,,,,,,,,,,,,,,,,,,,,,,,,,,,,,,,,,,,,,,,,,,,,,,,
1737282807.232064,1737282807.233157,69.000000,0.000000,4339.487305,4347.948730,4260.897461,4309.871582,4346.025879,4340.000000,4334.487305,4558.589844,4562.692383,4562.948730,4508.205078,5637.307617,4348.077148,4290.641113,0.000000,2.000000,37.000000,,,,0.000000,0.000000,0.000000,0.000000,0.000000,0.000000,0.000000,0.000000,0.000000,0.000000,0.000000,0.000000,0.000000,0.000000,0.000000,0.000000,,,,,,,,,,,,,,,,,,,,,,,,,,,,,,,,,,,,,,,,,,,,,,,,,,,,,,,,,,,,,,,,,,,,,,,,,,,,,,,,,,,,,,,,,,,,,,,,,,,,,,,,,,,,,,,,,,,,,,,,,,,,,,,,,
1737282807.239872,1737282807.240865,70.000000,0.000000,4344.871582,4353.846191,4260.256348,4311.922852,4345.769043,4339.743652,4333.717773,4557.307617,4562.948730,4560.897461,4511.025879,5640.384766,4356.794922,4295.641113,0.000000,2.000000,37.000000,,,,0.000000,0.000000,0.000000,0.000000,0.000000,0.000000,0.000000,0.000000,0.000000,0.000000,0.000000,0.000000,0.000000,0.000000,0.000000,0.000000,,,,,,,,,,,,,,,,,,,,,,,,,,,,,,,,,,,,,,,,,,,,,,,,,,,,,,,,,,,,,,,,,,,,,,,,,,,,,,,,,,,,,,,,,,,,,,,,,,,,,,,,,,,,,,,,,,,,,,,,,,,,,,,,,
1737282807.247680,1737282807.248673,71.000000,0.000000,4343.846191,4356.153809,4260.769043,4308.717773,4344.358887,4337.692383,4330.512695,4556.282227,4563.974121,4562.436035,4511.025879,5640.641113,4362.563965,4301.922852,0.000000,2.000000,37.000000,,,,0.000000,0.000000,0.000000,0.000000,0.000000,0.000000,0.000000,0.000000,0.000000,0.000000,0.000000,0.000000,0.000000,0.000000,0.000000,0.000000,,,,,,,,,,,,,,,,,,,,,,,,,,,,,,,,,,,,,,,,,,,,,,,,,,,,,,,,,,,,,,,,,,,,,,,,,,,,,,,,,,,,,,,,,,,,,,,,,,,,,,,,,,,,,,,,,,,,,,,,,,,,,,,,,
1737282807.255488,1737282807.256381,72.000000,0.000000,4341.538574,4353.205078,4257.436035,4306.025879,4345.256348,4336.666504,4329.615234,4555.512695,4561.538574,4565.769043,4509.743652,5636.794922,4361.666504,4300.897461,0.000000,2.000000,37.000000,,,,0.000000,0.000000,0.000000,0.000000,0.000000,0.000000,0.000000,0.000000,0.000000,0.000000,0.000000,0.000000,0.000000,0.000000,0.000000,0.000000,,,,,,,,,,,,,,,,,18.000000,0.000000,0.661470,-0.748291,0.036682,0.034241,-0.100110,-0.984495,-0.131364,15.204921,-31.185038,15.766174,,,,,,,,,,,,,,,,,,,,,,,,,,,,,,,,,,,,,,,,,,,,,,,,,,,,,,,,,,,,,,,,,,,,,,,,,,,,,,,,,,,,,,,,,,,,,,,,,,,,,
1737282807.263296,1737282807.264189,73.000000,0.000000,4348.333496,4356.794922,4258.333496,4310.256348,4347.820313,4335.384766,4325.256348,4552.948730,4563.461426,4565.384766,4515.512695,5645.512695,4365.641113,4309.230957,0.000000,2.000000,37.000000,,,,0.000000,0.000000,0.000000,0.000000,0.000000,0.000000,0.000000,0.000000,0.000000,0.000000,0.000000,0.000000,0.000000,0.000000,0.000000,0.000000,,,,,,,,,,,,,,,,,,,,,,,,,,,,,,,,,,,,,,,,,,,,,,,,,,,,,,,,,,,,,,,,,,,,,,,,,,,,,,,,,,,,,,,,,,,,,,,,,,,,,,,,,,,,,,,,,,,,,,,,,,,,,,,,,
1737282807.271104,1737282807.271897,74.000000,0.000000,4345.384766,4354.487305,4254.487305,4307.179688,4346.922852,4333.589844,4329.358887,4555.000000,4568.333496,4563.974121,4511.538574,5644.743652,4363.589844,4305.000000,0.000000,2.000000,37.000000,,,,0.000000,0.000000,0.000000,0.000000,0.000000,0.000000,0.000000,0.000000,0.000000,0.000000,0.000000,0.000000,0.000000,0.000000,0.000000,0.000000,,,,,,,,,,,,,,,,,,,,,,,,,,,,,,,,,,,,,,,,,,,,,,,,,,,,,,,,,,,,,,,,,,,,,,,,,,,,,,,,,,,,,,,,,,,,,,,,,,,,,,,,,,,,,,,,,,,,,,,,,,,,,,,,,
1737282807.278912,1737282807.279805,75.000000,0.000000,4339.487305,4349.102539,4258.077148,4305.256348,4346.153809,4332.820313,4332.179688,4558.717773,4565.128418,4565.256348,4508.974121,5642.563965,4361.153809,4306.025879,0.000000,2.000000,37.000000,,,,0.000000,0.000000,0.000000,0.000000,0.000000,0.000000,0.000000,0.000000,0.000000,0.000000,0.000000,0.000000,0.000000,0.000000,0.000000,0.000000,,,,,,,,,,,,,,,,,,,,,,,,,,,,,,,,,,,,,,,,,,,,,,,,,,,,,,,,,,,,,,,,,,,,,,,,,,,,,,,,,,,,,,,,,,,,,,,,,,,,,,,,,,,,,,,,,,,,,,,,,,,,,,,,,
1737282807.286720,1737282807.287614,76.000000,0.000000,4338.077148,4349.743652,4261.153809,4308.974121,4348.333496,4337.307617,4334.871582,4558.717773,4562.051270,4564.487305,4512.307617,5640.769043,4354.871582,4300.256348,0.000000,2.000000,37.000000,,,,0.000000,0.000000,0.000000,0.000000,0.000000,0.000000,0.000000,0.000000,0.000000,0.000000,0.000000,0.000000,0.000000,0.000000,0.000000,0.000000,,,,,,,,,,,,,,,,,19.000000,0.000000,0.661470,-0.748291,0.036682,0.034241,-0.102063,-0.984007,-0.124039,15.201095,-31.183199,15.806224,,,,,,,,,,,,,,,,,,,,,,,,,,,,,,,,0.391702,0.021558,0.033300,0.021353,0.016315,0.067281,0.033791,0.027484,0.021157,0.034754,0.024088,0.019164,0.033036,0.030861,0.023588,0.155646,0.047851,0.021366,0.015232,0.019481,0.045178,0.026982,0.030492,0.026064,0.023280,0.565371,0.073609,0.031422,0.025469,0.026404,1.503051,0.124300,0.031062,0.045564,0.029767,0.063899,0.019989,0.037659,0.033831,0.022333,0.295925,0.096589,0.035540,0.017774,0.032210,0.060133,0.015500,0.044152,0.050544,0.042804,0.384767,0.057199,0.048440,0.015690,0.024532,0.345200,0.075453,0.034000,0.014804,0.034824,4.005088,0.432082,0.109941,0.064101,0.034593,2.564543,0.253242,0.148335,0.088090,0.039945
1737282807.294528,1737282807.295522,77.000000,0.000000,4335.256348,4351.922852,4257.563965,4312.179688,4348.717773,4349.358887,4349.615234,4556.538574,4558.333496,4561.025879,4505.000000,5633.717773,4328.846191,4272.692383,0.000000,2.000000,37.000000,,,,0.000000,0.000000,0.000000,0.000000,0.000000,0.000000,0.000000,0.000000,0.000000,0.000000,0.000000,0.000000,0.000000,0.000000,0.000000,0.000000,,,,,,,,,,,,,,,,,,,,,,,,,,,,,,,,,,,,,,,,,,,,,,,,,,,,,,,,,,,,,,,,,,,,,,,,,,,,,,,,,,,,,,,,,,,,,,,,,,,,,,,,,,,,,,,,,,,,,,,,,,,,,,,,,
1737282807.302337,1737282807.303330,78.000000,0.000000,4332.436035,4351.282227,4266.025879,4319.230957,4350.256348,4361.282227,4363.717773,4553.077148,4549.615234,4557.051270,4495.897461,5631.282227,4301.538574,4258.333496,0.000000,2.000000,37.000000,,,,0.000000,0.000000,0.000000,0.000000,0.000000,0.000000,0.000000,0.000000,0.000000,0.000000,0.000000,0.000000,0.000000,0.000000,0.000000,0.000000,,,,,,,,,,,,,,,,,,,,,,,,,,,,,,,,,,,,,,,,,,,,,,,,,,,,,,,,,,,,,,,,,,,,,,,,,,,,,,,,,,,,,,,,,,,,,,,,,,,,,,,,,,,,,,,,,,,,,,,,,,,,,,,,,
1737282807.310145,1737282807.311138,79.000000,0.000000,4324.615234,4344.487305,4267.563965,4320.256348,4353.077148,4368.077148,4376.666504,4552.051270,4548.205078,4552.307617,4489.615234,5622.051270,4284.102539,4244.487305,0.000000,2.000000,37.000000,,,,0.000000,0.000000,0.000000,0.000000,0.000000,0.000000,0.000000,0.000000,0.000000,0.000000,0.000000,0.000000,0.000000,0.000000,0.000000,0.000000,,,,,,,,,,,,,,,,,,,,,,,,,,,,,,,,,,,,,,,,,,,,,,,,,,,,,,,,,,,,,,,,,,,,,,,,,,,,,,,,,,,,,,,,,,,,,,,,,,,,,,,,,,,,,,,,,,,,,,,,,,,,,,,,,
1737282807.317953,1737282807.318846,80.000000,0.000000,4324.487305,4346.282227,4265.256348,4320.897461,4354.871582,4370.128418,4377.179688,4551.922852,4550.128418,4552.948730,4490.000000,5622.051270,4284.102539,4240.512695,0.000000,2.000000,37.000000,,,,0.000000,0.000000,0.000000,0.000000,0.000000,0.000000,0.000000,0.000000,0.000000,0.000000,0.000000,0.000000,0.000000,0.000000,0.000000,0.000000,,,,,,,,,,,,,,,,,20.000000,0.000000,0.661398,-0.748352,0.036743,0.034241,-0.091320,-0.978635,-0.123062,15.214319,-31.248213,15.908935,,,,,,,,,,,,,,,,,,,,,,,,,,,,,,,,,,,,,,,,,,,,,,,,,,,,,,,,,,,,,,,,,,,,,,,,,,,,,,,,,,,,,,,,,,,,,,,,,,,,,
1737282807.325761,1737282807.326654,81.000000,0.000000,4326.922852,4351.666504,4265.897461,4323.974121,4355.384766,4372.436035,4375.512695,4551.666504,4546.282227,4556.282227,4488.333496,5623.461426,4283.077148,4241.922852,0.000000,2.000000,37.000000,,,,0.000000,0.000000,0.000000,0.000000,0.000000,0.000000,0.000000,0.000000,0.000000,0.000000,0.000000,0.000000,0.000000,0.000000,0.000000,0.000000,,,,,,,,,,,,,,,,,,,,,,,,,,,,,,,,,,,,,,,,,,,,,,,,,,,,,,,,,,,,,,,,,,,,,,,,,,,,,,,,,,,,,,,,,,,,,,,,,,,,,,,,,,,,,,,,,,,,,,,,,,,,,,,,,
1737282807.333569,1737282807.334362,82.000000,0.000000,4323.974121,4348.717773,4261.282227,4321.025879,4354.230957,4371.794922,4383.205078,4551.410156,4544.615234,4552.948730,4484.871582,5614.487305,4273.333496,4232.820313,0.000000,2.000000,37.000000,,,,0.000000,0.000000,0.000000,0.000000,0.000000,0.000000,0.000000,0.000000,0.000000,0.000000,0.000000,0.000000,0.000000,0.000000,0.000000,0.000000,,,,,,,,,,,,,,,,,,,,,,,,,,,,,,,,,,,,,,,,,,,,,,,,,,,,,,,,,,,,,,,,,,,,,,,,,,,,,,,,,,,,,,,,,,,,,,,,,,,,,,,,,,,,,,,,,,,,,,,,,,,,,,,,,
1737282807.341377,1737282807.342270,83.000000,0.000000,4328.589844,4350.128418,4263.077148,4321.794922,4354.358887,4366.538574,4376.794922,4547.563965,4545.769043,4554.230957,4491.153809,5621.922852,4280.128418,4241.410156,0.000000,2.000000,37.000000,,,,0.000000,0.000000,0.000000,0.000000,0.000000,0.000000,0.000000,0.000000,0.000000,0.000000,0.000000,0.000000,0.000000,0.000000,0.000000,0.000000,,,,,,,,,,,,,,,,,,,,,,,,,,,,,,,,,,,,,,,,,,,,,,,,,,,,,,,,,,,,,,,,,,,,,,,,,,,,,,,,,,,,,,,,,,,,,,,,,,,,,,,,,,,,,,,,,,,,,,,,,,,,,,,,,
1737282807.349185,1737282807.350079,84.000000,0.000000,4325.641113,4348.974121,4262.436035,4322.563965,4354.871582,4368.589844,4375.384766,4547.051270,4544.615234,4559.743652,4487.179688,5622.436035,4281.025879,4239.230957,0.000000,2.000000,37.000000,,,,0.000000,0.000000,0.000000,0.000000,0.000000,0.000000,0.000000,0.000000,0.000000,0.000000,0.000000,0.000000,0.000000,0.000000,0.000000,0.000000,,,,,,,,,,,,,,,,,21.000000,0.000000,0.661404,-0.748352,0.036682,0.034180,-0.106947,-0.988402,-0.119644,15.259554,-31.390059,16.001375,,,,,,,,,,,,,,,,,,,,,,,,,,,,,,,,,,,,,,,,,,,,,,,,,,,,,,,,,,,,,,,,,,,,,,,,,,,,,,,,,,,,,,,,,,,,,,,,,,,,,
1737282807.356993,1737282807.357986,85.000000,0.000000,4322.692383,4348.717773,4263.333496,4320.128418,4354.871582,4370.769043,4379.487305,4550.384766,4543.717773,4556.794922,4483.717773,5618.205078,4278.205078,4237.051270,0.000000,2.000000,37.000000,,,,0.000000,0.000000,0.000000,0.000000,0.000000,0.000000,0.000000,0.000000,0.000000,0.000000,0.000000,0.000000,0.000000,0.000000,0.000000,0.000000,,,,,,,,,,,,,,,,,,,,,,,,,,,,,,,,,,,,,,,,,,,,,,,,,,,,,,,,,,,,,,,,,,,,,,,,,,,,,,,,,,,,,,,,,,,,,,,,,,,,,,,,,,,,,,,,,,,,,,,,,,,,,,,,,
1737282807.364801,1737282807.365794,86.000000,0.000000,4327.436035,4353.461426,4266.666504,4319.487305,4355.769043,4366.025879,4373.333496,4550.128418,4543.974121,4555.512695,4490.897461,5623.461426,4285.000000,4247.307617,0.000000,2.000000,37.000000,,,,0.000000,0.000000,0.000000,0.000000,0.000000,0.000000,0.000000,0.000000,0.000000,0.000000,0.000000,0.000000,0.000000,0.000000,0.000000,0.000000,,,,,,,,,,,,,,,,,,,,,,,,,,,,,,,,,,,,,,,,,,,,,,,,,,,,,,,,,,,,,,,,,,,,,,,,,,,,,,,,,,,,,,,,,,,,,,,,,,,,,,,,,,,,,,,,,,,,,,,,,,,,,,,,,
1737282807.372609,1737282807.373702,87.000000,0.000000,4324.102539,4351.025879,4261.025879,4318.461426,4354.487305,4364.743652,4370.769043,4550.897461,4545.512695,4558.974121,4492.051270,5620.128418,4289.230957,4241.666504,0.000000,2.000000,37.000000,,,,0.000000,0.000000,0.000000,0.000000,0.000000,0.000000,0.000000,0.000000,0.000000,0.000000,0.000000,0.000000,0.000000,0.000000,0.000000,0.000000,,,,,,,,,,,,,,,,,,,,,,,,,,,,,,,,,,,,,,,,,,,,,,,,,,,,,,,,,,,,,,,,,,,,,,,,,,,,,,,,,,,,,,,,,,,,,,,,,,,,,,,,,,,,,,,,,,,,,,,,,,,,,,,,,
1737282807.380417,1737282807.381510,88.000000,0.000000,4326.922852,4350.641113,4265.128418,4320.769043,4351.794922,4365.512695,4368.077148,4551.922852,4546.666504,4555.769043,4493.205078,5623.461426,4297.692383,4250.641113,0.000000,2.000000,37.000000,,,,0.000000,0.000000,0.000000,0.000000,0.000000,0.000000,0.000000,0.000000,0.000000,0.000000,0.000000,0.000000,0.000000,0.000000,0.000000,0.000000,,,,,,,,,,,,,,,,,22.000000,0.000000,0.661407,-0.748352,0.036621,0.034180,-0.099622,-0.982053,-0.114760,15.483599,-31.384386,15.917904,,,,,,,,,,,,,,,,,,,,,,,,,,,,,,,,,,,,,,,,,,,,,,,,,,,,,,,,,,,,,,,,,,,,,,,,,,,,,,,,,,,,,,,,,,,,,,,,,,,,,
1737282807.388225,1737282807.389418,89.000000,0.000000,4331.025879,4350.256348,4266.410156,4318.717773,4352.692383,4362.307617,4367.820313,4554.487305,4548.205078,4553.974121,4491.282227,5625.769043,4298.333496,4258.205078,0.000000,2.000000,37.000000,,,,0.000000,0.000000,0.000000,0.000000,0.000000,0.000000,0.000000,0.000000,0.000000,0.000000,0.000000,0.000000,0.000000,0.000000,0.000000,0.000000,,,,,,,,,,,,,,,,,,,,,,,,,,,,,,,,,,,,,,,,,,,,,,,,,,,,,,,,,,,,,,,,,,,,,,,,,,,,,,,,,,,,,,,,,,,,,,,,,,,,,,,,,,,,,,,,,,,,,,,,,,,,,,,,,
1737282807.396034,1737282807.397226,90.000000,0.000000,4329.615234,4348.205078,4263.717773,4315.512695,4353.717773,4358.077148,4364.871582,4556.153809,4550.384766,4558.974121,4491.794922,5625.512695,4301.538574,4258.077148,0.000000,2.000000,37.000000,,,,0.000000,0.000000,0.000000,0.000000,0.000000,0.000000,0.000000,0.000000,0.000000,0.000000,0.000000,0.000000,0.000000,0.000000,0.000000,0.000000,,,,,,,,,,,,,,,,,,,,,,,,,,,,,,,,,,,,,,,,,,,,,,,,,,,,,,,,,,,,,,,,,,,,,,,,,,,,,,,,,,,,,,,,,,,,,,,,,,,,,,,,,,,,,,,,,,,,,,,,,,,,,,,,,
1737282807.403842,1737282807.404934,91.000000,0.000000,4331.794922,4349.102539,4265.000000,4318.077148,4352.179688,4356.025879,4359.230957,4554.871582,4551.666504,4558.846191,4499.230957,5632.051270,4314.102539,4268.205078,0.000000,2.000000,37.000000,,,,0.000000,0.000000,0.000000,0.000000,0.000000,0.000000,0.000000,0.000000,0.000000,0.000000,0.000000,0.000000,0.000000,0.000000,0.000000,0.000000,,,,,,,,,,,,,,,,,,,,,,,,,,,,,,,,,,,,,,,,,,,,,,,,,,,,,,,,,,,,,,,,,,,,,,,,,,,,,,,,,,,,,,,,,,,,,,,,,,,,,,,,,,,,,,,,,,,,,,,,,,,,,,,,,
1737282807.411650,1737282807.412742,92.000000,0.000000,4331.794922,4348.077148,4257.692383,4316.282227,4351.538574,4356.282227,4361.666504,4555.128418,4551.666504,4555.641113,4495.128418,5626.410156,4309.487305,4263.205078,0.000000,2.000000,37.000000,,,,0.000000,0.000000,0.000000,0.000000,0.000000,0.000000,0.000000,0.000000,0.000000,0.000000,0.000000,0.000000,0.000000,0.000000,0.000000,0.000000,,,,,,,,,,,,,,,,,23.000000,0.000000,0.661542,-0.748230,0.036682,0.034180,-0.107923,-0.977170,-0.127457,15.451905,-31.362614,15.776114,,,,,,,,,,,,,,,,,,,,,,,,,,,,,,,,0.539967,0.031688,0.033952,0.020944,0.016567,0.065421,0.036103,0.030120,0.018929,0.033212,0.020671,0.018284,0.028202,0.025147,0.022841,0.206224,0.051379,0.024754,0.014840,0.018797,0.058374,0.032011,0.035494,0.026588,0.021962,0.799831,0.090469,0.037262,0.033631,0.026345,2.102283,0.176312,0.041122,0.050435,0.031830,0.055945,0.019816,0.036706,0.033377,0.021320,0.392622,0.115215,0.035414,0.018351,0.034867,0.071653,0.015463,0.052809,0.053298,0.039763,0.555231,0.065522,0.050420,0.017998,0.028758,0.492055,0.087147,0.040509,0.017226,0.036024,5.810980,0.623295,0.143212,0.094113,0.037687,3.653598,0.368862,0.165811,0.102024,0.043499
1737282807.419458,1737282807.420450,93.000000,0.000000,4334.102539,4351.282227,4261.922852,4316.025879,4353.461426,4355.256348,4357.051270,4554.102539,4552.179688,4557.948730,4494.871582,5627.563965,4310.897461,4267.692383,0.000000,2.000000,37.000000,,,,0.000000,0.000000,0.000000,0.000000,0.000000,0.000000,0.000000,0.000000,0.000000,0.000000,0.000000,0.000000,0.000000,0.000000,0.000000,0.000000,,,,,,,,,,,,,,,,,,,,,,,,,,,,,,,,,,,,,,,,,,,,,,,,,,,,,,,,,,,,,,,,,,,,,,,,,,,,,,,,,,,,,,,,,,,,,,,,,,,,,,,,,,,,,,,,,,,,,,,,,,,,,,,,,
1737282807.427266,1737282807.428258,94.000000,0.000000,4333.077148,4350.641113,4263.974121,4315.128418,4353.461426,4353.589844,4354.358887,4555.256348,4553.589844,4558.461426,4498.589844,5630.000000,4317.307617,4270.512695,0.000000,2.000000,37.000000,,,,0.000000,0.000000,0.000000,0.000000,0.000000,0.000000,0.000000,0.000000,0.000000,0.000000,0.000000,0.000000,0.000000,0.000000,0.000000,0.000000,,,,,,,,,,,,,,,,,,,,,,,,,,,,,,,,,,,,,,,,,,,,,,,,,,,,,,,,,,,,,,,,,,,,,,,,,,,,,,,,,,,,,,,,,,,,,,,,,,,,,,,,,,,,,,,,,,,,,,,,,,,,,,,,,
1737282807.435074,1737282807.435966,95.000000,0.000000,4330.128418,4346.794922,4257.307617,4314.743652,4352.563965,4355.512695,4361.410156,4554.743652,4551.794922,4556.922852,4492.692383,5624.358887,4308.717773,4256.794922,0.000000,2.000000,37.000000,,,,0.000000,0.000000,0.000000,0.000000,0.000000,0.000000,0.000000,0.000000,0.000000,0.000000,0.000000,0.000000,0.000000,0.000000,0.000000,0.000000,,,,,,,,,,,,,,,,,,,,,,,,,,,,,,,,,,,,,,,,,,,,,,,,,,,,,,,,,,,,,,,,,,,,,,,,,,,,,,,,,,,,,,,,,,,,,,,,,,,,,,,,,,,,,,,,,,,,,,,,,,,,,,,,,
1737282807.442882,1737282807.443774,96.000000,0.000000,4333.205078,4349.871582,4266.666504,4319.743652,4352.307617,4361.153809,4363.974121,4551.666504,4547.563965,4557.436035,4492.179688,5626.282227,4299.358887,4258.205078,0.000000,2.000000,37.000000,,,,0.000000,0.000000,0.000000,0.000000,0.000000,0.000000,0.000000,0.000000,0.000000,0.000000,0.000000,0.000000,0.000000,0.000000,0.000000,0.000000,,,,,,,,,,,,,,,,,24.000000,0.000000,0.661536,-0.748230,0.036743,0.034241,-0.101087,-0.983030,-0.112807,15.356714,-31.276352,15.831836,,,,,,,,,,,,,,,,,,,,,,,,,,,,,,,,,,,,,,,,,,,,,,,,,,,,,,,,,,,,,,,,,,,,,,,,,,,,,,,,,,,,,,,,,,,,,,,,,,,,,
1737282807.450690,1737282807.451482,97.000000,0.000000,4329.871582,4348.205078,4267.563965,4318.077148,4351.666504,4366.025879,4369.102539,4554.615234,4546.282227,4556.666504,4493.077148,5619.871582,4291.794922,4254.230957,0.000000,2.000000,37.000000,,,,0.000000,0.000000,0.000000,0.000000,0.000000,0.000000,0.000000,0.000000,0.000000,0.000000,0.000000,0.000000,0.000000,0.000000,0.000000,0.000000,,,,,,,,,,,,,,,,,,,,,,,,,,,,,,,,,,,,,,,,,,,,,,,,,,,,,,,,,,,,,,,,,,,,,,,,,,,,,,,,,,,,,,,,,,,,,,,,,,,,,,,,,,,,,,,,,,,,,,,,,,,,,,,,,
1737282807.458498,1737282807.459290,98.000000,0.000000,4330.384766,4349.358887,4265.128418,4318.461426,4355.128418,4363.974121,4370.128418,4553.846191,4546.794922,4556.538574,4492.051270,5621.922852,4293.974121,4251.153809,0.000000,2.000000,37.000000,,,,0.000000,0.000000,0.000000,0.000000,0.000000,0.000000,0.000000,0.000000,0.000000,0.000000,0.000000,0.000000,0.000000,0.000000,0.000000,0.000000,,,,,,,,,,,,,,,,,,,,,,,,,,,,,,,,,,,,,,,,,,,,,,,,,,,,,,,,,,,,,,,,,,,,,,,,,,,,,,,,,,,,,,,,,,,,,,,,,,,,,,,,,,,,,,,,,,,,,,,,,,,,,,,,,
1737282807.466306,1737282807.466998,99.000000,0.000000,4331.153809,4352.307617,4268.205078,4320.897461,4355.128418,4363.846191,4369.743652,4551.025879,4547.563965,4558.077148,4490.128418,5625.897461,4295.256348,4248.717773,0.000000,2.000000,37.000000,,,,0.000000,0.000000,0.000000,0.000000,0.000000,0.000000,0.000000,0.000000,0.000000,0.000000,0.000000,0.000000,0.000000,0.000000,0.000000,0.000000,,,,,,,,,,,,,,,,,,,,,,,,,,,,,,,,,,,,,,,,,,,,,,,,,,,,,,,,,,,,,,,,,,,,,,,,,,,,,,,,,,,,,,,,,,,,,,,,,,,,,,,,,,,,,,,,,,,,,,,,,,,,,,,,,
1737282807.474115,1737282807.474806,100.000000,0.000000,4325.384766,4349.230957,4262.820313,4318.461426,4353.205078,4366.410156,4374.230957,4555.641113,4547.948730,4556.922852,4487.820313,5617.307617,4291.025879,4242.692383,0.000000,2.000000,37.000000,,,,0.000000,0.000000,0.000000,0.000000,0.000000,0.000000,0.000000,0.000000,0.000000,0.000000,0.000000,0.000000,0.000000,0.000000,0.000000,0.000000,,,,,,,,,,,,,,,,,25.000000,0.000000,0.661467,-0.748291,0.036743,0.034241,-0.101087,-0.981077,-0.130875,15.221044,-31.282051,15.798652,,,,,,,,,,,,,,,,,,,,,,,,,,,,,,,,,,,,,,,,,,,,,,,,,,,,,,,,,,,,,,,,,,,,,,,,,,,,,,,,,,,,,,,,,,,,,,,,,,,,,
1737282807.481923,1737282807.482514,101.000000,0.000000,4328.846191,4350.256348,4263.717773,4321.153809,4356.025879,4363.717773,4370.512695,4554.230957,4547.692383,4556.025879,4493.717773,5623.461426,4295.641113,4253.589844,0.000000,2.000000,37.000000,,,,0.000000,0.000000,0.000000,0.000000,0.000000,0.000000,0.000000,0.000000,0.000000,0.000000,0.000000,0.000000,0.000000,0.000000,0.000000,0.000000,,,,,,,,,,,,,,,,,,,,,,,,,,,,,,,,,,,,,,,,,,,,,,,,,,,,,,,,,,,,,,,,,,,,,,,,,,,,,,,,,,,,,,,,,,,,,,,,,,,,,,,,,,,,,,,,,,,,,,,,,,,,,,,,,
1737282807.489731,1737282807.490322,102.000000,0.000000,4329.358887,4349.615234,4266.282227,4320.000000,4356.282227,4363.333496,4370.641113,4548.589844,4547.179688,4555.256348,4493.461426,5625.897461,4293.077148,4250.128418,0.000000,2.000000,37.000000,,,,0.000000,0.000000,0.000000,0.000000,0.000000,0.000000,0.000000,0.000000,0.000000,0.000000,0.000000,0.000000,0.000000,0.000000,0.000000,0.000000,,,,,,,,,,,,,,,,,,,,,,,,,,,,,,,,,,,,,,,,,,,,,,,,,,,,,,,,,,,,,,,,,,,,,,,,,,,,,,,,,,,,,,,,,,,,,,,,,,,,,,,,,,,,,,,,,,,,,,,,,,,,,,,,,
1737282807.497539,1737282807.498030,103.000000,0.000000,4328.974121,4350.256348,4265.769043,4317.692383,4352.948730,4364.230957,4371.025879,4550.897461,4547.563965,4557.436035,4490.512695,5623.077148,4292.436035,4250.641113,0.000000,2.000000,37.000000,,,,0.000000,0.000000,0.000000,0.000000,0.000000,0.000000,0.000000,0.000000,0.000000,0.000000,0.000000,0.000000,0.000000,0.000000,0.000000,0.000000,,,,,,,,,,,,,,,,,,,,,,,,,,,,,,,,,,,,,,,,,,,,,,,,,,,,,,,,,,,,,,,,,,,,,,,,,,,,,,,,,,,,,,,,,,,,,,,,,,,,,,,,,,,,,,,,,,,,,,,,,,,,,,,,,
1737282807.505347,1737282807.505838,104.000000,0.000000,4330.256348,4351.025879,4264.230957,4318.846191,4353.205078,4364.102539,4366.538574,4552.051270,4548.205078,4560.256348,4490.769043,5624.871582,4300.128418,4260.769043,0.000000,2.000000,37.000000,,,,0.000000,0.000000,0.000000,0.000000,0.000000,0.000000,0.000000,0.000000,0.000000,0.000000,0.000000,0.000000,0.000000,0.000000,0.000000,0.000000,,,,,,,,,,,,,,,,,26.000000,0.000000,0.661401,-0.748352,0.036682,0.034241,-0.114272,-0.985960,-0.123550,15.248939,-31.403845,15.802120,,,,,,,,,,,,,,,,,,,,,,,,,,,,,,,,,,,,,,,,,,,,,,,,,,,,,,,,,,,,,,,,,,,,,,,,,,,,,,,,,,,,,,,,,,,,,,,,,,,,,
1737282807.513155,1737282807.513547,105.000000,0.000000,4324.743652,4346.282227,4259.871582,4317.179688,4353.974121,4363.205078,4367.307617,4549.871582,4548.589844,4557.563965,4490.641113,5620.641113,4297.820313,4252.948730,0.000000,2.000000,37.000000,,,,0.000000,0.000000,0.000000,0.000000,0.000000,0.000000,0.000000,0.000000,0.000000,0.000000,0.000000,0.000000,0.000000,0.000000,0.000000,0.000000,,,,,,,,,,,,,,,,,,,,,,,,,,,,,,,,,,,,,,,,,,,,,,,,,,,,,,,,,,,,,,,,,,,,,,,,,,,,,,,,,,,,,,,,,,,,,,,,,,,,,,,,,,,,,,,,,,,,,,,,,,,,,,,,,
1737282807.520963,1737282807.521455,106.000000,0.000000,4327.820313,4349.487305,4263.589844,4320.000000,4351.922852,4360.000000,4364.230957,4549.615234,4547.948730,4555.769043,4495.256348,5625.256348,4299.102539,4257.692383,0.000000,2.000000,37.000000,,,,0.000000,0.000000,0.000000,0.000000,0.000000,0.000000,0.000000,0.000000,0.000000,0.000000,0.000000,0.000000,0.000000,0.000000,0.000000,0.000000,,,,,,,,,,,,,,,,,,,,,,,,,,,,,,,,,,,,,,,,,,,,,,,,,,,,,,,,,,,,,,,,,,,,,,,,,,,,,,,,,,,,,,,,,,,,,,,,,,,,,,,,,,,,,,,,,,,,,,,,,,,,,,,,,
1737282807.528771,1737282807.529263,107.000000,0.000000,4333.461426,4352.436035,4263.205078,4318.461426,4351.922852,4359.743652,4364.871582,4550.769043,4548.333496,4555.641113,4494.358887,5626.025879,4303.974121,4259.358887,0.000000,2.000000,37.000000,,,,0.000000,0.000000,0.000000,0.000000,0.000000,0.000000,0.000000,0.000000,0.000000,0.000000,0.000000,0.000000,0.000000,0.000000,0.000000,0.000000,,,,,,,,,,,,,,,,,,,,,,,,,,,,,,,,,,,,,,,,,,,,,,,,,,,,,,,,,,,,,,,,,,,,,,,,,,,,,,,,,,,,,,,,,,,,,,,,,,,,,,,,,,,,,,,,,,,,,,,,,,,,,,,,,
1737282807.536579,1737282807.537171,108.000000,0.000000,4333.205078,4351.153809,4263.333496,4314.615234,4353.077148,4359.871582,4365.512695,4550.641113,4550.897461,4553.846191,4494.871582,5622.563965,4306.025879,4258.205078,0.000000,2.000000,37.000000,,,,0.000000,0.000000,0.000000,0.000000,0.000000,0.000000,0.000000,0.000000,0.000000,0.000000,0.000000,0.000000,0.000000,0.000000,0.000000,0.000000,1.000000,0.000000,0.000000,0.000000,0.000000,0.000000,0.000000,0.000000,0.000000,0.000000,0.000000,0.000000,0.000000,0.000000,0.000000,0.000000,27.000000,0.000000,0.661401,-0.748352,0.036682,0.034241,-0.104993,-0.984495,-0.124039,15.157378,-31.330128,15.888575,,,,,,,,,,,,,,,,,,,,,,,,,,,,,,,,0.672620,0.045775,0.032628,0.020395,0.017226,0.059842,0.037580,0.031882,0.019236,0.031527,0.023308,0.022244,0.022788,0.020294,0.022486,0.258921,0.052036,0.029702,0.015563,0.019325,0.073141,0.035990,0.038729,0.024911,0.019764,1.034814,0.107873,0.043611,0.042233,0.028131,2.660903,0.224831,0.053167,0.056962,0.034002,0.047598,0.019567,0.036565,0.032126,0.021708,0.483265,0.128501,0.034058,0.020132,0.036640,0.081680,0.016923,0.060744,0.051693,0.034392,0.718357,0.071036,0.049813,0.021155,0.031815,0.630486,0.094462,0.045427,0.020943,0.036247,7.559987,0.792725,0.178780,0.125919,0.040690,4.728910,0.473632,0.182661,0.115869,0.045628
1737282807.544387,1737282807.544979,109.000000,0.000000,4333.333496,4350.256348,4267.051270,4318.974121,4352.820313,4358.077148,4358.846191,4550.769043,4551.922852,4556.922852,4498.461426,5628.717773,4306.538574,4266.282227,0.000000,2.000000,37.000000,,,,0.000000,0.000000,0.000000,0.000000,0.000000,0.000000,0.000000,0.000000,0.000000,0.000000,0.000000,0.000000,0.000000,0.000000,0.000000,0.000000,,,,,,,,,,,,,,,,,,,,,,,,,,,,,,,,,,,,,,,,,,,,,,,,,,,,,,,,,,,,,,,,,,,,,,,,,,,,,,,,,,,,,,,,,,,,,,,,,,,,,,,,,,,,,,,,,,,,,,,,,,,,,,,,,
1737282807.552195,1737282807.552887,110.000000,0.000000,4331.666504,4348.205078,4259.871582,4319.358887,4351.794922,4357.179688,4357.307617,4551.282227,4550.769043,4559.102539,4493.205078,5625.384766,4303.717773,4260.256348,0.000000,2.000000,37.000000,,,,0.000000,0.000000,0.000000,0.000000,0.000000,0.000000,0.000000,0.000000,0.000000,0.000000,0.000000,0.000000,0.000000,0.000000,0.000000,0.000000,,,,,,,,,,,,,,,,,,,,,,,,,,,,,,,,,,,,,,,,,,,,,,,,,,,,,,,,,,,,,,,,,,,,,,,,,,,,,,,,,,,,,,,,,,,,,,,,,,,,,,,,,,,,,,,,,,,,,,,,,,,,,,,,,
1737282807.560003,1737282807.560695,111.000000,0.000000,4333.077148,4352.436035,4262.692383,4316.666504,4351.538574,4355.128418,4357.307617,4549.615234,4550.128418,4553.461426,4493.846191,5626.922852,4309.230957,4264.358887,0.000000,2.000000,37.000000,,,,0.000000,0.000000,0.000000,0.000000,0.000000,0.000000,0.000000,0.000000,0.000000,0.000000,0.000000,0.000000,0.000000,0.000000,0.000000,0.000000,,,,,,,,,,,,,,,,,,,,,,,,,,,,,,,,,,,,,,,,,,,,,,,,,,,,,,,,,,,,,,,,,,,,,,,,,,,,,,,,,,,,,,,,,,,,,,,,,,,,,,,,,,,,,,,,,,,,,,,,,,,,,,,,,
1737282807.567812,1737282807.568603,112.000000,0.000000,4330.769043,4353.974121,4264.871582,4316.794922,4352.692383,4354.743652,4361.538574,4554.487305,4551.153809,4552.563965,4495.000000,5628.717773,4309.615234,4264.358887,0.000000,2.000000,37.000000,,,,0.000000,0.000000,0.000000,0.000000,0.000000,0.000000,0.000000,0.000000,0.000000,0.000000,0.000000,0.000000,0.000000,0.000000,0.000000,0.000000,,,,,,,,,,,,,,,,,28.000000,0.000000,0.661398,-0.748352,0.036743,0.034241,-0.104017,-0.981565,-0.119644,15.091640,-31.247114,15.899717,,,,,,,,,,,,,,,,,,,,,,,,,,,,,,,,,,,,,,,,,,,,,,,,,,,,,,,,,,,,,,,,,,,,,,,,,,,,,,,,,,,,,,,,,,,,,,,,,,,,,
1737282807.575620,1737282807.576411,113.000000,0.000000,4330.000000,4350.384766,4259.615234,4318.846191,4353.333496,4358.205078,4364.102539,4559.102539,4549.487305,4560.384766,4491.666504,5625.256348,4304.615234,4258.461426,0.000000,2.000000,37.000000,,,,0.000000,0.000000,0.000000,0.000000,0.000000,0.000000,0.000000,0.000000,0.000000,0.000000,0.000000,0.000000,0.000000,0.000000,0.000000,0.000000,,,,,,,,,,,,,,,,,,,,,,,,,,,,,,,,,,,,,,,,,,,,,,,,,,,,,,,,,,,,,,,,,,,,,,,,,,,,,,,,,,,,,,,,,,,,,,,,,,,,,,,,,,,,,,,,,,,,,,,,,,,,,,,,,
1737282807.583428,1737282807.584319,114.000000,0.000000,4336.025879,4352.051270,4263.461426,4318.333496,4353.333496,4360.897461,4360.512695,4552.436035,4548.205078,4559.615234,4494.230957,5630.512695,4307.051270,4267.692383,0.000000,2.000000,37.000000,,,,0.000000,0.000000,0.000000,0.000000,0.000000,0.000000,0.000000,0.000000,0.000000,0.000000,0.000000,0.000000,0.000000,0.000000,0.000000,0.000000,,,,,,,,,,,,,,,,,,,,,,,,,,,,,,,,,,,,,,,,,,,,,,,,,,,,,,,,,,,,,,,,,,,,,,,,,,,,,,,,,,,,,,,,,,,,,,,,,,,,,,,,,,,,,,,,,,,,,,,,,,,,,,,,,
1737282807.591236,1737282807.592127,115.000000,0.000000,4329.871582,4350.641113,4263.846191,4314.487305,4351.922852,4361.666504,4364.358887,4548.974121,4551.666504,4554.358887,4491.410156,5626.666504,4302.820313,4258.333496,0.000000,2.000000,37.000000,,,,0.000000,0.000000,0.000000,0.000000,0.000000,0.000000,0.000000,0.000000,0.000000,0.000000,0.000000,0.000000,0.000000,0.000000,0.000000,0.000000,,,,,,,,,,,,,,,,,,,,,,,,,,,,,,,,,,,,,,,,,,,,,,,,,,,,,,,,,,,,,,,,,,,,,,,,,,,,,,,,,,,,,,,,,,,,,,,,,,,,,,,,,,,,,,,,,,,,,,,,,,,,,,,,,
1737282807.599044,1737282807.600035,116.000000,0.000000,4326.025879,4350.000000,4266.666504,4321.025879,4352.436035,4361.922852,4362.820313,4551.922852,4550.897461,4558.717773,4491.153809,5626.794922,4303.589844,4254.230957,0.000000,2.000000,37.000000,,,,0.000000,0.000000,0.000000,0.000000,0.000000,0.000000,0.000000,0.000000,0.000000,0.000000,0.000000,0.000000,0.000000,0.000000,0.000000,0.000000,,,,,,,,,,,,,,,,,29.000000,0.000000,0.661325,-0.748413,0.036743,0.034302,-0.095226,-0.980588,-0.125992,15.199143,-31.439070,15.743079,,,,,,,,,,,,,,,,,,,,,,,,,,,,,,,,,,,,,,,,,,,,,,,,,,,,,,,,,,,,,,,,,,,,,,,,,,,,,,,,,,,,,,,,,,,,,,,,,,,,,
1737282807.606852,1737282807.607842,117.000000,0.000000,4330.000000,4348.077148,4267.307617,4322.820313,4353.205078,4362.692383,4362.179688,4553.974121,4546.666504,4558.846191,4493.717773,5630.641113,4303.461426,4261.922852,0.000000,2.000000,37.000000,,,,0.000000,0.000000,0.000000,0.000000,0.000000,0.000000,0.000000,0.000000,0.000000,0.000000,0.000000,0.000000,0.000000,0.000000,0.000000,0.000000,,,,,,,,,,,,,,,,,,,,,,,,,,,,,,,,,,,,,,,,,,,,,,,,,,,,,,,,,,,,,,,,,,,,,,,,,,,,,,,,,,,,,,,,,,,,,,,,,,,,,,,,,,,,,,,,,,,,,,,,,,,,,,,,,
1737282807.614660,1737282807.615551,118.000000,0.000000,4331.153809,4345.256348,4262.692383,4315.769043,4352.563965,4362.948730,4366.282227,4553.846191,4548.717773,4553.333496,4489.871582,5626.410156,4297.051270,4256.794922,0.000000,2.000000,37.000000,,,,0.000000,0.000000,0.000000,0.000000,0.000000,0.000000,0.000000,0.000000,0.000000,0.000000,0.000000,0.000000,0.000000,0.000000,0.000000,0.000000,,,,,,,,,,,,,,,,,,,,,,,,,,,,,,,,,,,,,,,,,,,,,,,,,,,,,,,,,,,,,,,,,,,,,,,,,,,,,,,,,,,,,,,,,,,,,,,,,,,,,,,,,,,,,,,,,,,,,,,,,,,,,,,,,
1737282807.622468,1737282807.623359,119.000000,0.000000,4332.563965,4351.794922,4267.307617,4318.717773,4353.461426,4361.282227,4362.307617,4551.153809,4551.538574,4556.538574,4491.538574,5628.974121,4301.794922,4256.538574,0.000000,2.000000,37.000000,,,,0.000000,0.000000,0.000000,0.000000,0.000000,0.000000,0.000000,0.000000,0.000000,0.000000,0.000000,0.000000,0.000000,0.000000,0.000000,0.000000,,,,,,,,,,,,,,,,,,,,,,,,,,,,,,,,,,,,,,,,,,,,,,,,,,,,,,,,,,,,,,,,,,,,,,,,,,,,,,,,,,,,,,,,,,,,,,,,,,,,,,,,,,,,,,,,,,,,,,,,,,,,,,,,,
1737282807.630276,1737282807.631067,120.000000,0.000000,4326.794922,4351.025879,4265.512695,4319.230957,4353.077148,4362.948730,4364.743652,4552.051270,4548.589844,4560.384766,4492.436035,5625.384766,4301.538574,4251.922852,0.000000,2.000000,37.000000,,,,0.000000,0.000000,0.000000,0.000000,0.000000,0.000000,0.000000,0.000000,0.000000,0.000000,0.000000,0.000000,0.000000,0.000000,0.000000,0.000000,,,,,,,,,,,,,,,,,30.000000,0.000000,0.661332,-0.748413,0.036682,0.034241,-0.106458,-0.995239,-0.119155,15.329228,-31.478497,15.802104,,,,,,,,,,,,,,,,,,,,,,,,,,,,,,,,,,,,,,,,,,,,,,,,,,,,,,,,,,,,,,,,,,,,,,,,,,,,,,,,,,,,,,,,,,,,,,,,,,,,,
1737282807.638084,1737282807.638875,121.000000,0.000000,4326.666504,4348.077148,4266.538574,4317.307617,4352.820313,4363.333496,4364.743652,4553.461426,4547.563965,4556.794922,4493.717773,5625.128418,4299.743652,4255.256348,0.000000,2.000000,37.000000,,,,0.000000,0.000000,0.000000,0.000000,0.000000,0.000000,0.000000,0.000000,0.000000,0.000000,0.000000,0.000000,0.000000,0.000000,0.000000,0.000000,,,,,,,,,,,,,,,,,,,,,,,,,,,,,,,,,,,,,,,,,,,,,,,,,,,,,,,,,,,,,,,,,,,,,,,,,,,,,,,,,,,,,,,,,,,,,,,,,,,,,,,,,,,,,,,,,,,,,,,,,,,,,,,,,
1737282807.645893,1737282807.646583,122.000000,0.000000,4331.794922,4350.641113,4268.461426,4318.333496,4353.717773,4357.179688,4361.025879,4551.153809,4550.769043,4553.589844,4493.333496,5628.077148,4302.307617,4261.410156,0.000000,2.000000,37.000000,,,,0.000000,0.000000,0.000000,0.000000,0.000000,0.000000,0.000000,0.000000,0.000000,0.000000,0.000000,0.000000,0.000000,0.000000,0.000000,0.000000,,,,,,,,,,,,,,,,,,,,,,,,,,,,,,,,,,,,,,,,,,,,,,,,,,,,,,,,,,,,,,,,,,,,,,,,,,,,,,,,,,,,,,,,,,,,,,,,,,,,,,,,,,,,,,,,,,,,,,,,,,,,,,,,,
1737282807.653700,1737282807.654391,123.000000,0.000000,4327.948730,4348.589844,4260.000000,4316.282227,4352.179688,4356.794922,4365.256348,4552.051270,4553.077148,4556.410156,4489.743652,5621.922852,4301.282227,4254.871582,0.000000,2.000000,37.000000,,,,0.000000,0.000000,0.000000,0.000000,0.000000,0.000000,0.000000,0.000000,0.000000,0.000000,0.000000,0.000000,0.000000,0.000000,0.000000,0.000000,,,,,,,,,,,,,,,,,,,,,,,,,,,,,,,,,,,,,,,,,,,,,,,,,,,,,,,,,,,,,,,,,,,,,,,,,,,,,,,,,,,,,,,,,,,,,,,,,,,,,,,,,,,,,,,,,,,,,,,,,,,,,,,,,
1737282807.661509,1737282807.662099,124.000000,0.000000,4328.589844,4349.871582,4264.743652,4316.666504,4350.256348,4358.461426,4362.307617,4552.692383,4551.153809,4558.461426,4496.666504,5627.692383,4306.538574,4260.384766,0.000000,2.000000,37.000000,,,,0.000000,0.000000,0.000000,0.000000,0.000000,0.000000,0.000000,0.000000,0.000000,0.000000,0.000000,0.000000,0.000000,0.000000,0.000000,0.000000,,,,,,,,,,,,,,,,,31.000000,0.000000,0.661335,-0.748413,0.036621,0.034241,-0.102063,-0.970333,-0.109877,15.362972,-31.563980,15.821894,,,,,,,,,,,,,,,,,,,,,,,,,,,,,,,,0.765258,0.064670,0.030437,0.019883,0.018243,0.053913,0.039407,0.031827,0.022357,0.031032,0.036585,0.031292,0.019027,0.017447,0.022540,0.313675,0.050715,0.035805,0.016974,0.020710,0.088485,0.037746,0.038942,0.021576,0.017149,1.276701,0.129070,0.055380,0.049208,0.031323,3.163879,0.266640,0.071152,0.063188,0.036207,0.046617,0.019441,0.036944,0.030745,0.023016,0.561208,0.131806,0.031806,0.022659,0.036988,0.091476,0.020821,0.067157,0.046951,0.028794,0.855741,0.077233,0.048836,0.024194,0.033318,0.740694,0.098605,0.049485,0.025408,0.035898,9.155642,0.938757,0.224125,0.153520,0.043720,5.711366,0.573145,0.213308,0.126635,0.046157
1737282807.669317,1737282807.669907,125.000000,0.000000,4328.333496,4351.282227,4266.410156,4316.794922,4351.153809,4356.794922,4362.820313,4550.769043,4549.358887,4555.512695,4496.666504,5628.077148,4303.974121,4256.922852,0.000000,2.000000,37.000000,,,,0.000000,0.000000,0.000000,0.000000,0.000000,0.000000,0.000000,0.000000,0.000000,0.000000,0.000000,0.000000,0.000000,0.000000,0.000000,0.000000,,,,,,,,,,,,,,,,,,,,,,,,,,,,,,,,,,,,,,,,,,,,,,,,,,,,,,,,,,,,,,,,,,,,,,,,,,,,,,,,,,,,,,,,,,,,,,,,,,,,,,,,,,,,,,,,,,,,,,,,,,,,,,,,,
1737282807.677125,1737282807.677615,126.000000,0.000000,4329.102539,4351.410156,4262.307617,4316.666504,4353.589844,4356.538574,4364.871582,4550.128418,4550.384766,4553.717773,4490.769043,5626.282227,4301.025879,4258.205078,0.000000,2.000000,37.000000,,,,0.000000,0.000000,0.000000,0.000000,0.000000,0.000000,0.000000,0.000000,0.000000,0.000000,0.000000,0.000000,0.000000,0.000000,0.000000,0.000000,,,,,,,,,,,,,,,,,,,,,,,,,,,,,,,,,,,,,,,,,,,,,,,,,,,,,,,,,,,,,,,,,,,,,,,,,,,,,,,,,,,,,,,,,,,,,,,,,,,,,,,,,,,,,,,,,,,,,,,,,,,,,,,,,
1737282807.684933,1737282807.685423,127.000000,0.000000,4333.077148,4350.769043,4265.384766,4317.692383,4352.692383,4358.589844,4360.641113,4553.205078,4551.410156,4555.641113,4492.307617,5632.436035,4307.051270,4269.102539,37.000000,2.000000,37.000000,,,,0.000000,0.000000,0.000000,0.000000,0.000000,0.000000,0.000000,0.000000,0.000000,0.000000,0.000000,0.000000,0.000000,0.000000,0.000000,0.000000,,,,,,,,,,,,,,,,,,,,,,,,,,,,,,,,,,,,,,,,,,,,,,,,,,,,,,,,,,,,,,,,,,,,,,,,,,,,,,,,,,,,,,,,,,,,,,,,,,,,,,,,,,,,,,,,,,,,,,,,,,,,,,,,,
1737282807.692741,1737282807.693131,0.000000,0.000000,4330.000000,4348.589844,4264.743652,4316.794922,4350.897461,4359.871582,4361.666504,4555.512695,4550.128418,4555.897461,4492.179688,5626.666504,4306.153809,4262.179688,0.000000,2.000000,37.000000,,,,0.000000,0.000000,0.000000,0.000000,0.000000,0.000000,0.000000,0.000000,0.000000,0.000000,0.000000,0.000000,0.000000,0.000000,0.000000,0.000000,,,,,,,,,,,,,,,,,0.000000,0.000000,0.661342,-0.748413,0.036560,0.034180,-0.092296,-0.981565,-0.116225,15.443342,-31.590916,15.839705,,,,,,,,,,,,,,,,,,,,,,,,,,,,,,,,,,,,,,,,,,,,,,,,,,,,,,,,,,,,,,,,,,,,,,,,,,,,,,,,,,,,,,,,,,,,,,,,,,,,,
1737282807.700549,1737282807.700939,1.000000,0.000000,4332.948730,4351.410156,4268.205078,4317.948730,4352.436035,4356.666504,4359.487305,4552.436035,4546.922852,4556.025879,4497.051270,5627.692383,4308.717773,4267.820313,0.000000,2.000000,37.000000,,,,0.000000,0.000000,0.000000,0.000000,0.000000,0.000000,0.000000,0.000000,0.000000,0.000000,0.000000,0.000000,0.000000,0.000000,0.000000,0.000000,,,,,,,,,,,,,,,,,,,,,,,,,,,,,,,,,,,,,,,,,,,,,,,,,,,,,,,,,,,,,,,,,,,,,,,,,,,,,,,,,,,,,,,,,,,,,,,,,,,,,,,,,,,,,,,,,,,,,,,,,,,,,,,,,
1737282807.708357,1737282807.708647,2.000000,0.000000,4332.179688,4351.282227,4265.641113,4316.666504,4353.333496,4355.000000,4359.487305,4554.102539,4550.384766,4558.461426,4499.102539,5627.692383,4309.358887,4268.974121,0.000000,2.000000,37.000000,,,,0.000000,0.000000,0.000000,0.000000,0.000000,0.000000,0.000000,0.000000,0.000000,0.000000,0.000000,0.000000,0.000000,0.000000,0.000000,0.000000,,,,,,,,,,,,,,,,,,,,,,,,,,,,,,,,,,,,,,,,,,,,,,,,,,,,,,,,,,,,,,,,,,,,,,,,,,,,,,,,,,,,,,,,,,,,,,,,,,,,,,,,,,,,,,,,,,,,,,,,,,,,,,,,,
1737282807.716165,1737282807.716555,3.000000,0.000000,4329.871582,4352.179688,4262.307617,4314.358887,4352.948730,4354.487305,4359.615234,4556.282227,4555.897461,4558.333496,4496.153809,5625.641113,4310.000000,4263.205078,0.000000,2.000000,37.000000,,,,0.000000,0.000000,0.000000,0.000000,0.000000,0.000000,0.000000,0.000000,0.000000,0.000000,0.000000,0.000000,0.000000,0.000000,0.000000,0.000000,,,,,,,,,,,,,,,,,,,,,,,,,,,,,,,,,,,,,,,,,,,,,,,,,,,,,,,,,,,,,,,,,,,,,,,,,,,,,,,,,,,,,,,,,,,,,,,,,,,,,,,,,,,,,,,,,,,,,,,,,,,,,,,,,
1737282807.723973,1737282807.724363,4.000000,0.000000,4333.974121,4354.871582,4267.692383,4317.563965,4351.410156,4354.615234,4355.256348,4550.512695,4552.051270,4557.820313,4497.179688,5632.692383,4314.102539,4271.410156,0.000000,2.000000,37.000000,,,,0.000000,0.000000,0.000000,0.000000,0.000000,0.000000,0.000000,0.000000,0.000000,0.000000,0.000000,0.000000,0.000000,0.000000,0.000000,0.000000,,,,,,,,,,,,,,,,,1.000000,0.000000,0.661342,-0.748413,0.036560,0.034180,-0.105482,-0.975217,-0.119644,15.282341,-31.548491,15.955734,,,,,,,,,,,,,,,,,,,,,,,,,,,,,,,,,,,,,,,,,,,,,,,,,,,,,,,,,,,,,,,,,,,,,,,,,,,,,,,,,,,,,,,,,,,,,,,,,,,,,
1737282807.731781,1737282807.732271,5.000000,0.000000,4330.000000,4349.358887,4265.000000,4316.025879,4348.974121,4356.794922,4358.717773,4549.102539,4550.000000,4559.230957,4495.897461,5627.179688,4308.589844,4266.025879,0.000000,2.000000,37.000000,,,,0.000000,0.000000,0.000000,0.000000,0.000000,0.000000,0.000000,0.000000,0.000000,0.000000,0.000000,0.000000,0.000000,0.000000,0.000000,0.000000,,,,,,,,,,,,,,,,,,,,,,,,,,,,,,,,,,,,,,,,,,,,,,,,,,,,,,,,,,,,,,,,,,,,,,,,,,,,,,,,,,,,,,,,,,,,,,,,,,,,,,,,,,,,,,,,,,,,,,,,,,,,,,,,,
1737282807.739590,1737282807.740079,6.000000,0.000000,4331.153809,4349.871582,4267.436035,4316.538574,4351.538574,4355.641113,4356.153809,4551.666504,4552.051270,4559.358887,4498.974121,5627.692383,4314.230957,4269.487305,0.000000,2.000000,37.000000,,,,0.000000,0.000000,0.000000,0.000000,0.000000,0.000000,0.000000,0.000000,0.000000,0.000000,0.000000,0.000000,0.000000,0.000000,0.000000,0.000000,,,,,,,,,,,,,,,,,,,,,,,,,,,,,,,,,,,,,,,,,,,,,,,,,,,,,,,,,,,,,,,,,,,,,,,,,,,,,,,,,,,,,,,,,,,,,,,,,,,,,,,,,,,,,,,,,,,,,,,,,,,,,,,,,
1737282807.747398,1737282807.747987,7.000000,0.000000,4334.230957,4352.051270,4267.307617,4316.538574,4353.333496,4353.589844,4354.743652,4552.820313,4552.436035,4558.077148,4501.666504,5631.922852,4322.692383,4275.000000,0.000000,2.000000,37.000000,,,,0.000000,0.000000,0.000000,0.000000,0.000000,0.000000,0.000000,0.000000,0.000000,0.000000,0.000000,0.000000,0.000000,0.000000,0.000000,0.000000,,,,,,,,,,,,,,,,,,,,,,,,,,,,,,,,,,,,,,,,,,,,,,,,,,,,,,,,,,,,,,,,,,,,,,,,,,,,,,,,,,,,,,,,,,,,,,,,,,,,,,,,,,,,,,,,,,,,,,,,,,,,,,,,,
1737282807.755206,1737282807.755795,8.000000,0.000000,4334.358887,4351.922852,4261.025879,4312.948730,4348.846191,4350.512695,4355.384766,4554.230957,4556.153809,4560.000000,4498.461426,5628.461426,4325.384766,4273.846191,0.000000,2.000000,37.000000,,,,0.000000,0.000000,0.000000,0.000000,0.000000,0.000000,0.000000,0.000000,0.000000,0.000000,0.000000,0.000000,0.000000,0.000000,0.000000,0.000000,,,,,,,,,,,,,,,,,2.000000,0.000000,0.661273,-0.748474,0.036560,0.034180,-0.105970,-0.981077,-0.126969,15.237440,-31.393642,15.960160,,,,,,,,,,,,,,,,,,,,,,,,,,,,,,,,,,,,,,,,,,,,,,,,,,,,,,,,,,,,,,,,,,,,,,,,,,,,,,,,,,,,,,,,,,,,,,,,,,,,,
1737282807.763014,1737282807.763703,9.000000,0.000000,4337.692383,4355.128418,4266.666504,4313.974121,4348.333496,4348.846191,4346.794922,4556.794922,4558.333496,4561.538574,4500.641113,5634.230957,4335.128418,4285.128418,0.000000,2.000000,37.000000,,,,0.000000,0.000000,0.000000,0.000000,0.000000,0.000000,0.000000,0.000000,0.000000,0.000000,0.000000,0.000000,0.000000,0.000000,0.000000,0.000000,,,,,,,,,,,,,,,,,,,,,,,,,,,,,,,,,,,,,,,,,,,,,,,,,,,,,,,,,,,,,,,,,,,,,,,,,,,,,,,,,,,,,,,,,,,,,,,,,,,,,,,,,,,,,,,,,,,,,,,,,,,,,,,,,
1737282807.770822,1737282807.771511,10.000000,0.000000,4334.358887,4351.922852,4263.461426,4312.307617,4351.794922,4350.641113,4348.205078,4557.692383,4556.794922,4558.846191,4499.615234,5631.410156,4333.461426,4281.025879,0.000000,2.000000,37.000000,,,,0.000000,0.000000,0.000000,0.000000,0.000000,0.000000,0.000000,0.000000,0.000000,0.000000,0.000000,0.000000,0.000000,0.000000,0.000000,0.000000,,,,,,,,,,,,,,,,,,,,,,,,,,,,,,,,,,,,,,,,,,,,,,,,,,,,,,,,,,,,,,,,,,,,,,,,,,,,,,,,,,,,,,,,,,,,,,,,,,,,,,,,,,,,,,,,,,,,,,,,,,,,,,,,,
1737282807.778630,1737282807.779219,11.000000,0.000000,4334.487305,4352.051270,4260.641113,4314.487305,4351.666504,4348.717773,4350.256348,4552.948730,4557.820313,4559.230957,4500.641113,5630.897461,4332.179688,4282.051270,1.000000,2.000000,37.000000,,,,0.000000,0.000000,0.000000,0.000000,0.000000,0.000000,0.000000,0.000000,0.000000,0.000000,0.000000,0.000000,0.000000,0.000000,0.000000,0.000000,,,,,,,,,,,,,,,,,,,,,,,,,,,,,,,,,,,,,,,,,,,,,,,,,,,,,,,,,,,,,,,,,,,,,,,,,,,,,,,,,,,,,,,,,,,,,,,,,,,,,,,,,,,,,,,,,,,,,,,,,,,,,,,,,
1737282807.786438,1737282807.787027,12.000000,0.000000,4335.128418,4352.563965,4264.487305,4315.769043,4352.051270,4348.205078,4349.487305,4552.563965,4559.102539,4560.897461,4502.563965,5636.410156,4332.179688,4284.743652,0.000000,2.000000,37.000000,,,,0.000000,0.000000,0.000000,0.000000,0.000000,0.000000,0.000000,0.000000,0.000000,0.000000,0.000000,0.000000,0.000000,0.000000,0.000000,0.000000,,,,,,,,,,,,,,,,,3.000000,0.000000,0.661342,-0.748413,0.036560,0.034180,-0.102552,-0.982053,-0.114272,15.280363,-31.304277,16.130812,,,,,,,,,,,,,,,,,,,,,,,,,,,,,,,,0.810432,0.087538,0.029086,0.019645,0.019591,0.050133,0.042891,0.029801,0.027297,0.032228,0.061267,0.043378,0.019455,0.016715,0.022817,0.369608,0.048934,0.041978,0.018493,0.022502,0.104190,0.037021,0.035752,0.017655,0.014682,1.548629,0.160538,0.078213,0.053411,0.034606,3.642334,0.306974,0.100109,0.067664,0.038174,0.059002,0.019883,0.037396,0.030036,0.024649,0.624006,0.125475,0.030248,0.025219,0.035604,0.103727,0.027990,0.071644,0.040913,0.024978,0.963783,0.089438,0.049770,0.026341,0.033659,0.821807,0.103614,0.054520,0.029477,0.035210,10.619473,1.089719,0.291360,0.172865,0.047220,6.604645,0.690822,0.273266,0.131839,0.045344
1737282807.794246,1737282807.794735,13.000000,0.000000,4332.179688,4348.205078,4260.641113,4313.205078,4352.692383,4350.384766,4355.384766,4555.897461,4556.538574,4559.743652,4498.205078,5631.666504,4322.179688,4272.051270,0.000000,2.000000,37.000000,,,,0.000000,0.000000,0.000000,0.000000,0.000000,0.000000,0.000000,0.000000,0.000000,0.000000,0.000000,0.000000,0.000000,0.000000,0.000000,0.000000,,,,,,,,,,,,,,,,,,,,,,,,,,,,,,,,,,,,,,,,,,,,,,,,,,,,,,,,,,,,,,,,,,,,,,,,,,,,,,,,,,,,,,,,,,,,,,,,,,,,,,,,,,,,,,,,,,,,,,,,,,,,,,,,,
1737282807.802054,1737282807.802543,14.000000,0.000000,4337.051270,4351.410156,4262.948730,4316.666504,4351.025879,4348.717773,4353.717773,4551.666504,4556.282227,4560.000000,4500.512695,5633.333496,4320.897461,4275.897461,0.000000,2.000000,37.000000,,,,0.000000,0.000000,0.000000,0.000000,0.000000,0.000000,0.000000,0.000000,0.000000,0.000000,0.000000,0.000000,0.000000,0.000000,0.000000,0.000000,,,,,,,,,,,,,,,,,,,,,,,,,,,,,,,,,,,,,,,,,,,,,,,,,,,,,,,,,,,,,,,,,,,,,,,,,,,,,,,,,,,,,,,,,,,,,,,,,,,,,,,,,,,,,,,,,,,,,,,,,,,,,,,,,
1737282807.809862,1737282807.810251,15.000000,0.000000,4335.512695,4353.846191,4262.307617,4313.846191,4350.128418,4349.487305,4353.717773,4551.025879,4556.794922,4559.102539,4500.641113,5631.538574,4319.871582,4273.589844,1.000000,2.000000,37.000000,,,,0.000000,0.000000,0.000000,0.000000,0.000000,0.000000,0.000000,0.000000,0.000000,0.000000,0.000000,0.000000,0.000000,0.000000,0.000000,0.000000,,,,,,,,,,,,,,,,,,,,,,,,,,,,,,,,,,,,,,,,,,,,,,,,,,,,,,,,,,,,,,,,,,,,,,,,,,,,,,,,,,,,,,,,,,,,,,,,,,,,,,,,,,,,,,,,,,,,,,,,,,,,,,,,,
1737282807.817670,1737282807.818059,16.000000,0.000000,4331.538574,4355.128418,4264.743652,4311.666504,4351.922852,4354.743652,4355.641113,4556.153809,4552.820313,4555.512695,4498.333496,5630.512695,4319.615234,4269.358887,0.000000,2.000000,37.000000,,,,0.000000,0.000000,0.000000,0.000000,0.000000,0.000000,0.000000,0.000000,0.000000,0.000000,0.000000,0.000000,0.000000,0.000000,0.000000,0.000000,,,,,,,,,,,,,,,,,4.000000,0.000000,0.661272,-0.748474,0.036621,0.034119,-0.101575,-0.978147,-0.124039,15.402327,-31.407183,16.034397,,,,,,,,,,,,,,,,,,,,,,,,,,,,,,,,,,,,,,,,,,,,,,,,,,,,,,,,,,,,,,,,,,,,,,,,,,,,,,,,,,,,,,,,,,,,,,,,,,,,,
1737282807.825478,1737282807.825767,17.000000,0.000000,4332.179688,4354.102539,4268.461426,4317.179688,4353.461426,4355.512695,4359.230957,4555.384766,4552.820313,4555.769043,4495.897461,5629.743652,4315.384766,4268.205078,0.000000,2.000000,37.000000,,,,0.000000,0.000000,0.000000,0.000000,0.000000,0.000000,0.000000,0.000000,0.000000,0.000000,0.000000,0.000000,0.000000,0.000000,0.000000,0.000000,,,,,,,,,,,,,,,,,,,,,,,,,,,,,,,,,,,,,,,,,,,,,,,,,,,,,,,,,,,,,,,,,,,,,,,,,,,,,,,,,,,,,,,,,,,,,,,,,,,,,,,,,,,,,,,,,,,,,,,,,,,,,,,,,
1737282807.833287,1737282807.833675,18.000000,0.000000,4329.358887,4348.077148,4262.563965,4318.333496,4352.563965,4356.538574,4366.794922,4552.563965,4553.461426,4557.436035,4491.794922,5621.794922,4302.563965,4256.538574,0.000000,2.000000,37.000000,,,,0.000000,0.000000,0.000000,0.000000,0.000000,0.000000,0.000000,0.000000,0.000000,0.000000,0.000000,0.000000,0.000000,0.000000,0.000000,0.000000,,,,,,,,,,,,,,,,,,,,,,,,,,,,,,,,,,,,,,,,,,,,,,,,,,,,,,,,,,,,,,,,,,,,,,,,,,,,,,,,,,,,,,,,,,,,,,,,,,,,,,,,,,,,,,,,,,,,,,,,,,,,,,,,,
1737282807.841095,1737282807.841484,19.000000,0.000000,4332.436035,4350.384766,4266.410156,4318.974121,4351.922852,4360.384766,4362.563965,4552.692383,4549.615234,4558.461426,4497.563965,5630.128418,4303.333496,4260.641113,0.000000,2.000000,37.000000,,,,0.000000,0.000000,0.000000,0.000000,0.000000,0.000000,0.000000,0.000000,0.000000,0.000000,0.000000,0.000000,0.000000,0.000000,0.000000,0.000000,,,,,,,,,,,,,,,,,,,,,,,,,,,,,,,,,,,,,,,,,,,,,,,,,,,,,,,,,,,,,,,,,,,,,,,,,,,,,,,,,,,,,,,,,,,,,,,,,,,,,,,,,,,,,,,,,,,,,,,,,,,,,,,,,
1737282807.848903,1737282807.849392,20.000000,0.000000,4331.922852,4350.641113,4265.256348,4318.461426,4351.282227,4362.948730,4364.102539,4554.102539,4548.205078,4559.102539,4495.641113,5631.410156,4306.153809,4256.153809,0.000000,2.000000,37.000000,,,,0.000000,0.000000,0.000000,0.000000,0.000000,0.000000,0.000000,0.000000,0.000000,0.000000,0.000000,0.000000,0.000000,0.000000,0.000000,0.000000,,,,,,,,,,,,,,,,,5.000000,0.000000,0.661210,-0.748535,0.036560,0.034058,-0.102063,-0.988402,-0.120620,15.428761,-31.366465,16.147623,,,,,,,,,,,,,,,,,,,,,,,,,,,,,,,,,,,,,,,,,,,,,,,,,,,,,,,,,,,,,,,,,,,,,,,,,,,,,,,,,,,,,,,,,,,,,,,,,,,,,
1737282807.856711,1737282807.857200,21.000000,0.000000,4328.589844,4350.000000,4263.974121,4317.436035,4351.538574,4361.922852,4370.128418,4553.333496,4548.846191,4557.179688,4490.384766,5624.871582,4302.820313,4250.512695,0.000000,2.000000,37.000000,,,,0.000000,0.000000,0.000000,0.000000,0.000000,0.000000,0.000000,0.000000,0.000000,0.000000,0.000000,0.000000,0.000000,0.000000,0.000000,0.000000,,,,,,,,,,,,,,,,,,,,,,,,,,,,,,,,,,,,,,,,,,,,,,,,,,,,,,,,,,,,,,,,,,,,,,,,,,,,,,,,,,,,,,,,,,,,,,,,,,,,,,,,,,,,,,,,,,,,,,,,,,,,,,,,,
1737282807.864519,1737282807.865108,22.000000,0.000000,4330.000000,4354.487305,4269.358887,4317.820313,4352.179688,4360.128418,4367.179688,4552.307617,4548.333496,4556.153809,4493.589844,5627.307617,4297.820313,4258.333496,0.000000,2.000000,37.000000,,,,0.000000,0.000000,0.000000,0.000000,0.000000,0.000000,0.000000,0.000000,0.000000,0.000000,0.000000,0.000000,0.000000,0.000000,0.000000,0.000000,,,,,,,,,,,,,,,,,,,,,,,,,,,,,,,,,,,,,,,,,,,,,,,,,,,,,,,,,,,,,,,,,,,,,,,,,,,,,,,,,,,,,,,,,,,,,,,,,,,,,,,,,,,,,,,,,,,,,,,,,,,,,,,,,
1737282807.872327,1737282807.872916,23.000000,0.000000,4326.410156,4350.512695,4262.563965,4315.897461,4350.641113,4363.077148,4370.256348,4554.358887,4548.974121,4556.922852,4491.538574,5623.974121,4291.922852,4251.282227,0.000000,2.000000,37.000000,,,,0.000000,0.000000,0.000000,0.000000,0.000000,0.000000,0.000000,0.000000,0.000000,0.000000,0.000000,0.000000,0.000000,0.000000,0.000000,0.000000,,,,,,,,,,,,,,,,,,,,,,,,,,,,,,,,,,,,,,,,,,,,,,,,,,,,,,,,,,,,,,,,,,,,,,,,,,,,,,,,,,,,,,,,,,,,,,,,,,,,,,,,,,,,,,,,,,,,,,,,,,,,,,,,,
1737282807.880135,1737282807.880824,24.000000,0.000000,4328.717773,4349.230957,4263.205078,4318.974121,4350.641113,4362.179688,4370.256348,4553.717773,4549.615234,4555.897461,4492.820313,5626.410156,4297.563965,4254.743652,0.000000,2.000000,37.000000,,,,0.000000,0.000000,0.000000,0.000000,0.000000,0.000000,0.000000,0.000000,0.000000,0.000000,0.000000,0.000000,0.000000,0.000000,0.000000,0.000000,,,,,,,,,,,,,,,,,6.000000,0.000000,0.661276,-0.748474,0.036621,0.034058,-0.098157,-0.978635,-0.121597,15.369218,-31.363152,16.132862,,,,,,,,,,,,,,,,,,,,,,,,,,,,,,,,,,,,,,,,,,,,,,,,,,,,,,,,,,,,,,,,,,,,,,,,,,,,,,,,,,,,,,,,,,,,,,,,,,,,,
1737282807.887943,1737282807.888633,25.000000,0.000000,4330.897461,4351.153809,4265.641113,4320.128418,4352.563965,4357.948730,4368.589844,4553.846191,4547.307617,4554.358887,4493.717773,5625.384766,4297.307617,4256.666504,0.000000,2.000000,37.000000,,,,0.000000,0.000000,0.000000,0.000000,0.000000,0.000000,0.000000,0.000000,0.000000,0.000000,0.000000,0.000000,0.000000,0.000000,0.000000,0.000000,,,,,,,,,,,,,,,,,,,,,,,,,,,,,,,,,,,,,,,,,,,,,,,,,,,,,,,,,,,,,,,,,,,,,,,,,,,,,,,,,,,,,,,,,,,,,,,,,,,,,,,,,,,,,,,,,,,,,,,,,,,,,,,,,
1737282807.895751,1737282807.896441,26.000000,0.000000,4328.589844,4350.769043,4264.102539,4318.333496,4354.102539,4361.282227,4367.948730,4555.128418,4546.666504,4555.512695,4491.410156,5621.538574,4292.436035,4251.538574,0.000000,2.000000,37.000000,,,,0.000000,0.000000,0.000000,0.000000,0.000000,0.000000,0.000000,0.000000,0.000000,0.000000,0.000000,0.000000,0.000000,0.000000,0.000000,0.000000,,,,,,,,,,,,,,,,,,,,,,,,,,,,,,,,,,,,,,,,,,,,,,,,,,,,,,,,,,,,,,,,,,,,,,,,,,,,,,,,,,,,,,,,,,,,,,,,,,,,,,,,,,,,,,,,,,,,,,,,,,,,,,,,,
1737282807.903559,1737282807.904149,27.000000,0.000000,4329.358887,4354.871582,4268.333496,4323.589844,4353.205078,4364.871582,4362.692383,4552.307617,4548.589844,4556.794922,4494.487305,5627.051270,4297.179688,4260.512695,0.000000,2.000000,37.000000,,,,0.000000,0.000000,0.000000,0.000000,0.000000,0.000000,0.000000,0.000000,0.000000,0.000000,0.000000,0.000000,0.000000,0.000000,0.000000,0.000000,,,,,,,,,,,,,,,,,,,,,,,,,,,,,,,,,,,,,,,,,,,,,,,,,,,,,,,,,,,,,,,,,,,,,,,,,,,,,,,,,,,,,,,,,,,,,,,,,,,,,,,,,,,,,,,,,,,,,,,,,,,,,,,,,
1737282807.911368,1737282807.912057,28.000000,0.000000,4326.153809,4352.692383,4263.077148,4322.307617,4352.820313,4361.410156,4367.051270,4552.436035,4548.461426,4556.922852,4491.410156,5622.179688,4294.358887,4253.717773,0.000000,2.000000,37.000000,,,,0.000000,0.000000,0.000000,0.000000,0.000000,0.000000,0.000000,0.000000,0.000000,0.000000,0.000000,0.000000,0.000000,0.000000,0.000000,0.000000,,,,,,,,,,,,,,,,,7.000000,0.000000,0.661276,-0.748474,0.036621,0.034058,-0.099133,-0.993774,-0.118667,15.465630,-31.393503,16.052908,,,,,,,,,,,,,,,,,,,,,,,,,,,,,,,,0.811718,0.110987,0.029564,0.019856,0.021356,0.049328,0.048269,0.026270,0.032429,0.034537,0.094623,0.054915,0.025441,0.017373,0.023102,0.424277,0.047995,0.046740,0.019530,0.024325,0.119219,0.034570,0.029953,0.014245,0.012803,1.848357,0.206124,0.113345,0.054874,0.036502,4.104724,0.352934,0.141102,0.069726,0.039331,0.085739,0.021234,0.037473,0.030361,0.026250,0.670316,0.114351,0.031080,0.027114,0.032723,0.118583,0.038355,0.073727,0.035208,0.024155,1.039262,0.110350,0.053246,0.027391,0.033570,0.868851,0.112728,0.061783,0.031901,0.034069,11.924495,1.273044,0.382930,0.182500,0.051498,7.382862,0.842709,0.364865,0.130661,0.043813
1737282807.919176,1737282807.919865,29.000000,0.000000,4329.230957,4349.102539,4263.717773,4317.692383,4355.000000,4358.974121,4367.307617,4553.717773,4546.922852,4558.717773,4491.282227,5624.487305,4296.025879,4255.641113,0.000000,2.000000,37.000000,,,,0.000000,0.000000,0.000000,0.000000,0.000000,0.000000,0.000000,0.000000,0.000000,0.000000,0.000000,0.000000,0.000000,0.000000,0.000000,0.000000,,,,,,,,,,,,,,,,,,,,,,,,,,,,,,,,,,,,,,,,,,,,,,,,,,,,,,,,,,,,,,,,,,,,,,,,,,,,,,,,,,,,,,,,,,,,,,,,,,,,,,,,,,,,,,,,,,,,,,,,,,,,,,,,,
1737282807.926984,1737282807.927773,30.000000,0.000000,4332.436035,4350.000000,4268.974121,4316.410156,4351.666504,4361.538574,4363.846191,4554.487305,4546.666504,4556.025879,4492.948730,5627.948730,4300.128418,4261.538574,0.000000,2.000000,37.000000,,,,0.000000,0.000000,0.000000,0.000000,0.000000,0.000000,0.000000,0.000000,0.000000,0.000000,0.000000,0.000000,0.000000,0.000000,0.000000,0.000000,,,,,,,,,,,,,,,,,,,,,,,,,,,,,,,,,,,,,,,,,,,,,,,,,,,,,,,,,,,,,,,,,,,,,,,,,,,,,,,,,,,,,,,,,,,,,,,,,,,,,,,,,,,,,,,,,,,,,,,,,,,,,,,,,
1737282807.934792,1737282807.935581,31.000000,0.000000,4328.717773,4350.641113,4263.974121,4316.538574,4348.717773,4361.153809,4368.205078,4556.538574,4547.820313,4553.333496,4490.128418,5621.282227,4296.282227,4252.692383,0.000000,2.000000,37.000000,,,,0.000000,0.000000,0.000000,0.000000,0.000000,0.000000,0.000000,0.000000,0.000000,0.000000,0.000000,0.000000,0.000000,0.000000,0.000000,0.000000,,,,,,,,,,,,,,,,,,,,,,,,,,,,,,,,,,,,,,,,,,,,,,,,,,,,,,,,,,,,,,,,,,,,,,,,,,,,,,,,,,,,,,,,,,,,,,,,,,,,,,,,,,,,,,,,,,,,,,,,,,,,,,,,,
1737282807.942600,1737282807.943489,32.000000,0.000000,4330.256348,4351.282227,4265.384766,4321.922852,4353.205078,4359.230957,4367.179688,4553.717773,4550.000000,4558.205078,4492.051270,5625.384766,4298.846191,4257.820313,0.000000,2.000000,37.000000,,,,0.000000,0.000000,0.000000,0.000000,0.000000,0.000000,0.000000,0.000000,0.000000,0.000000,0.000000,0.000000,0.000000,0.000000,0.000000,0.000000,,,,,,,,,,,,,,,,,8.000000,0.000000,0.661272,-0.748474,0.036682,0.034058,-0.106458,-0.985960,-0.120132,15.552400,-31.320820,16.030951,,,,,,,,,,,,,,,,,,,,,,,,,,,,,,,,,,,,,,,,,,,,,,,,,,,,,,,,,,,,,,,,,,,,,,,,,,,,,,,,,,,,,,,,,,,,,,,,,,,,,
1737282807.950408,1737282807.951297,33.000000,0.000000,4328.846191,4348.077148,4267.692383,4322.563965,4355.000000,4363.974121,4368.589844,4550.256348,4552.820313,4557.820313,4490.384766,5625.256348,4295.256348,4255.641113,0.000000,2.000000,37.000000,,,,0.000000,0.000000,0.000000,0.000000,0.000000,0.000000,0.000000,0.000000,0.000000,0.000000,0.000000,0.000000,0.000000,0.000000,0.000000,0.000000,,,,,,,,,,,,,,,,,,,,,,,,,,,,,,,,,,,,,,,,,,,,,,,,,,,,,,,,,,,,,,,,,,,,,,,,,,,,,,,,,,,,,,,,,,,,,,,,,,,,,,,,,,,,,,,,,,,,,,,,,,,,,,,,,
1737282807.958216,1737282807.959105,34.000000,0.000000,4329.230957,4348.717773,4270.128418,4320.512695,4352.051270,4364.743652,4370.897461,4550.256348,4548.589844,4553.333496,4491.025879,5624.230957,4294.487305,4255.384766,0.000000,2.000000,37.000000,,,,0.000000,0.000000,0.000000,0.000000,0.000000,0.000000,0.000000,0.000000,0.000000,0.000000,0.000000,0.000000,0.000000,0.000000,0.000000,0.000000,,,,,,,,,,,,,,,,,,,,,,,,,,,,,,,,,,,,,,,,,,,,,,,,,,,,,,,,,,,,,,,,,,,,,,,,,,,,,,,,,,,,,,,,,,,,,,,,,,,,,,,,,,,,,,,,,,,,,,,,,,,,,,,,,
1737282807.966024,1737282807.966913,35.000000,0.000000,4328.461426,4348.846191,4268.205078,4319.358887,4351.922852,4361.025879,4370.641113,4551.410156,4542.948730,4554.615234,4494.615234,5625.128418,4298.461426,4257.563965,0.000000,2.000000,37.000000,,,,0.000000,0.000000,0.000000,0.000000,0.000000,0.000000,0.000000,0.000000,0.000000,0.000000,0.000000,0.000000,0.000000,0.000000,0.000000,0.000000,,,,,,,,,,,,,,,,,,,,,,,,,,,,,,,,,,,,,,,,,,,,,,,,,,,,,,,,,,,,,,,,,,,,,,,,,,,,,,,,,,,,,,,,,,,,,,,,,,,,,,,,,,,,,,,,,,,,,,,,,,,,,,,,,
1737282807.973832,1737282807.974621,36.000000,0.000000,4324.487305,4346.922852,4263.333496,4316.922852,4353.974121,4363.846191,4371.666504,4553.589844,4546.153809,4554.743652,4492.692383,5622.307617,4290.897461,4248.461426,0.000000,2.000000,37.000000,,,,0.000000,0.000000,0.000000,0.000000,0.000000,0.000000,0.000000,0.000000,0.000000,0.000000,0.000000,0.000000,0.000000,0.000000,0.000000,0.000000,,,,,,,,,,,,,,,,,9.000000,0.000000,0.661272,-0.748474,0.036682,0.034058,-0.096691,-0.972287,-0.129410,15.430493,-31.305405,15.961189,,,,,,,,,,,,,,,,,,,,,,,,,,,,,,,,,,,,,,,,,,,,,,,,,,,,,,,,,,,,,,,,,,,,,,,,,,,,,,,,,,,,,,,,,,,,,,,,,,,,,
1737282807.981640,1737282807.982429,37.000000,0.000000,4329.102539,4353.846191,4271.922852,4320.897461,4353.717773,4365.769043,4366.025879,4551.025879,4547.179688,4553.205078,4493.717773,5627.820313,4291.538574,4255.256348,0.000000,2.000000,37.000000,,,,0.000000,0.000000,0.000000,0.000000,0.000000,0.000000,0.000000,0.000000,0.000000,0.000000,0.000000,0.000000,0.000000,0.000000,0.000000,0.000000,,,,,,,,,,,,,,,,,,,,,,,,,,,,,,,,,,,,,,,,,,,,,,,,,,,,,,,,,,,,,,,,,,,,,,,,,,,,,,,,,,,,,,,,,,,,,,,,,,,,,,,,,,,,,,,,,,,,,,,,,,,,,,,,,
1737282807.989448,1737282807.990137,38.000000,0.000000,4326.538574,4352.563965,4271.666504,4321.025879,4352.692383,4362.436035,4368.717773,4548.205078,4544.358887,4555.256348,4488.846191,5622.051270,4291.666504,4251.025879,0.000000,2.000000,37.000000,,,,0.000000,0.000000,0.000000,0.000000,0.000000,0.000000,0.000000,0.000000,0.000000,0.000000,0.000000,0.000000,0.000000,0.000000,0.000000,0.000000,,,,,,,,,,,,,,,,,,,,,,,,,,,,,,,,,,,,,,,,,,,,,,,,,,,,,,,,,,,,,,,,,,,,,,,,,,,,,,,,,,,,,,,,,,,,,,,,,,,,,,,,,,,,,,,,,,,,,,,,,,,,,,,,,
1737282807.997256,1737282807.998045,39.000000,0.000000,4322.179688,4348.461426,4266.410156,4317.051270,4353.205078,4362.436035,4371.794922,4548.974121,4546.025879,4557.820313,4487.179688,5619.230957,4287.179688,4245.769043,0.000000,2.000000,37.000000,,,,0.000000,0.000000,0.000000,0.000000,0.000000,0.000000,0.000000,0.000000,0.000000,0.000000,0.000000,0.000000,0.000000,0.000000,0.000000,0.000000,,,,,,,,,,,,,,,,,,,,,,,,,,,,,,,,,,,,,,,,,,,,,,,,,,,,,,,,,,,,,,,,,,,,,,,,,,,,,,,,,,,,,,,,,,,,,,,,,,,,,,,,,,,,,,,,,,,,,,,,,,,,,,,,,
1737282808.005065,1737282808.005853,40.000000,0.000000,4327.563965,4352.179688,4270.000000,4318.461426,4355.256348,4365.897461,4368.205078,4551.410156,4546.410156,4556.025879,4492.051270,5627.436035,4287.820313,4255.256348,0.000000,2.000000,37.000000,,,,0.000000,0.000000,0.000000,0.000000,0.000000,0.000000,0.000000,0.000000,0.000000,0.000000,0.000000,0.000000,0.000000,0.000000,0.000000,0.000000,,,,,,,,,,,,,,,,,10.000000,0.000000,0.661269,-0.748474,0.036682,0.034119,-0.094738,-0.983030,-0.118667,15.504110,-31.224863,15.881737,,,,,,,,,,,,,,,,,,,,,,,,,,,,,,,,,,,,,,,,,,,,,,,,,,,,,,,,,,,,,,,,,,,,,,,,,,,,,,,,,,,,,,,,,,,,,,,,,,,,,
1737282808.012873,1737282808.013661,41.000000,0.000000,4326.666504,4349.743652,4268.974121,4321.922852,4354.615234,4365.256348,4371.153809,4553.333496,4544.230957,4552.692383,4486.410156,5621.666504,4284.487305,4250.000000,0.000000,2.000000,37.000000,,,,0.000000,0.000000,0.000000,0.000000,0.000000,0.000000,0.000000,0.000000,0.000000,0.000000,0.000000,0.000000,0.000000,0.000000,0.000000,0.000000,,,,,,,,,,,,,,,,,,,,,,,,,,,,,,,,,,,,,,,,,,,,,,,,,,,,,,,,,,,,,,,,,,,,,,,,,,,,,,,,,,,,,,,,,,,,,,,,,,,,,,,,,,,,,,,,,,,,,,,,,,,,,,,,,
1737282808.020681,1737282808.021370,42.000000,0.000000,4326.410156,4347.307617,4270.128418,4325.769043,4352.820313,4363.077148,4370.641113,4550.897461,4545.128418,4554.358887,4486.025879,5623.974121,4288.333496,4253.077148,0.000000,2.000000,37.000000,,,,0.000000,0.000000,0.000000,0.000000,0.000000,0.000000,0.000000,0.000000,0.000000,0.000000,0.000000,0.000000,0.000000,0.000000,0.000000,0.000000,,,,,,,,,,,,,,,,,,,,,,,,,,,,,,,,,,,,,,,,,,,,,,,,,,,,,,,,,,,,,,,,,,,,,,,,,,,,,,,,,,,,,,,,,,,,,,,,,,,,,,,,,,,,,,,,,,,,,,,,,,,,,,,,,
1737282808.028489,1737282808.029278,43.000000,0.000000,4326.153809,4346.922852,4264.743652,4320.000000,4353.077148,4366.666504,4370.256348,4551.922852,4546.794922,4555.641113,4490.641113,5624.871582,4289.615234,4254.487305,0.000000,2.000000,37.000000,,,,0.000000,0.000000,0.000000,0.000000,0.000000,0.000000,0.000000,0.000000,0.000000,0.000000,0.000000,0.000000,0.000000,0.000000,0.000000,0.000000,,,,,,,,,,,,,,,,,,,,,,,,,,,,,,,,,,,,,,,,,,,,,,,,,,,,,,,,,,,,,,,,,,,,,,,,,,,,,,,,,,,,,,,,,,,,,,,,,,,,,,,,,,,,,,,,,,,,,,,,,,,,,,,,,
1737282808.036297,1737282808.037086,44.000000,0.000000,4328.077148,4348.846191,4262.051270,4315.897461,4353.589844,4366.025879,4369.743652,4554.358887,4545.897461,4553.077148,4490.384766,5620.512695,4286.282227,4251.666504,0.000000,2.000000,37.000000,,,,0.000000,0.000000,0.000000,0.000000,0.000000,0.000000,0.000000,0.000000,0.000000,0.000000,0.000000,0.000000,0.000000,0.000000,0.000000,0.000000,1.000000,0.000000,0.000000,0.000000,0.000000,0.000000,0.000000,0.000000,0.000000,0.000000,0.000000,0.000000,0.000000,0.000000,0.000000,0.000000,11.000000,0.000000,0.661272,-0.748474,0.036621,0.034119,-0.111830,-0.976682,-0.117202,15.520366,-31.235710,16.060230,,,,,,,,,,,,,,,,,,,,,,,,,,,,,,,,0.781598,0.129506,0.031691,0.020447,0.023562,0.049953,0.054202,0.022191,0.036459,0.036612,0.129236,0.062744,0.035826,0.018488,0.023340,0.467337,0.048314,0.048830,0.019701,0.025851,0.131221,0.031512,0.023223,0.011953,0.011733,2.136975,0.259845,0.154124,0.054172,0.036158,4.506608,0.401682,0.187116,0.069015,0.039071,0.120930,0.023829,0.037210,0.031556,0.027781,0.695550,0.103877,0.034519,0.028029,0.029216,0.133472,0.049968,0.073278,0.030672,0.026319,1.080520,0.136429,0.057536,0.027684,0.033692,0.885043,0.125696,0.070568,0.031679,0.032183,12.939555,1.478358,0.485602,0.183428,0.056329,7.987644,1.015437,0.469009,0.123536,0.042174
1737282808.044105,1737282808.044894,45.000000,0.000000,4332.179688,4353.077148,4270.512695,4324.871582,4353.077148,4363.205078,4367.948730,4551.794922,4546.922852,4554.102539,4488.974121,5626.282227,4288.974121,4258.717773,0.000000,2.000000,37.000000,,,,0.000000,0.000000,0.000000,0.000000,0.000000,0.000000,0.000000,0.000000,0.000000,0.000000,0.000000,0.000000,0.000000,0.000000,0.000000,0.000000,,,,,,,,,,,,,,,,,,,,,,,,,,,,,,,,,,,,,,,,,,,,,,,,,,,,,,,,,,,,,,,,,,,,,,,,,,,,,,,,,,,,,,,,,,,,,,,,,,,,,,,,,,,,,,,,,,,,,,,,,,,,,,,,,
1737282808.051913,1737282808.052602,46.000000,0.000000,4326.025879,4348.077148,4266.794922,4327.179688,4351.538574,4365.384766,4372.563965,4552.436035,4548.846191,4557.820313,4486.153809,5622.436035,4285.000000,4249.743652,0.000000,2.000000,37.000000,,,,0.000000,0.000000,0.000000,0.000000,0.000000,0.000000,0.000000,0.000000,0.000000,0.000000,0.000000,0.000000,0.000000,0.000000,0.000000,0.000000,,,,,,,,,,,,,,,,,,,,,,,,,,,,,,,,,,,,,,,,,,,,,,,,,,,,,,,,,,,,,,,,,,,,,,,,,,,,,,,,,,,,,,,,,,,,,,,,,,,,,,,,,,,,,,,,,,,,,,,,,,,,,,,,,
1737282808.059721,1737282808.060410,47.000000,0.000000,4326.922852,4346.153809,4267.820313,4323.974121,4351.922852,4364.102539,4366.538574,4552.692383,4547.307617,4557.820313,4491.538574,5624.230957,4288.333496,4253.077148,0.000000,2.000000,37.000000,,,,0.000000,0.000000,0.000000,0.000000,0.000000,0.000000,0.000000,0.000000,0.000000,0.000000,0.000000,0.000000,0.000000,0.000000,0.000000,0.000000,,,,,,,,,,,,,,,,,,,,,,,,,,,,,,,,,,,,,,,,,,,,,,,,,,,,,,,,,,,,,,,,,,,,,,,,,,,,,,,,,,,,,,,,,,,,,,,,,,,,,,,,,,,,,,,,,,,,,,,,,,,,,,,,,
1737282808.067529,1737282808.068118,48.000000,0.000000,4330.128418,4347.179688,4272.948730,4320.641113,4352.307617,4363.846191,4364.743652,4550.256348,4547.051270,4553.205078,4491.410156,5626.538574,4291.282227,4257.948730,0.000000,2.000000,37.000000,,,,0.000000,0.000000,0.000000,0.000000,0.000000,0.000000,0.000000,0.000000,0.000000,0.000000,0.000000,0.000000,0.000000,0.000000,0.000000,0.000000,,,,,,,,,,,,,,,,,12.000000,0.000000,0.661348,-0.748413,0.036621,0.033997,-0.084971,-0.982542,-0.117690,15.351663,-31.178806,16.070873,,,,,,,,,,,,,,,,,,,,,,,,,,,,,,,,,,,,,,,,,,,,,,,,,,,,,,,,,,,,,,,,,,,,,,,,,,,,,,,,,,,,,,,,,,,,,,,,,,,,,
1737282808.075337,1737282808.075926,49.000000,0.000000,4327.307617,4348.333496,4269.230957,4318.717773,4352.820313,4367.436035,4371.794922,4548.333496,4547.948730,4552.179688,4486.282227,5621.025879,4288.461426,4250.256348,0.000000,2.000000,37.000000,,,,0.000000,0.000000,0.000000,0.000000,0.000000,0.000000,0.000000,0.000000,0.000000,0.000000,0.000000,0.000000,0.000000,0.000000,0.000000,0.000000,,,,,,,,,,,,,,,,,,,,,,,,,,,,,,,,,,,,,,,,,,,,,,,,,,,,,,,,,,,,,,,,,,,,,,,,,,,,,,,,,,,,,,,,,,,,,,,,,,,,,,,,,,,,,,,,,,,,,,,,,,,,,,,,,
1737282808.083146,1737282808.083634,50.000000,0.000000,4331.282227,4351.922852,4270.384766,4321.410156,4354.871582,4366.538574,4367.051270,4546.025879,4546.410156,4554.871582,4493.077148,5627.563965,4295.000000,4259.487305,0.000000,2.000000,37.000000,,,,0.000000,0.000000,0.000000,0.000000,0.000000,0.000000,0.000000,0.000000,0.000000,0.000000,0.000000,0.000000,0.000000,0.000000,0.000000,0.000000,,,,,,,,,,,,,,,,,,,,,,,,,,,,,,,,,,,,,,,,,,,,,,,,,,,,,,,,,,,,,,,,,,,,,,,,,,,,,,,,,,,,,,,,,,,,,,,,,,,,,,,,,,,,,,,,,,,,,,,,,,,,,,,,,
1737282808.090953,1737282808.091542,51.000000,0.000000,4328.589844,4347.820313,4266.538574,4320.256348,4354.230957,4363.589844,4368.077148,4549.487305,4547.820313,4555.000000,4495.897461,5626.410156,4294.871582,4257.692383,0.000000,2.000000,37.000000,,,,0.000000,0.000000,0.000000,0.000000,0.000000,0.000000,0.000000,0.000000,0.000000,0.000000,0.000000,0.000000,0.000000,0.000000,0.000000,0.000000,,,,,,,,,,,,,,,,,,,,,,,,,,,,,,,,,,,,,,,,,,,,,,,,,,,,,,,,,,,,,,,,,,,,,,,,,,,,,,,,,,,,,,,,,,,,,,,,,,,,,,,,,,,,,,,,,,,,,,,,,,,,,,,,,
1737282808.098762,1737282808.099351,52.000000,0.000000,4327.820313,4350.769043,4268.333496,4321.153809,4353.461426,4362.563965,4370.384766,4553.077148,4548.974121,4553.974121,4495.000000,5625.128418,4295.384766,4255.000000,0.000000,2.000000,37.000000,,,,0.000000,0.000000,0.000000,0.000000,0.000000,0.000000,0.000000,0.000000,0.000000,0.000000,0.000000,0.000000,0.000000,0.000000,0.000000,0.000000,,,,,,,,,,,,,,,,,13.000000,0.000000,0.661289,-0.748474,0.036499,0.033936,-0.100598,-0.991820,-0.111830,15.449830,-31.127592,16.047119,,,,,,,,,,,,,,,,,,,,,,,,,,,,,,,,,,,,,,,,,,,,,,,,,,,,,,,,,,,,,,,,,,,,,,,,,,,,,,,,,,,,,,,,,,,,,,,,,,,,,
1737282808.106570,1737282808.107259,53.000000,0.000000,4330.256348,4356.025879,4272.307617,4321.153809,4353.974121,4362.307617,4368.974121,4551.666504,4545.897461,4554.743652,4493.461426,5627.948730,4297.436035,4257.179688,0.000000,2.000000,37.000000,,,,0.000000,0.000000,0.000000,0.000000,0.000000,0.000000,0.000000,0.000000,0.000000,0.000000,0.000000,0.000000,0.000000,0.000000,0.000000,0.000000,,,,,,,,,,,,,,,,,,,,,,,,,,,,,,,,,,,,,,,,,,,,,,,,,,,,,,,,,,,,,,,,,,,,,,,,,,,,,,,,,,,,,,,,,,,,,,,,,,,,,,,,,,,,,,,,,,,,,,,,,,,,,,,,,
1737282808.114378,1737282808.115067,54.000000,0.000000,4328.461426,4350.384766,4267.051270,4318.589844,4353.461426,4362.820313,4370.512695,4549.230957,4545.384766,4554.102539,4490.384766,5623.333496,4295.384766,4254.487305,0.000000,2.000000,37.000000,,,,0.000000,0.000000,0.000000,0.000000,0.000000,0.000000,0.000000,0.000000,0.000000,0.000000,0.000000,0.000000,0.000000,0.000000,0.000000,0.000000,,,,,,,,,,,,,,,,,,,,,,,,,,,,,,,,,,,,,,,,,,,,,,,,,,,,,,,,,,,,,,,,,,,,,,,,,,,,,,,,,,,,,,,,,,,,,,,,,,,,,,,,,,,,,,,,,,,,,,,,,,,,,,,,,
1737282808.122186,1737282808.122975,55.000000,0.000000,4331.666504,4351.410156,4268.846191,4324.102539,4353.974121,4360.512695,4365.641113,4546.922852,4548.333496,4551.666504,4497.051270,5627.820313,4300.769043,4264.102539,0.000000,2.000000,37.000000,,,,0.000000,0.000000,0.000000,0.000000,0.000000,0.000000,0.000000,0.000000,0.000000,0.000000,0.000000,0.000000,0.000000,0.000000,0.000000,0.000000,,,,,,,,,,,,,,,,,,,,,,,,,,,,,,,,,,,,,,,,,,,,,,,,,,,,,,,,,,,,,,,,,,,,,,,,,,,,,,,,,,,,,,,,,,,,,,,,,,,,,,,,,,,,,,,,,,,,,,,,,,,,,,,,,
1737282808.129994,1737282808.130783,56.000000,0.000000,4329.230957,4349.871582,4265.769043,4323.717773,4353.589844,4358.333496,4369.743652,4550.641113,4550.384766,4553.077148,4495.512695,5627.051270,4299.615234,4257.692383,0.000000,2.000000,37.000000,,,,0.000000,0.000000,0.000000,0.000000,0.000000,0.000000,0.000000,0.000000,0.000000,0.000000,0.000000,0.000000,0.000000,0.000000,0.000000,0.000000,,,,,,,,,,,,,,,,,14.000000,0.000000,0.661289,-0.748474,0.036499,0.033936,-0.096203,-0.985960,-0.121597,15.454847,-31.181499,16.109074,,,,,,,,,,,,,,,,,,,,,,,,,,,,,,,,,,,,,,,,,,,,,,,,,,,,,,,,,,,,,,,,,,,,,,,,,,,,,,,,,,,,,,,,,,,,,,,,,,,,,
1737282808.137802,1737282808.138691,57.000000,0.000000,4328.846191,4344.487305,4265.897461,4317.948730,4351.922852,4361.410156,4371.282227,4554.487305,4550.897461,4557.051270,4490.128418,5626.153809,4300.000000,4255.384766,0.000000,2.000000,37.000000,,,,0.000000,0.000000,0.000000,0.000000,0.000000,0.000000,0.000000,0.000000,0.000000,0.000000,0.000000,0.000000,0.000000,0.000000,0.000000,0.000000,,,,,,,,,,,,,,,,,,,,,,,,,,,,,,,,,,,,,,,,,,,,,,,,,,,,,,,,,,,,,,,,,,,,,,,,,,,,,,,,,,,,,,,,,,,,,,,,,,,,,,,,,,,,,,,,,,,,,,,,,,,,,,,,,
1737282808.145610,1737282808.146499,58.000000,0.000000,4331.538574,4347.692383,4271.538574,4317.179688,4351.794922,4363.974121,4362.307617,4552.563965,4551.282227,4556.666504,4494.871582,5630.128418,4302.307617,4262.436035,0.000000,2.000000,37.000000,,,,0.000000,0.000000,0.000000,0.000000,0.000000,0.000000,0.000000,0.000000,0.000000,0.000000,0.000000,0.000000,0.000000,0.000000,0.000000,0.000000,,,,,,,,,,,,,,,,,,,,,,,,,,,,,,,,,,,,,,,,,,,,,,,,,,,,,,,,,,,,,,,,,,,,,,,,,,,,,,,,,,,,,,,,,,,,,,,,,,,,,,,,,,,,,,,,,,,,,,,,,,,,,,,,,
1737282808.153418,1737282808.154307,59.000000,0.000000,4327.820313,4350.000000,4266.153809,4320.000000,4353.717773,4362.051270,4366.025879,4551.410156,4550.384766,4556.922852,4493.974121,5623.461426,4295.897461,4254.487305,0.000000,2.000000,37.000000,,,,0.000000,0.000000,0.000000,0.000000,0.000000,0.000000,0.000000,0.000000,0.000000,0.000000,0.000000,0.000000,0.000000,0.000000,0.000000,0.000000,,,,,,,,,,,,,,,,,,,,,,,,,,,,,,,,,,,,,,,,,,,,,,,,,,,,,,,,,,,,,,,,,,,,,,,,,,,,,,,,,,,,,,,,,,,,,,,,,,,,,,,,,,,,,,,,,,,,,,,,,,,,,,,,,
1737282808.161226,1737282808.162115,60.000000,0.000000,4329.743652,4348.974121,4268.205078,4324.743652,4353.974121,4358.077148,4367.948730,4551.025879,4549.615234,4558.717773,4494.615234,5627.563965,4299.871582,4260.128418,0.000000,2.000000,37.000000,,,,0.000000,0.000000,0.000000,0.000000,0.000000,0.000000,0.000000,0.000000,0.000000,0.000000,0.000000,0.000000,0.000000,0.000000,0.000000,0.000000,,,,,,,,,,,,,,,,,15.000000,0.000000,0.661351,-0.748413,0.036560,0.033997,-0.104993,-0.981077,-0.114760,15.459362,-31.180016,16.198168,,,,,,,,,,,,,,,,,,,,,,,,,,,,,,,,0.732241,0.137841,0.034233,0.021220,0.025962,0.050073,0.058354,0.018557,0.039078,0.037094,0.155388,0.065634,0.047349,0.019396,0.023725,0.487499,0.049312,0.047506,0.019326,0.026892,0.136628,0.028789,0.017335,0.010785,0.011512,2.344763,0.309991,0.188741,0.052097,0.033836,4.751996,0.443293,0.225198,0.065855,0.037186,0.153551,0.027297,0.036848,0.033241,0.029399,0.697109,0.098097,0.038737,0.027960,0.026289,0.144576,0.059286,0.070150,0.027195,0.030392,1.079537,0.158959,0.059622,0.027767,0.034167,0.866829,0.138543,0.078127,0.028799,0.029505,13.457573,1.657641,0.571982,0.177564,0.060928,8.307670,1.169014,0.551824,0.112263,0.040870
1737282808.169034,1737282808.169823,61.000000,0.000000,4329.358887,4346.666504,4270.256348,4319.487305,4352.692383,4357.820313,4364.102539,4551.666504,4551.922852,4558.589844,4496.794922,5629.358887,4300.641113,4256.538574,0.000000,2.000000,37.000000,,,,0.000000,0.000000,0.000000,0.000000,0.000000,0.000000,0.000000,0.000000,0.000000,0.000000,0.000000,0.000000,0.000000,0.000000,0.000000,0.000000,,,,,,,,,,,,,,,,,,,,,,,,,,,,,,,,,,,,,,,,,,,,,,,,,,,,,,,,,,,,,,,,,,,,,,,,,,,,,,,,,,,,,,,,,,,,,,,,,,,,,,,,,,,,,,,,,,,,,,,,,,,,,,,,,
1737282808.176843,1737282808.177631,62.000000,0.000000,4328.846191,4349.358887,4268.589844,4314.358887,4353.589844,4360.256348,4360.641113,4549.615234,4552.692383,4558.846191,4494.615234,5625.512695,4297.179688,4251.666504,0.000000,2.000000,37.000000,,,,0.000000,0.000000,0.000000,0.000000,0.000000,0.000000,0.000000,0.000000,0.000000,0.000000,0.000000,0.000000,0.000000,0.000000,0.000000,0.000000,,,,,,,,,,,,,,,,,,,,,,,,,,,,,,,,,,,,,,,,,,,,,,,,,,,,,,,,,,,,,,,,,,,,,,,,,,,,,,,,,,,,,,,,,,,,,,,,,,,,,,,,,,,,,,,,,,,,,,,,,,,,,,,,,
1737282808.184651,1737282808.185339,63.000000,0.000000,4333.205078,4353.333496,4269.871582,4317.820313,4353.717773,4359.743652,4359.743652,4546.666504,4550.256348,4559.102539,4493.077148,5629.871582,4301.410156,4263.846191,0.000000,2.000000,37.000000,,,,0.000000,0.000000,0.000000,0.000000,0.000000,0.000000,0.000000,0.000000,0.000000,0.000000,0.000000,0.000000,0.000000,0.000000,0.000000,0.000000,,,,,,,,,,,,,,,,,,,,,,,,,,,,,,,,,,,,,,,,,,,,,,,,,,,,,,,,,,,,,,,,,,,,,,,,,,,,,,,,,,,,,,,,,,,,,,,,,,,,,,,,,,,,,,,,,,,,,,,,,,,,,,,,,
1737282808.192459,1737282808.193147,64.000000,0.000000,4331.025879,4349.230957,4264.358887,4318.205078,4352.820313,4359.871582,4364.743652,4550.512695,4547.948730,4555.128418,4492.179688,5626.153809,4298.974121,4257.563965,0.000000,2.000000,37.000000,,,,0.000000,0.000000,0.000000,0.000000,0.000000,0.000000,0.000000,0.000000,0.000000,0.000000,0.000000,0.000000,0.000000,0.000000,0.000000,0.000000,,,,,,,,,,,,,,,,,16.000000,0.000000,0.661351,-0.748413,0.036560,0.033997,-0.091808,-0.984984,-0.121597,15.296760,-31.095348,16.161684,,,,,,,,,,,,,,,,,,,,,,,,,,,,,,,,,,,,,,,,,,,,,,,,,,,,,,,,,,,,,,,,,,,,,,,,,,,,,,,,,,,,,,,,,,,,,,,,,,,,,
1737282808.200267,1737282808.200855,65.000000,0.000000,4330.897461,4350.897461,4266.922852,4319.230957,4352.948730,4359.743652,4361.666504,4553.589844,4547.179688,4554.615234,4496.794922,5630.384766,4302.307617,4258.717773,0.000000,2.000000,37.000000,,,,0.000000,0.000000,0.000000,0.000000,0.000000,0.000000,0.000000,0.000000,0.000000,0.000000,0.000000,0.000000,0.000000,0.000000,0.000000,0.000000,,,,,,,,,,,,,,,,,,,,,,,,,,,,,,,,,,,,,,,,,,,,,,,,,,,,,,,,,,,,,,,,,,,,,,,,,,,,,,,,,,,,,,,,,,,,,,,,,,,,,,,,,,,,,,,,,,,,,,,,,,,,,,,,,
1737282808.208075,1737282808.208663,66.000000,0.000000,4330.256348,4351.922852,4267.179688,4317.307617,4352.051270,4357.820313,4360.641113,4552.692383,4549.102539,4557.948730,4494.743652,5632.820313,4303.589844,4263.461426,0.000000,2.000000,37.000000,,,,0.000000,0.000000,0.000000,0.000000,0.000000,0.000000,0.000000,0.000000,0.000000,0.000000,0.000000,0.000000,0.000000,0.000000,0.000000,0.000000,,,,,,,,,,,,,,,,,,,,,,,,,,,,,,,,,,,,,,,,,,,,,,,,,,,,,,,,,,,,,,,,,,,,,,,,,,,,,,,,,,,,,,,,,,,,,,,,,,,,,,,,,,,,,,,,,,,,,,,,,,,,,,,,,
1737282808.215883,1737282808.216371,67.000000,0.000000,4329.615234,4350.512695,4263.589844,4316.794922,4351.538574,4357.820313,4361.410156,4552.436035,4551.538574,4556.025879,4491.410156,5628.205078,4301.153809,4263.205078,0.000000,2.000000,37.000000,,,,0.000000,0.000000,0.000000,0.000000,0.000000,0.000000,0.000000,0.000000,0.000000,0.000000,0.000000,0.000000,0.000000,0.000000,0.000000,0.000000,,,,,,,,,,,,,,,,,,,,,,,,,,,,,,,,,,,,,,,,,,,,,,,,,,,,,,,,,,,,,,,,,,,,,,,,,,,,,,,,,,,,,,,,,,,,,,,,,,,,,,,,,,,,,,,,,,,,,,,,,,,,,,,,,
1737282808.223691,1737282808.224179,68.000000,0.000000,4334.102539,4352.563965,4269.358887,4322.307617,4351.922852,4359.743652,4359.487305,4550.641113,4550.512695,4552.948730,4497.692383,5631.153809,4306.538574,4270.641113,0.000000,2.000000,37.000000,,,,0.000000,0.000000,0.000000,0.000000,0.000000,0.000000,0.000000,0.000000,0.000000,0.000000,0.000000,0.000000,0.000000,0.000000,0.000000,0.000000,,,,,,,,,,,,,,,,,17.000000,0.000000,0.661354,-0.748413,0.036560,0.033936,-0.097180,-0.977170,-0.119644,15.317083,-31.019146,16.212181,,,,,,,,,,,,,,,,,,,,,,,,,,,,,,,,,,,,,,,,,,,,,,,,,,,,,,,,,,,,,,,,,,,,,,,,,,,,,,,,,,,,,,,,,,,,,,,,,,,,,
1737282808.231499,1737282808.231887,69.000000,0.000000,4328.333496,4349.358887,4264.615234,4318.077148,4351.794922,4362.563965,4365.897461,4548.717773,4550.000000,4554.871582,4498.717773,5626.025879,4300.769043,4262.051270,0.000000,2.000000,37.000000,,,,0.000000,0.000000,0.000000,0.000000,0.000000,0.000000,0.000000,0.000000,0.000000,0.000000,0.000000,0.000000,0.000000,0.000000,0.000000,0.000000,,,,,,,,,,,,,,,,,,,,,,,,,,,,,,,,,,,,,,,,,,,,,,,,,,,,,,,,,,,,,,,,,,,,,,,,,,,,,,,,,,,,,,,,,,,,,,,,,,,,,,,,,,,,,,,,,,,,,,,,,,,,,,,,,
1737282808.239307,1737282808.239695,70.000000,0.000000,4326.282227,4348.717773,4264.102539,4316.666504,4353.333496,4361.794922,4362.563965,4548.589844,4550.897461,4555.128418,4500.641113,5628.589844,4301.025879,4262.436035,0.000000,2.000000,37.000000,,,,0.000000,0.000000,0.000000,0.000000,0.000000,0.000000,0.000000,0.000000,0.000000,0.000000,0.000000,0.000000,0.000000,0.000000,0.000000,0.000000,,,,,,,,,,,,,,,,,,,,,,,,,,,,,,,,,,,,,,,,,,,,,,,,,,,,,,,,,,,,,,,,,,,,,,,,,,,,,,,,,,,,,,,,,,,,,,,,,,,,,,,,,,,,,,,,,,,,,,,,,,,,,,,,,
1737282808.247115,1737282808.247403,71.000000,0.000000,4331.282227,4349.615234,4269.102539,4320.641113,4353.974121,4358.717773,4358.717773,4549.871582,4550.128418,4552.563965,4498.461426,5633.461426,4309.102539,4269.615234,0.000000,2.000000,37.000000,,,,0.000000,0.000000,0.000000,0.000000,0.000000,0.000000,0.000000,0.000000,0.000000,0.000000,0.000000,0.000000,0.000000,0.000000,0.000000,0.000000,,,,,,,,,,,,,,,,,,,,,,,,,,,,,,,,,,,,,,,,,,,,,,,,,,,,,,,,,,,,,,,,,,,,,,,,,,,,,,,,,,,,,,,,,,,,,,,,,,,,,,,,,,,,,,,,,,,,,,,,,,,,,,,,,
1737282808.254923,1737282808.255211,72.000000,0.000000,4333.077148,4347.307617,4266.282227,4318.461426,4352.051270,4356.794922,4364.230957,4551.153809,4548.717773,4554.102539,4495.897461,5627.307617,4307.307617,4265.641113,0.000000,2.000000,37.000000,,,,0.000000,0.000000,0.000000,0.000000,0.000000,0.000000,0.000000,0.000000,0.000000,0.000000,0.000000,0.000000,0.000000,0.000000,0.000000,0.000000,,,,,,,,,,,,,,,,,18.000000,0.000000,0.661427,-0.748352,0.036438,0.033997,-0.108412,-0.980100,-0.120620,15.418709,-30.983898,16.007629,,,,,,,,,,,,,,,,,,,,,,,,,,,,,,,,,,,,,,,,,,,,,,,,,,,,,,,,,,,,,,,,,,,,,,,,,,,,,,,,,,,,,,,,,,,,,,,,,,,,,
1737282808.262731,1737282808.262919,73.000000,0.000000,4335.512695,4348.974121,4269.102539,4319.102539,4353.333496,4354.102539,4361.538574,4551.922852,4547.948730,4557.307617,4502.179688,5631.025879,4308.461426,4267.820313,0.000000,2.000000,37.000000,,,,0.000000,0.000000,0.000000,0.000000,0.000000,0.000000,0.000000,0.000000,0.000000,0.000000,0.000000,0.000000,0.000000,0.000000,0.000000,0.000000,,,,,,,,,,,,,,,,,,,,,,,,,,,,,,,,,,,,,,,,,,,,,,,,,,,,,,,,,,,,,,,,,,,,,,,,,,,,,,,,,,,,,,,,,,,,,,,,,,,,,,,,,,,,,,,,,,,,,,,,,,,,,,,,,
1737282808.270540,1737282808.270827,74.000000,0.000000,4331.282227,4353.205078,4267.051270,4317.948730,4354.487305,4352.692383,4359.487305,4553.333496,4549.871582,4555.512695,4496.922852,5628.589844,4308.846191,4260.000000,0.000000,2.000000,37.000000,,,,0.000000,0.000000,0.000000,0.000000,0.000000,0.000000,0.000000,0.000000,0.000000,0.000000,0.000000,0.000000,0.000000,0.000000,0.000000,0.000000,,,,,,,,,,,,,,,,,,,,,,,,,,,,,,,,,,,,,,,,,,,,,,,,,,,,,,,,,,,,,,,,,,,,,,,,,,,,,,,,,,,,,,,,,,,,,,,,,,,,,,,,,,,,,,,,,,,,,,,,,,,,,,,,,
1737282808.278348,1737282808.278636,75.000000,0.000000,4332.692383,4356.025879,4265.256348,4318.205078,4353.589844,4353.589844,4356.025879,4551.922852,4550.256348,4554.871582,4492.948730,5628.205078,4311.410156,4262.436035,0.000000,2.000000,37.000000,,,,0.000000,0.000000,0.000000,0.000000,0.000000,0.000000,0.000000,0.000000,0.000000,0.000000,0.000000,0.000000,0.000000,0.000000,0.000000,0.000000,,,,,,,,,,,,,,,,,,,,,,,,,,,,,,,,,,,,,,,,,,,,,,,,,,,,,,,,,,,,,,,,,,,,,,,,,,,,,,,,,,,,,,,,,,,,,,,,,,,,,,,,,,,,,,,,,,,,,,,,,,,,,,,,,
1737282808.286156,1737282808.286544,76.000000,0.000000,4335.128418,4351.410156,4267.179688,4321.410156,4353.205078,4354.487305,4354.487305,4550.769043,4549.102539,4555.641113,4497.051270,5630.769043,4312.820313,4269.487305,0.000000,2.000000,37.000000,,,,0.000000,0.000000,0.000000,0.000000,0.000000,0.000000,0.000000,0.000000,0.000000,0.000000,0.000000,0.000000,0.000000,0.000000,0.000000,0.000000,,,,,,,,,,,,,,,,,19.000000,0.000000,0.661493,-0.748291,0.036499,0.033997,-0.104505,-0.978635,-0.120132,15.443504,-31.018843,16.090200,,,,,,,,,,,,,,,,,,,,,,,,,,,,,,,,0.668832,0.133275,0.035488,0.021898,0.028053,0.047213,0.058761,0.015714,0.040631,0.035446,0.165436,0.064415,0.055709,0.019942,0.024585,0.474813,0.049337,0.043162,0.019255,0.027651,0.132575,0.026641,0.013224,0.010319,0.012047,2.399301,0.341993,0.205141,0.049188,0.030637,4.731675,0.461245,0.242090,0.060966,0.033929,0.172345,0.030906,0.036585,0.034960,0.031103,0.672916,0.096898,0.041108,0.027153,0.024890,0.148352,0.062643,0.064494,0.024419,0.034847,1.028147,0.168497,0.057320,0.027903,0.034662,0.814182,0.144670,0.080673,0.024261,0.026412,13.239993,1.740166,0.610548,0.166442,0.064048,8.209906,1.248491,0.579848,0.098811,0.039998
1737282808.293964,1737282808.294352,77.000000,0.000000,4329.487305,4346.922852,4267.948730,4320.000000,4353.077148,4353.333496,4360.384766,4553.077148,4549.358887,4557.051270,4495.641113,5625.384766,4309.487305,4261.538574,0.000000,2.000000,37.000000,,,,0.000000,0.000000,0.000000,0.000000,0.000000,0.000000,0.000000,0.000000,0.000000,0.000000,0.000000,0.000000,0.000000,0.000000,0.000000,0.000000,,,,,,,,,,,,,,,,,,,,,,,,,,,,,,,,,,,,,,,,,,,,,,,,,,,,,,,,,,,,,,,,,,,,,,,,,,,,,,,,,,,,,,,,,,,,,,,,,,,,,,,,,,,,,,,,,,,,,,,,,,,,,,,,,
