title:bread1, start timestamp:1738754036.723790, stop timestamp:1738754037.761550, headset type:EPOCX, headset serial:E50208A5, headset firmware:720, channels:168, sampling rate:eeg_128;mot_32;pm_0.1;pow_8, samples:134       , version:2.2, 
Timestamp,EEG.Counter,EEG.Interpolated,EEG.AF3,EEG.F7,EEG.F3,EEG.FC5,EEG.T7,EEG.P7,EEG.O1,EEG.O2,EEG.P8,EEG.T8,EEG.FC6,EEG.F4,EEG.F8,EEG.AF4,EEG.RawCq,EEG.Battery,EEG.BatteryPercent,MarkerIndex,MarkerType,MarkerValueInt,EEG.MarkerHardware,CQ.AF3,CQ.F7,CQ.F3,CQ.FC5,CQ.T7,CQ.P7,CQ.O1,CQ.O2,CQ.P8,CQ.T8,CQ.FC6,CQ.F4,CQ.F8,CQ.AF4,CQ.Overall,EQ.SampleRateQuality,EQ.OVERALL,EQ.AF3,EQ.F7,EQ.F3,EQ.FC5,EQ.T7,EQ.P7,EQ.O1,EQ.O2,EQ.P8,EQ.T8,EQ.FC6,EQ.F4,EQ.F8,EQ.AF4,MOT.CounterMems,MOT.InterpolatedMems,MOT.Q0,MOT.Q1,MOT.Q2,MOT.Q3,MOT.AccX,MOT.AccY,MOT.AccZ,MOT.MagX,MOT.MagY,MOT.MagZ,PM.Attention.IsActive,PM.Attention.Scaled,PM.Attention.Raw,PM.Attention.Min,PM.Attention.Max,PM.Engagement.IsActive,PM.Engagement.Scaled,PM.Engagement.Raw,PM.Engagement.Min,PM.Engagement.Max,PM.Excitement.IsActive,PM.Excitement.Scaled,PM.Excitement.Raw,PM.Excitement.Min,PM.Excitement.Max,PM.LongTermExcitement,PM.Stress.IsActive,PM.Stress.Scaled,PM.Stress.Raw,PM.Stress.Min,PM.Stress.Max,PM.Relaxation.IsActive,PM.Relaxation.Scaled,PM.Relaxation.Raw,PM.Relaxation.Min,PM.Relaxation.Max,PM.Interest.IsActive,PM.Interest.Scaled,PM.Interest.Raw,PM.Interest.Min,PM.Interest.Max,POW.AF3.Theta,POW.AF3.Alpha,POW.AF3.BetaL,POW.AF3.BetaH,POW.AF3.Gamma,POW.F7.Theta,POW.F7.Alpha,POW.F7.BetaL,POW.F7.BetaH,POW.F7.Gamma,POW.F3.Theta,POW.F3.Alpha,POW.F3.BetaL,POW.F3.BetaH,POW.F3.Gamma,POW.FC5.Theta,POW.FC5.Alpha,POW.FC5.BetaL,POW.FC5.BetaH,POW.FC5.Gamma,POW.T7.Theta,POW.T7.Alpha,POW.T7.BetaL,POW.T7.BetaH,POW.T7.Gamma,POW.P7.Theta,POW.P7.Alpha,POW.P7.BetaL,POW.P7.BetaH,POW.P7.Gamma,POW.O1.Theta,POW.O1.Alpha,POW.O1.BetaL,POW.O1.BetaH,POW.O1.Gamma,POW.O2.Theta,POW.O2.Alpha,POW.O2.BetaL,POW.O2.BetaH,POW.O2.Gamma,POW.P8.Theta,POW.P8.Alpha,POW.P8.BetaL,POW.P8.BetaH,POW.P8.Gamma,POW.T8.Theta,POW.T8.Alpha,POW.T8.BetaL,POW.T8.BetaH,POW.T8.Gamma,POW.FC6.Theta,POW.FC6.Alpha,POW.FC6.BetaL,POW.FC6.BetaH,POW.FC6.Gamma,POW.F4.Theta,POW.F4.Alpha,POW.F4.BetaL,POW.F4.BetaH,POW.F4.Gamma,POW.F8.Theta,POW.F8.Alpha,POW.F8.BetaL,POW.F8.BetaH,POW.F8.Gamma,POW.AF4.Theta,POW.AF4.Alpha,POW.AF4.BetaL,POW.AF4.BetaH,POW.AF4.Gamma
1738754036.723790,114.000000,0.000000,4235.897461,4267.307617,4169.230957,4216.025879,4265.769043,4275.000000,4278.333496,4464.615234,4456.666504,4476.538574,4415.897461,5614.871582,4229.358887,4171.153809,0.000000,4.000000,80.000000,,,,0.000000,0.000000,0.000000,0.000000,0.000000,0.000000,0.000000,0.000000,0.000000,0.000000,0.000000,0.000000,0.000000,0.000000,0.000000,0.000000,,,,,,,,,,,,,,,,,,,,,,,,,,,,,,,,,,,,,,,,,,,,,,,,,,,,,,,,,,,,,,,,,,,,,,,,,,,,,,,,,,,,,,,,,,,,,,,,,,,,,,,,,,,,,,,,,,,,,,,,,,,,,,,,,
1738754036.731697,115.000000,0.000000,4235.769043,4266.922852,4168.205078,4214.487305,4264.487305,4274.102539,4282.563965,4465.128418,4457.692383,4479.102539,4417.051270,5613.974121,4227.436035,4169.487305,0.000000,4.000000,80.000000,,,,0.000000,0.000000,0.000000,0.000000,0.000000,0.000000,0.000000,0.000000,0.000000,0.000000,0.000000,0.000000,0.000000,0.000000,0.000000,0.000000,,,,,,,,,,,,,,,,,,,,,,,,,,,,,,,,,,,,,,,,,,,,,,,,,,,,,,,,,,,,,,,,,,,,,,,,,,,,,,,,,,,,,,,,,,,,,,,,,,,,,,,,,,,,,,,,,,,,,,,,,,,,,,,,,
1738754036.739505,116.000000,0.000000,4235.769043,4264.102539,4169.102539,4220.256348,4265.000000,4273.717773,4285.769043,4468.846191,4456.794922,4478.717773,4416.666504,5617.051270,4218.077148,4166.153809,0.000000,4.000000,80.000000,,,,0.000000,0.000000,0.000000,0.000000,0.000000,0.000000,0.000000,0.000000,0.000000,0.000000,0.000000,0.000000,0.000000,0.000000,0.000000,0.000000,,,,,,,,,,,,,,,,,29.000000,0.000000,0.788359,-0.612610,-0.054321,0.015747,0.076670,-0.977170,0.226590,4.979955,-15.354976,21.674988,,,,,,,,,,,,,,,,,,,,,,,,,,,,,,,,,,,,,,,,,,,,,,,,,,,,,,,,,,,,,,,,,,,,,,,,,,,,,,,,,,,,,,,,,,,,,,,,,,,,,
1738754036.747413,117.000000,0.000000,4235.128418,4268.717773,4170.384766,4218.589844,4265.384766,4275.128418,4280.000000,4465.384766,4458.333496,4479.102539,4418.717773,5610.897461,4231.538574,4173.461426,0.000000,4.000000,80.000000,,,,0.000000,0.000000,0.000000,0.000000,0.000000,0.000000,0.000000,0.000000,0.000000,0.000000,0.000000,0.000000,0.000000,0.000000,0.000000,0.000000,,,,,,,,,,,,,,,,,,,,,,,,,,,,,,,,,,,,,,,,,,,,,,,,,,,,,,,,,,,,,,,,,,,,,,,,,,,,,,,,,,,,,,,,,,,,,,,,,,,,,,,,,,,,,,,,,,,,,,,,,,,,,,,,,
1738754036.755221,118.000000,0.000000,4238.589844,4264.743652,4166.666504,4217.948730,4264.358887,4276.410156,4282.948730,4467.051270,4456.153809,4477.307617,4416.153809,5614.743652,4222.563965,4169.230957,0.000000,4.000000,80.000000,,,,0.000000,0.000000,0.000000,0.000000,0.000000,0.000000,0.000000,0.000000,0.000000,0.000000,0.000000,0.000000,0.000000,0.000000,0.000000,0.000000,,,,,,,,,,,,,,,,,,,,,,,,,,,,,,,,,,,,,,,,,,,,,,,,,,,,,,,,,,,,,,,,,,,,,,,,,,,,,,,,,,,,,,,,,,,,,,,,,,,,,,,,,,,,,,,,,,,,,,,,,,,,,,,,,
1738754036.763129,119.000000,0.000000,4238.077148,4263.461426,4165.641113,4218.589844,4264.615234,4275.897461,4280.897461,4464.487305,4456.025879,4477.307617,4415.769043,5615.769043,4222.692383,4170.641113,0.000000,4.000000,80.000000,,,,0.000000,0.000000,0.000000,0.000000,0.000000,0.000000,0.000000,0.000000,0.000000,0.000000,0.000000,0.000000,0.000000,0.000000,0.000000,0.000000,,,,,,,,,,,,,,,,,,,,,,,,,,,,,,,,,,,,,,,,,,,,,,,,,,,,,,,,,,,,,,,,,,,,,,,,,,,,,,,,,,,,,,,,,,,,,,,,,,,,,,,,,,,,,,,,,,,,,,,,,,,,,,,,,
1738754036.770937,120.000000,0.000000,4237.307617,4267.563965,4171.538574,4220.512695,4266.025879,4275.000000,4280.897461,4462.436035,4456.025879,4479.230957,4416.794922,5615.000000,4228.589844,4173.589844,0.000000,4.000000,80.000000,,,,0.000000,0.000000,0.000000,0.000000,0.000000,0.000000,0.000000,0.000000,0.000000,0.000000,0.000000,0.000000,0.000000,0.000000,0.000000,0.000000,,,,,,,,,,,,,,,,,30.000000,0.000000,0.788361,-0.612610,-0.054321,0.015686,0.067879,-0.974728,0.236845,4.965293,-15.202811,21.724155,,,,,,,,,,,,,,,,,,,,,,,,,,,,,,,,,,,,,,,,,,,,,,,,,,,,,,,,,,,,,,,,,,,,,,,,,,,,,,,,,,,,,,,,,,,,,,,,,,,,,
1738754036.778645,121.000000,0.000000,4238.589844,4267.051270,4171.922852,4218.974121,4264.615234,4275.512695,4285.128418,4465.769043,4456.153809,4478.077148,4416.282227,5618.205078,4223.205078,4171.666504,0.000000,4.000000,80.000000,,,,0.000000,0.000000,0.000000,0.000000,0.000000,0.000000,0.000000,0.000000,0.000000,0.000000,0.000000,0.000000,0.000000,0.000000,0.000000,0.000000,,,,,,,,,,,,,,,,,,,,,,,,,,,,,,,,,,,,,,,,,,,,,,,,,,,,,,,,,,,,,,,,,,,,,,,,,,,,,,,,,,,,,,,,,,,,,,,,,,,,,,,,,,,,,,,,,,,,,,,,,,,,,,,,,
1738754036.786453,122.000000,0.000000,4234.230957,4268.333496,4167.307617,4213.205078,4262.820313,4275.897461,4278.589844,4461.538574,4461.282227,4477.307617,4417.051270,5612.820313,4232.307617,4178.333496,0.000000,4.000000,80.000000,,,,0.000000,0.000000,0.000000,0.000000,0.000000,0.000000,0.000000,0.000000,0.000000,0.000000,0.000000,0.000000,0.000000,0.000000,0.000000,0.000000,,,,,,,,,,,,,,,,,,,,,,,,,,,,,,,,,,,,,,,,,,,,,,,,,,,,,,,,,,,,,,,,,,,,,,,,,,,,,,,,,,,,,,,,,,,,,,,,,,,,,,,,,,,,,,,,,,,,,,,,,,,,,,,,,
1738754036.794361,123.000000,0.000000,4234.487305,4265.769043,4167.436035,4220.256348,4264.487305,4277.051270,4280.128418,4465.384766,4458.077148,4476.794922,4414.487305,5619.358887,4221.538574,4171.282227,0.000000,4.000000,80.000000,,,,0.000000,0.000000,0.000000,0.000000,0.000000,0.000000,0.000000,0.000000,0.000000,0.000000,0.000000,0.000000,0.000000,0.000000,0.000000,0.000000,,,,,,,,,,,,,,,,,,,,,,,,,,,,,,,,,,,,,,,,,,,,,,,,,,,,,,,,,,,,,,,,,,,,,,,,,,,,,,,,,,,,,,,,,,,,,,,,,,,,,,,,,,,,,,,,,,,,,,,,,,,,,,,,,
1738754036.802169,124.000000,0.000000,4237.692383,4265.512695,4170.769043,4221.282227,4266.666504,4278.461426,4281.538574,4466.282227,4456.153809,4477.436035,4416.153809,5620.128418,4222.179688,4171.025879,0.000000,4.000000,80.000000,,,,0.000000,0.000000,0.000000,0.000000,0.000000,0.000000,0.000000,0.000000,0.000000,0.000000,0.000000,0.000000,0.000000,0.000000,0.000000,0.000000,,,,,,,,,,,,,,,,,31.000000,0.000000,0.788313,-0.612671,-0.054321,0.015686,0.070321,-0.976193,0.230497,4.768764,-15.365863,21.768408,,,,,,,,,,,,,,,,,,,,,,,,,,,,,,,,,,,,,,,,,,,,,,,,,,,,,,,,,,,,,,,,,,,,,,,,,,,,,,,,,,,,,,,,,,,,,,,,,,,,,
1738754036.809877,125.000000,0.000000,4236.410156,4266.666504,4170.000000,4216.282227,4266.025879,4278.461426,4282.436035,4462.051270,4458.461426,4477.436035,4417.436035,5612.948730,4233.077148,4176.922852,0.000000,4.000000,80.000000,,,,0.000000,0.000000,0.000000,0.000000,0.000000,0.000000,0.000000,0.000000,0.000000,0.000000,0.000000,0.000000,0.000000,0.000000,0.000000,0.000000,,,,,,,,,,,,,,,,,,,,,,,,,,,,,,,,,,,,,,,,,,,,,,,,,,,,,,,,,,,,,,,,,,,,,,,,,,,,,,,,,,,,,,,,,,,,,,,,,,,,,,,,,,,,,,,,,,,,,,,,,,,,,,,,,
1738754036.817685,126.000000,0.000000,4235.000000,4263.333496,4167.307617,4219.871582,4264.871582,4277.948730,4286.794922,4466.282227,4455.512695,4478.077148,4414.230957,5618.974121,4221.282227,4170.769043,0.000000,4.000000,80.000000,,,,0.000000,0.000000,0.000000,0.000000,0.000000,0.000000,0.000000,0.000000,0.000000,0.000000,0.000000,0.000000,0.000000,0.000000,0.000000,0.000000,,,,,,,,,,,,,,,,,,,,,,,,,,,,,,,,,,,,,,,,,,,,,,,,,,,,,,,,,,,,0.030547,0.012584,0.011403,0.023983,0.032009,0.013030,0.021469,0.025532,0.020679,0.021976,0.021071,0.026458,0.022262,0.022318,0.030067,0.018890,0.027886,0.014155,0.027903,0.023201,0.016232,0.040539,0.022565,0.031273,0.041450,0.055581,0.023271,0.010506,0.032941,0.022763,0.021499,0.042536,0.015323,0.017604,0.022405,0.017916,0.032656,0.041054,0.019481,0.020545,0.035699,0.017082,0.021218,0.025213,0.039188,0.026784,0.039195,0.026789,0.031842,0.028281,0.017007,0.023829,0.032398,0.017086,0.033772,0.017110,0.016266,0.032426,0.030814,0.024620,0.036299,0.043881,0.053543,0.026565,0.022980,0.058272,0.014054,0.021658,0.034302,0.049516
1738754036.825393,127.000000,0.000000,4236.282227,4265.897461,4170.897461,4220.000000,4265.641113,4278.461426,4279.743652,4464.615234,4455.897461,4481.922852,4420.128418,5616.666504,4229.358887,4175.769043,80.000000,4.000000,80.000000,,,,0.000000,0.000000,0.000000,0.000000,0.000000,0.000000,0.000000,0.000000,0.000000,0.000000,0.000000,0.000000,0.000000,0.000000,0.000000,0.000000,,,,,,,,,,,,,,,,,,,,,,,,,,,,,,,,,,,,,,,,,,,,,,,,,,,,,,,,,,,,,,,,,,,,,,,,,,,,,,,,,,,,,,,,,,,,,,,,,,,,,,,,,,,,,,,,,,,,,,,,,,,,,,,,,
1738754036.833201,0.000000,0.000000,4238.077148,4264.358887,4174.615234,4221.282227,4265.641113,4276.410156,4280.256348,4466.153809,4454.871582,4479.871582,4422.179688,5618.333496,4227.692383,4175.256348,0.000000,4.000000,80.000000,,,,0.000000,0.000000,0.000000,0.000000,0.000000,0.000000,0.000000,0.000000,0.000000,0.000000,0.000000,0.000000,0.000000,0.000000,0.000000,0.000000,,,,,,,,,,,,,,,,,0.000000,0.000000,0.788309,-0.612671,-0.054382,0.015686,0.075204,-0.965450,0.232939,4.875221,-15.445944,21.708233,,,,,,,,,,,,,,,,,,,,,,,,,,,,,,,,,,,,,,,,,,,,,,,,,,,,,,,,,,,,,,,,,,,,,,,,,,,,,,,,,,,,,,,,,,,,,,,,,,,,,
1738754036.840909,1.000000,0.000000,4236.922852,4261.794922,4169.487305,4218.205078,4263.717773,4273.205078,4284.871582,4466.410156,4454.871582,4476.922852,4418.333496,5619.358887,4224.102539,4171.922852,0.000000,4.000000,80.000000,,,,0.000000,0.000000,0.000000,0.000000,0.000000,0.000000,0.000000,0.000000,0.000000,0.000000,0.000000,0.000000,0.000000,0.000000,0.000000,0.000000,,,,,,,,,,,,,,,,,,,,,,,,,,,,,,,,,,,,,,,,,,,,,,,,,,,,,,,,,,,,,,,,,,,,,,,,,,,,,,,,,,,,,,,,,,,,,,,,,,,,,,,,,,,,,,,,,,,,,,,,,,,,,,,,,
1738754036.848717,2.000000,0.000000,4237.948730,4265.128418,4166.410156,4213.461426,4264.230957,4277.436035,4283.589844,4462.948730,4456.666504,4477.436035,4418.589844,5616.153809,4233.974121,4174.487305,0.000000,4.000000,80.000000,,,,0.000000,0.000000,0.000000,0.000000,0.000000,0.000000,0.000000,0.000000,0.000000,0.000000,0.000000,0.000000,0.000000,0.000000,0.000000,0.000000,,,,,,,,,,,,,,,,,,,,,,,,,,,,,,,,,,,,,,,,,,,,,,,,,,,,,,,,,,,,,,,,,,,,,,,,,,,,,,,,,,,,,,,,,,,,,,,,,,,,,,,,,,,,,,,,,,,,,,,,,,,,,,,,,
1738754036.856425,3.000000,0.000000,4241.153809,4267.051270,4168.333496,4218.589844,4266.025879,4280.769043,4284.743652,4469.102539,4455.000000,4475.897461,4418.974121,5623.589844,4227.179688,4169.102539,0.000000,4.000000,80.000000,,,,0.000000,0.000000,0.000000,0.000000,0.000000,0.000000,0.000000,0.000000,0.000000,0.000000,0.000000,0.000000,0.000000,0.000000,0.000000,0.000000,,,,,,,,,,,,,,,,,,,,,,,,,,,,,,,,,,,,,,,,,,,,,,,,,,,,,,,,,,,,,,,,,,,,,,,,,,,,,,,,,,,,,,,,,,,,,,,,,,,,,,,,,,,,,,,,,,,,,,,,,,,,,,,,,
1738754036.864233,4.000000,0.000000,4237.820313,4269.615234,4168.333496,4218.333496,4265.256348,4278.077148,4279.871582,4468.717773,4458.846191,4478.589844,4422.692383,5616.922852,4233.846191,4174.487305,0.000000,4.000000,80.000000,,,,0.000000,0.000000,0.000000,0.000000,0.000000,0.000000,0.000000,0.000000,0.000000,0.000000,0.000000,0.000000,0.000000,0.000000,0.000000,0.000000,,,,,,,,,,,,,,,,,1.000000,0.000000,0.788257,-0.612732,-0.054443,0.015686,0.065926,-0.977170,0.230497,4.821032,-15.418015,21.720743,,,,,,,,,,,,,,,,,,,,,,,,,,,,,,,,,,,,,,,,,,,,,,,,,,,,,,,,,,,,,,,,,,,,,,,,,,,,,,,,,,,,,,,,,,,,,,,,,,,,,
1738754036.871941,5.000000,0.000000,4236.410156,4265.897461,4168.589844,4220.256348,4264.743652,4276.794922,4281.153809,4465.641113,4457.692383,4479.358887,4420.512695,5613.717773,4228.333496,4176.282227,0.000000,4.000000,80.000000,,,,0.000000,0.000000,0.000000,0.000000,0.000000,0.000000,0.000000,0.000000,0.000000,0.000000,0.000000,0.000000,0.000000,0.000000,0.000000,0.000000,,,,,,,,,,,,,,,,,,,,,,,,,,,,,,,,,,,,,,,,,,,,,,,,,,,,,,,,,,,,,,,,,,,,,,,,,,,,,,,,,,,,,,,,,,,,,,,,,,,,,,,,,,,,,,,,,,,,,,,,,,,,,,,,,
1738754036.879749,6.000000,0.000000,4237.948730,4264.487305,4167.307617,4222.692383,4267.051270,4276.794922,4285.128418,4466.153809,4455.897461,4477.051270,4416.666504,5617.563965,4221.153809,4172.307617,0.000000,4.000000,80.000000,,,,0.000000,0.000000,0.000000,0.000000,0.000000,0.000000,0.000000,0.000000,0.000000,0.000000,0.000000,0.000000,0.000000,0.000000,0.000000,0.000000,,,,,,,,,,,,,,,,,,,,,,,,,,,,,,,,,,,,,,,,,,,,,,,,,,,,,,,,,,,,,,,,,,,,,,,,,,,,,,,,,,,,,,,,,,,,,,,,,,,,,,,,,,,,,,,,,,,,,,,,,,,,,,,,,
1738754036.887457,7.000000,0.000000,4239.102539,4269.871582,4166.282227,4219.743652,4266.794922,4276.153809,4282.820313,4464.615234,4459.358887,4478.974121,4420.256348,5614.871582,4234.615234,4177.563965,0.000000,4.000000,80.000000,,,,0.000000,0.000000,0.000000,0.000000,0.000000,0.000000,0.000000,0.000000,0.000000,0.000000,0.000000,0.000000,0.000000,0.000000,0.000000,0.000000,,,,,,,,,,,,,,,,,,,,,,,,,,,,,,,,,,,,,,,,,,,,,,,,,,,,,,,,,,,,,,,,,,,,,,,,,,,,,,,,,,,,,,,,,,,,,,,,,,,,,,,,,,,,,,,,,,,,,,,,,,,,,,,,,
1738754036.895265,8.000000,0.000000,4240.384766,4264.743652,4166.666504,4222.563965,4264.743652,4277.563965,4285.128418,4468.333496,4455.641113,4479.230957,4420.000000,5622.051270,4227.948730,4171.153809,0.000000,4.000000,80.000000,,,,0.000000,0.000000,0.000000,0.000000,0.000000,0.000000,0.000000,0.000000,0.000000,0.000000,0.000000,0.000000,0.000000,0.000000,0.000000,0.000000,,,,,,,,,,,,,,,,,2.000000,0.000000,0.788200,-0.612793,-0.054565,0.015747,0.065438,-0.977170,0.236845,4.938929,-15.526215,21.815336,,,,,,,,,,,,,,,,,,,,,,,,,,,,,,,,,,,,,,,,,,,,,,,,,,,,,,,,,,,,,,,,,,,,,,,,,,,,,,,,,,,,,,,,,,,,,,,,,,,,,
1738754036.902973,9.000000,0.000000,4238.717773,4262.948730,4167.307617,4219.871582,4265.512695,4277.692383,4279.230957,4467.563965,4456.922852,4477.051270,4417.179688,5618.461426,4232.179688,4171.282227,0.000000,4.000000,80.000000,,,,0.000000,0.000000,0.000000,0.000000,0.000000,0.000000,0.000000,0.000000,0.000000,0.000000,0.000000,0.000000,0.000000,0.000000,0.000000,0.000000,,,,,,,,,,,,,,,,,,,,,,,,,,,,,,,,,,,,,,,,,,,,,,,,,,,,,,,,,,,,,,,,,,,,,,,,,,,,,,,,,,,,,,,,,,,,,,,,,,,,,,,,,,,,,,,,,,,,,,,,,,,,,,,,,
1738754036.910881,10.000000,0.000000,4237.948730,4266.410156,4170.641113,4217.563965,4265.000000,4276.025879,4279.358887,4466.666504,4460.897461,4477.563965,4415.641113,5613.333496,4231.538574,4174.230957,0.000000,4.000000,80.000000,,,,0.000000,0.000000,0.000000,0.000000,0.000000,0.000000,0.000000,0.000000,0.000000,0.000000,0.000000,0.000000,0.000000,0.000000,0.000000,0.000000,,,,,,,,,,,,,,,,,,,,,,,,,,,,,,,,,,,,,,,,,,,,,,,,,,,,,,,,,,,,,,,,,,,,,,,,,,,,,,,,,,,,,,,,,,,,,,,,,,,,,,,,,,,,,,,,,,,,,,,,,,,,,,,,,
1738754036.918689,11.000000,0.000000,4238.077148,4264.230957,4172.307617,4220.384766,4263.717773,4278.205078,4285.641113,4467.563965,4457.307617,4479.615234,4416.538574,5617.820313,4221.666504,4171.282227,0.000000,4.000000,80.000000,,,,0.000000,0.000000,0.000000,0.000000,0.000000,0.000000,0.000000,0.000000,0.000000,0.000000,0.000000,0.000000,0.000000,0.000000,0.000000,0.000000,,,,,,,,,,,,,,,,,,,,,,,,,,,,,,,,,,,,,,,,,,,,,,,,,,,,,,,,,,,,,,,,,,,,,,,,,,,,,,,,,,,,,,,,,,,,,,,,,,,,,,,,,,,,,,,,,,,,,,,,,,,,,,,,,
1738754036.926597,12.000000,0.000000,4236.794922,4265.256348,4171.922852,4218.589844,4267.051270,4280.512695,4280.384766,4464.743652,4455.000000,4479.615234,4418.077148,5617.307617,4233.974121,4177.051270,0.000000,4.000000,80.000000,,,,0.000000,0.000000,0.000000,0.000000,0.000000,0.000000,0.000000,0.000000,0.000000,0.000000,0.000000,0.000000,0.000000,0.000000,0.000000,0.000000,,,,,,,,,,,,,,,,,3.000000,0.000000,0.788157,-0.612854,-0.054504,0.015747,0.064949,-0.969845,0.237822,5.028369,-15.323593,21.750469,,,,,,,,,,,,,,,,,,,,,,,,,,,,,,,,,,,,,,,,,,,,,,,,,,,,,,,,,,,,,,,,,,,,,,,,,,,,,,,,,,,,,,,,,,,,,,,,,,,,,
1738754036.934405,13.000000,0.000000,4237.692383,4266.666504,4171.025879,4223.333496,4267.820313,4278.205078,4283.717773,4469.487305,4454.871582,4478.461426,4416.282227,5620.769043,4225.000000,4171.025879,0.000000,4.000000,80.000000,,,,0.000000,0.000000,0.000000,0.000000,0.000000,0.000000,0.000000,0.000000,0.000000,0.000000,0.000000,0.000000,0.000000,0.000000,0.000000,0.000000,,,,,,,,,,,,,,,,,,,,,,,,,,,,,,,,,,,,,,,,,,,,,,,,,,,,,,,,,,,,,,,,,,,,,,,,,,,,,,,,,,,,,,,,,,,,,,,,,,,,,,,,,,,,,,,,,,,,,,,,,,,,,,,,,
1738754036.942313,14.000000,0.000000,4237.307617,4269.487305,4171.025879,4223.077148,4265.897461,4276.922852,4284.487305,4466.282227,4456.153809,4479.871582,4418.846191,5617.436035,4224.487305,4171.282227,0.000000,4.000000,80.000000,,,,0.000000,0.000000,0.000000,0.000000,0.000000,0.000000,0.000000,0.000000,0.000000,0.000000,0.000000,0.000000,0.000000,0.000000,0.000000,0.000000,,,,,,,,,,,,,,,,,,,,,,,,,,,,,,,,,,,,,,,,,,,,,,,,,,,,,,,,,,,,0.026559,0.014462,0.011283,0.023878,0.030037,0.013260,0.018400,0.030104,0.023768,0.025752,0.024304,0.034230,0.019343,0.021399,0.032504,0.022015,0.026791,0.016435,0.025346,0.023348,0.018761,0.040998,0.016138,0.027834,0.038872,0.043285,0.026673,0.010270,0.029045,0.019544,0.022429,0.044075,0.013786,0.016804,0.023007,0.018633,0.034201,0.042564,0.019160,0.017778,0.030339,0.018752,0.024866,0.025825,0.042000,0.022240,0.027850,0.023647,0.034586,0.028016,0.015137,0.020338,0.031473,0.015993,0.032479,0.016666,0.018833,0.034172,0.032967,0.023448,0.039270,0.057440,0.062067,0.028119,0.024278,0.054651,0.012609,0.021474,0.033747,0.047645
1738754036.950121,15.000000,0.000000,4238.461426,4269.230957,4171.282227,4218.717773,4268.205078,4276.538574,4281.666504,4461.922852,4455.641113,4479.230957,4419.615234,5616.153809,4230.512695,4173.333496,0.000000,4.000000,80.000000,,,,0.000000,0.000000,0.000000,0.000000,0.000000,0.000000,0.000000,0.000000,0.000000,0.000000,0.000000,0.000000,0.000000,0.000000,0.000000,0.000000,,,,,,,,,,,,,,,,,,,,,,,,,,,,,,,,,,,,,,,,,,,,,,,,,,,,,,,,,,,,,,,,,,,,,,,,,,,,,,,,,,,,,,,,,,,,,,,,,,,,,,,,,,,,,,,,,,,,,,,,,,,,,,,,,
1738754036.958029,16.000000,0.000000,4239.487305,4264.358887,4169.358887,4220.256348,4269.358887,4276.922852,4286.538574,4468.846191,4455.897461,4479.102539,4417.820313,5619.358887,4220.384766,4164.358887,0.000000,4.000000,80.000000,,,,0.000000,0.000000,0.000000,0.000000,0.000000,0.000000,0.000000,0.000000,0.000000,0.000000,0.000000,0.000000,0.000000,0.000000,0.000000,0.000000,,,,,,,,,,,,,,,,,4.000000,0.000000,0.788167,-0.612854,-0.054382,0.015686,0.072763,-0.975705,0.236845,5.108866,-15.141233,21.775421,,,,,,,,,,,,,,,,,,,,,,,,,,,,,,,,,,,,,,,,,,,,,,,,,,,,,,,,,,,,,,,,,,,,,,,,,,,,,,,,,,,,,,,,,,,,,,,,,,,,,
1738754036.965837,17.000000,0.000000,4236.922852,4266.538574,4170.641113,4218.333496,4267.563965,4279.230957,4284.230957,4468.461426,4461.282227,4483.333496,4422.051270,5613.846191,4231.538574,4175.641113,0.000000,4.000000,80.000000,,,,0.000000,0.000000,0.000000,0.000000,0.000000,0.000000,0.000000,0.000000,0.000000,0.000000,0.000000,0.000000,0.000000,0.000000,0.000000,0.000000,,,,,,,,,,,,,,,,,,,,,,,,,,,,,,,,,,,,,,,,,,,,,,,,,,,,,,,,,,,,,,,,,,,,,,,,,,,,,,,,,,,,,,,,,,,,,,,,,,,,,,,,,,,,,,,,,,,,,,,,,,,,,,,,,
1738754036.973545,18.000000,0.000000,4238.589844,4264.743652,4173.589844,4220.512695,4267.179688,4279.871582,4283.589844,4466.025879,4458.589844,4483.589844,4419.615234,5620.256348,4228.846191,4177.051270,0.000000,4.000000,80.000000,,,,0.000000,0.000000,0.000000,0.000000,0.000000,0.000000,0.000000,0.000000,0.000000,0.000000,0.000000,0.000000,0.000000,0.000000,0.000000,0.000000,,,,,,,,,,,,,,,,,,,,,,,,,,,,,,,,,,,,,,,,,,,,,,,,,,,,,,,,,,,,,,,,,,,,,,,,,,,,,,,,,,,,,,,,,,,,,,,,,,,,,,,,,,,,,,,,,,,,,,,,,,,,,,,,,
1738754036.981353,19.000000,0.000000,4239.487305,4265.000000,4172.051270,4222.179688,4267.820313,4278.205078,4281.282227,4462.307617,4458.205078,4479.230957,4417.820313,5618.846191,4225.128418,4170.384766,0.000000,4.000000,80.000000,,,,0.000000,0.000000,0.000000,0.000000,0.000000,0.000000,0.000000,0.000000,0.000000,0.000000,0.000000,0.000000,0.000000,0.000000,0.000000,0.000000,,,,,,,,,,,,,,,,,,,,,,,,,,,,,,,,,,,,,,,,,,,,,,,,,,,,,,,,,,,,,,,,,,,,,,,,,,,,,,,,,,,,,,,,,,,,,,,,,,,,,,,,,,,,,,,,,,,,,,,,,,,,,,,,,
1738754036.989061,20.000000,0.000000,4237.820313,4267.436035,4170.641113,4219.743652,4267.692383,4278.589844,4281.794922,4464.871582,4461.282227,4477.051270,4422.307617,5614.230957,4230.128418,4175.256348,0.000000,4.000000,80.000000,,,,0.000000,0.000000,0.000000,0.000000,0.000000,0.000000,0.000000,0.000000,0.000000,0.000000,0.000000,0.000000,0.000000,0.000000,0.000000,0.000000,,,,,,,,,,,,,,,,,5.000000,0.000000,0.788112,-0.612915,-0.054504,0.015625,0.054694,-0.985472,0.233915,4.997979,-15.227110,21.864546,,,,,,,,,,,,,,,,,,,,,,,,,,,,,,,,,,,,,,,,,,,,,,,,,,,,,,,,,,,,,,,,,,,,,,,,,,,,,,,,,,,,,,,,,,,,,,,,,,,,,
1738754036.996869,21.000000,0.000000,4237.307617,4262.820313,4170.641113,4220.384766,4267.436035,4280.128418,4289.102539,4471.922852,4457.563965,4477.563965,4420.641113,5621.282227,4221.538574,4172.051270,0.000000,4.000000,80.000000,,,,0.000000,0.000000,0.000000,0.000000,0.000000,0.000000,0.000000,0.000000,0.000000,0.000000,0.000000,0.000000,0.000000,0.000000,0.000000,0.000000,,,,,,,,,,,,,,,,,,,,,,,,,,,,,,,,,,,,,,,,,,,,,,,,,,,,,,,,,,,,,,,,,,,,,,,,,,,,,,,,,,,,,,,,,,,,,,,,,,,,,,,,,,,,,,,,,,,,,,,,,,,,,,,,,
1738754037.004577,22.000000,0.000000,4238.205078,4267.051270,4170.897461,4221.794922,4265.769043,4282.563965,4284.871582,4467.179688,4461.538574,4478.461426,4421.025879,5613.333496,4230.641113,4176.025879,0.000000,4.000000,80.000000,,,,0.000000,0.000000,0.000000,0.000000,0.000000,0.000000,0.000000,0.000000,0.000000,0.000000,0.000000,0.000000,0.000000,0.000000,0.000000,0.000000,,,,,,,,,,,,,,,,,,,,,,,,,,,,,,,,,,,,,,,,,,,,,,,,,,,,,,,,,,,,,,,,,,,,,,,,,,,,,,,,,,,,,,,,,,,,,,,,,,,,,,,,,,,,,,,,,,,,,,,,,,,,,,,,,
1738754037.012385,23.000000,0.000000,4241.794922,4269.743652,4168.461426,4228.589844,4264.230957,4284.102539,4286.410156,4468.717773,4462.051270,4477.436035,4420.128418,5613.974121,4226.025879,4174.487305,0.000000,4.000000,80.000000,,,,0.000000,0.000000,0.000000,0.000000,0.000000,0.000000,0.000000,0.000000,0.000000,0.000000,0.000000,0.000000,0.000000,0.000000,0.000000,0.000000,,,,,,,,,,,,,,,,,,,,,,,,,,,,,,,,,,,,,,,,,,,,,,,,,,,,,,,,,,,,,,,,,,,,,,,,,,,,,,,,,,,,,,,,,,,,,,,,,,,,,,,,,,,,,,,,,,,,,,,,,,,,,,,,,
1738754037.020093,24.000000,0.000000,4240.256348,4266.282227,4164.230957,4225.512695,4266.666504,4281.666504,4286.666504,4469.871582,4458.717773,4480.641113,4416.794922,5617.820313,4221.410156,4170.641113,0.000000,4.000000,80.000000,,,,0.000000,0.000000,0.000000,0.000000,0.000000,0.000000,0.000000,0.000000,0.000000,0.000000,0.000000,0.000000,0.000000,0.000000,0.000000,0.000000,,,,,,,,,,,,,,,,,6.000000,0.000000,0.788069,-0.612976,-0.054382,0.015808,0.064461,-0.966427,0.237334,5.114848,-15.287732,21.844759,,,,,,,,,,,,,,,,,,,,,,,,,,,,,,,,,,,,,,,,,,,,,,,,,,,,,,,,,,,,,,,,,,,,,,,,,,,,,,,,,,,,,,,,,,,,,,,,,,,,,
1738754037.027901,25.000000,0.000000,4238.205078,4271.538574,4169.487305,4216.153809,4268.717773,4280.769043,4281.538574,4464.358887,4461.025879,4483.333496,4419.871582,5613.461426,4234.487305,4176.922852,0.000000,4.000000,80.000000,,,,0.000000,0.000000,0.000000,0.000000,0.000000,0.000000,0.000000,0.000000,0.000000,0.000000,0.000000,0.000000,0.000000,0.000000,0.000000,0.000000,,,,,,,,,,,,,,,,,,,,,,,,,,,,,,,,,,,,,,,,,,,,,,,,,,,,,,,,,,,,,,,,,,,,,,,,,,,,,,,,,,,,,,,,,,,,,,,,,,,,,,,,,,,,,,,,,,,,,,,,,,,,,,,,,
1738754037.035609,26.000000,0.000000,4238.717773,4271.794922,4171.794922,4219.871582,4266.794922,4282.436035,4284.230957,4469.487305,4458.461426,4478.974121,4420.384766,5619.615234,4225.512695,4171.025879,0.000000,4.000000,80.000000,,,,0.000000,0.000000,0.000000,0.000000,0.000000,0.000000,0.000000,0.000000,0.000000,0.000000,0.000000,0.000000,0.000000,0.000000,0.000000,0.000000,,,,,,,,,,,,,,,,,,,,,,,,,,,,,,,,,,,,,,,,,,,,,,,,,,,,,,,,,,,,,,,,,,,,,,,,,,,,,,,,,,,,,,,,,,,,,,,,,,,,,,,,,,,,,,,,,,,,,,,,,,,,,,,,,
1738754037.043417,27.000000,0.000000,4236.538574,4268.461426,4165.256348,4220.512695,4266.922852,4282.692383,4280.128418,4468.974121,4461.538574,4481.794922,4419.487305,5615.000000,4226.794922,4173.205078,0.000000,4.000000,80.000000,,,,0.000000,0.000000,0.000000,0.000000,0.000000,0.000000,0.000000,0.000000,0.000000,0.000000,0.000000,0.000000,0.000000,0.000000,0.000000,0.000000,,,,,,,,,,,,,,,,,,,,,,,,,,,,,,,,,,,,,,,,,,,,,,,,,,,,,,,,,,,,,,,,,,,,,,,,,,,,,,,,,,,,,,,,,,,,,,,,,,,,,,,,,,,,,,,,,,,,,,,,,,,,,,,,,
1738754037.051125,28.000000,0.000000,4238.589844,4266.410156,4166.025879,4219.102539,4269.230957,4281.410156,4281.025879,4468.846191,4463.589844,4483.589844,4418.205078,5613.846191,4226.794922,4175.512695,0.000000,4.000000,80.000000,,,,0.000000,0.000000,0.000000,0.000000,0.000000,0.000000,0.000000,0.000000,0.000000,0.000000,0.000000,0.000000,0.000000,0.000000,0.000000,0.000000,,,,,,,,,,,,,,,,,7.000000,0.000000,0.788068,-0.612976,-0.054382,0.015869,0.068856,-0.971310,0.234404,5.103363,-15.242292,21.993616,,,,,,,,,,,,,,,,,,,,,,,,,,,,,,,,,,,,,,,,,,,,,,,,,,,,,,,,,,,,,,,,,,,,,,,,,,,,,,,,,,,,,,,,,,,,,,,,,,,,,
1738754037.058933,29.000000,0.000000,4239.487305,4266.410156,4166.666504,4218.077148,4268.333496,4277.948730,4283.974121,4472.179688,4460.256348,4479.743652,4417.563965,5617.179688,4227.307617,4171.025879,0.000000,4.000000,80.000000,,,,0.000000,0.000000,0.000000,0.000000,0.000000,0.000000,0.000000,0.000000,0.000000,0.000000,0.000000,0.000000,0.000000,0.000000,0.000000,0.000000,,,,,,,,,,,,,,,,,,,,,,,,,,,,,,,,,,,,,,,,,,,,,,,,,,,,,,,,,,,,,,,,,,,,,,,,,,,,,,,,,,,,,,,,,,,,,,,,,,,,,,,,,,,,,,,,,,,,,,,,,,,,,,,,,
1738754037.066641,30.000000,0.000000,4236.794922,4269.871582,4165.384766,4217.051270,4268.589844,4276.794922,4278.333496,4467.692383,4461.282227,4481.025879,4420.641113,5614.230957,4240.256348,4177.820313,0.000000,4.000000,80.000000,,,,0.000000,0.000000,0.000000,0.000000,0.000000,0.000000,0.000000,0.000000,0.000000,0.000000,0.000000,0.000000,0.000000,0.000000,0.000000,0.000000,1.000000,0.000000,0.000000,0.000000,0.000000,0.000000,0.000000,0.000000,0.000000,0.000000,0.000000,0.000000,0.000000,0.000000,0.000000,0.000000,,,,,,,,,,,,,,,,,,,,,,,,,,,,,,,,,,,,,,,,,,,,0.023215,0.015834,0.012727,0.024158,0.027436,0.015555,0.019012,0.033758,0.026136,0.029653,0.027179,0.039766,0.016306,0.020851,0.035226,0.023771,0.028340,0.019889,0.024113,0.023907,0.021408,0.038865,0.011183,0.022787,0.035238,0.032726,0.029560,0.011959,0.025521,0.016536,0.023049,0.042922,0.013603,0.015726,0.024610,0.019283,0.031877,0.040814,0.017833,0.014644,0.025298,0.018572,0.028374,0.026315,0.043079,0.017576,0.018518,0.019888,0.035213,0.027651,0.013184,0.015303,0.029208,0.015629,0.031146,0.017027,0.021421,0.034160,0.034710,0.023274,0.039972,0.067683,0.065529,0.029362,0.027292,0.053890,0.014415,0.022397,0.033355,0.045512
1738754037.074549,31.000000,0.000000,4237.820313,4266.922852,4166.025879,4221.666504,4267.436035,4280.512695,4280.256348,4469.743652,4460.641113,4482.051270,4418.846191,5620.256348,4227.436035,4173.077148,0.000000,4.000000,80.000000,,,,0.000000,0.000000,0.000000,0.000000,0.000000,0.000000,0.000000,0.000000,0.000000,0.000000,0.000000,0.000000,0.000000,0.000000,0.000000,0.000000,,,,,,,,,,,,,,,,,,,,,,,,,,,,,,,,,,,,,,,,,,,,,,,,,,,,,,,,,,,,,,,,,,,,,,,,,,,,,,,,,,,,,,,,,,,,,,,,,,,,,,,,,,,,,,,,,,,,,,,,,,,,,,,,,
1738754037.082357,32.000000,0.000000,4237.692383,4268.461426,4166.538574,4217.948730,4266.538574,4284.743652,4280.128418,4469.102539,4461.666504,4482.179688,4420.641113,5614.871582,4229.871582,4171.153809,0.000000,4.000000,80.000000,,,,0.000000,0.000000,0.000000,0.000000,0.000000,0.000000,0.000000,0.000000,0.000000,0.000000,0.000000,0.000000,0.000000,0.000000,0.000000,0.000000,,,,,,,,,,,,,,,,,8.000000,0.000000,0.788023,-0.613037,-0.054321,0.015930,0.073739,-0.978147,0.236845,5.026360,-15.184730,21.760921,,,,,,,,,,,,,,,,,,,,,,,,,,,,,,,,,,,,,,,,,,,,,,,,,,,,,,,,,,,,,,,,,,,,,,,,,,,,,,,,,,,,,,,,,,,,,,,,,,,,,
1738754037.090165,33.000000,0.000000,4238.974121,4271.538574,4167.820313,4218.717773,4270.641113,4284.487305,4282.179688,4465.769043,4461.922852,4481.794922,4423.205078,5612.436035,4235.384766,4173.205078,0.000000,4.000000,80.000000,,,,0.000000,0.000000,0.000000,0.000000,0.000000,0.000000,0.000000,0.000000,0.000000,0.000000,0.000000,0.000000,0.000000,0.000000,0.000000,0.000000,,,,,,,,,,,,,,,,,,,,,,,,,,,,,,,,,,,,,,,,,,,,,,,,,,,,,,,,,,,,,,,,,,,,,,,,,,,,,,,,,,,,,,,,,,,,,,,,,,,,,,,,,,,,,,,,,,,,,,,,,,,,,,,,,
1738754037.097873,34.000000,0.000000,4239.230957,4266.025879,4162.051270,4220.769043,4269.743652,4281.794922,4283.974121,4468.974121,4462.948730,4481.794922,4421.025879,5617.948730,4229.487305,4166.538574,0.000000,4.000000,80.000000,,,,0.000000,0.000000,0.000000,0.000000,0.000000,0.000000,0.000000,0.000000,0.000000,0.000000,0.000000,0.000000,0.000000,0.000000,0.000000,0.000000,,,,,,,,,,,,,,,,,,,,,,,,,,,,,,,,,,,,,,,,,,,,,,,,,,,,,,,,,,,,,,,,,,,,,,,,,,,,,,,,,,,,,,,,,,,,,,,,,,,,,,,,,,,,,,,,,,,,,,,,,,,,,,,,,
1738754037.105781,35.000000,0.000000,4237.307617,4267.436035,4160.512695,4214.230957,4265.897461,4282.692383,4279.102539,4468.077148,4465.256348,4484.615234,4422.307617,5613.205078,4241.538574,4173.205078,0.000000,4.000000,80.000000,,,,0.000000,0.000000,0.000000,0.000000,0.000000,0.000000,0.000000,0.000000,0.000000,0.000000,0.000000,0.000000,0.000000,0.000000,0.000000,0.000000,,,,,,,,,,,,,,,,,,,,,,,,,,,,,,,,,,,,,,,,,,,,,,,,,,,,,,,,,,,,,,,,,,,,,,,,,,,,,,,,,,,,,,,,,,,,,,,,,,,,,,,,,,,,,,,,,,,,,,,,,,,,,,,,,
1738754037.113589,36.000000,0.000000,4238.846191,4268.205078,4165.769043,4218.461426,4266.282227,4282.436035,4284.487305,4470.769043,4459.615234,4482.179688,4419.102539,5615.512695,4230.000000,4173.205078,0.000000,4.000000,80.000000,,,,0.000000,0.000000,0.000000,0.000000,0.000000,0.000000,0.000000,0.000000,0.000000,0.000000,0.000000,0.000000,0.000000,0.000000,0.000000,0.000000,,,,,,,,,,,,,,,,,9.000000,0.000000,0.788065,-0.612976,-0.054382,0.015991,0.064949,-0.973752,0.231474,4.957057,-15.266257,21.934830,,,,,,,,,,,,,,,,,,,,,,,,,,,,,,,,,,,,,,,,,,,,,,,,,,,,,,,,,,,,,,,,,,,,,,,,,,,,,,,,,,,,,,,,,,,,,,,,,,,,,
1738754037.121496,37.000000,0.000000,4237.051270,4270.256348,4166.153809,4217.820313,4269.102539,4280.897461,4282.948730,4470.000000,4461.282227,4479.743652,4416.666504,5611.282227,4228.333496,4170.128418,0.000000,4.000000,80.000000,,,,0.000000,0.000000,0.000000,0.000000,0.000000,0.000000,0.000000,0.000000,0.000000,0.000000,0.000000,0.000000,0.000000,0.000000,0.000000,0.000000,,,,,,,,,,,,,,,,,,,,,,,,,,,,,,,,,,,,,,,,,,,,,,,,,,,,,,,,,,,,,,,,,,,,,,,,,,,,,,,,,,,,,,,,,,,,,,,,,,,,,,,,,,,,,,,,,,,,,,,,,,,,,,,,,
1738754037.129304,38.000000,0.000000,4236.538574,4275.128418,4164.358887,4215.769043,4272.179688,4282.436035,4280.897461,4467.563965,4465.769043,4483.974121,4420.000000,5608.589844,4237.307617,4172.820313,0.000000,4.000000,80.000000,,,,0.000000,0.000000,0.000000,0.000000,0.000000,0.000000,0.000000,0.000000,0.000000,0.000000,0.000000,0.000000,0.000000,0.000000,0.000000,0.000000,,,,,,,,,,,,,,,,,,,,,,,,,,,,,,,,,,,,,,,,,,,,,,,,,,,,,,,,,,,,,,,,,,,,,,,,,,,,,,,,,,,,,,,,,,,,,,,,,,,,,,,,,,,,,,,,,,,,,,,,,,,,,,,,,
1738754037.137212,39.000000,0.000000,4238.077148,4272.820313,4160.128418,4218.077148,4271.794922,4282.179688,4288.205078,4471.410156,4462.179688,4485.128418,4421.922852,5615.769043,4227.307617,4168.205078,0.000000,4.000000,80.000000,,,,0.000000,0.000000,0.000000,0.000000,0.000000,0.000000,0.000000,0.000000,0.000000,0.000000,0.000000,0.000000,0.000000,0.000000,0.000000,0.000000,,,,,,,,,,,,,,,,,,,,,,,,,,,,,,,,,,,,,,,,,,,,,,,,,,,,,,,,,,,,,,,,,,,,,,,,,,,,,,,,,,,,,,,,,,,,,,,,,,,,,,,,,,,,,,,,,,,,,,,,,,,,,,,,,
1738754037.145120,40.000000,0.000000,4238.461426,4272.948730,4162.948730,4214.358887,4273.077148,4282.563965,4284.743652,4469.487305,4462.307617,4481.922852,4422.436035,5612.692383,4235.384766,4175.384766,0.000000,4.000000,80.000000,,,,0.000000,0.000000,0.000000,0.000000,0.000000,0.000000,0.000000,0.000000,0.000000,0.000000,0.000000,0.000000,0.000000,0.000000,0.000000,0.000000,,,,,,,,,,,,,,,,,10.000000,0.000000,0.788061,-0.612976,-0.054443,0.015991,0.065438,-0.981565,0.246612,4.944685,-15.206298,22.008013,,,,,,,,,,,,,,,,,,,,,,,,,,,,,,,,,,,,,,,,,,,,,,,,,,,,,,,,,,,,,,,,,,,,,,,,,,,,,,,,,,,,,,,,,,,,,,,,,,,,,
1738754037.152928,41.000000,0.000000,4241.025879,4272.692383,4169.487305,4220.000000,4273.077148,4283.333496,4284.871582,4471.410156,4462.436035,4482.307617,4419.487305,5618.333496,4229.487305,4177.436035,0.000000,4.000000,80.000000,,,,0.000000,0.000000,0.000000,0.000000,0.000000,0.000000,0.000000,0.000000,0.000000,0.000000,0.000000,0.000000,0.000000,0.000000,0.000000,0.000000,,,,,,,,,,,,,,,,,,,,,,,,,,,,,,,,,,,,,,,,,,,,,,,,,,,,,,,,,,,,,,,,,,,,,,,,,,,,,,,,,,,,,,,,,,,,,,,,,,,,,,,,,,,,,,,,,,,,,,,,,,,,,,,,,
1738754037.160736,42.000000,0.000000,4238.333496,4272.051270,4163.333496,4220.897461,4269.871582,4280.256348,4284.871582,4472.179688,4463.461426,4484.358887,4419.487305,5617.307617,4227.307617,4173.461426,0.000000,4.000000,80.000000,,,,0.000000,0.000000,0.000000,0.000000,0.000000,0.000000,0.000000,0.000000,0.000000,0.000000,0.000000,0.000000,0.000000,0.000000,0.000000,0.000000,,,,,,,,,,,,,,,,,,,,,,,,,,,,,,,,,,,,,,,,,,,,,,,,,,,,,,,,,,,,,,,,,,,,,,,,,,,,,,,,,,,,,,,,,,,,,,,,,,,,,,,,,,,,,,,,,,,,,,,,,,,,,,,,,
1738754037.168444,43.000000,0.000000,4237.820313,4274.230957,4164.102539,4216.666504,4272.436035,4280.897461,4282.436035,4469.871582,4460.000000,4482.820313,4422.948730,5612.307617,4237.820313,4177.948730,0.000000,4.000000,80.000000,,,,0.000000,0.000000,0.000000,0.000000,0.000000,0.000000,0.000000,0.000000,0.000000,0.000000,0.000000,0.000000,0.000000,0.000000,0.000000,0.000000,,,,,,,,,,,,,,,,,,,,,,,,,,,,,,,,,,,,,,,,,,,,,,,,,,,,,,,,,,,,,,,,,,,,,,,,,,,,,,,,,,,,,,,,,,,,,,,,,,,,,,,,,,,,,,,,,,,,,,,,,,,,,,,,,
1738754037.176252,44.000000,0.000000,4241.025879,4271.153809,4171.025879,4219.743652,4274.102539,4285.512695,4287.051270,4471.666504,4455.128418,4481.025879,4419.487305,5620.769043,4227.948730,4173.461426,0.000000,4.000000,80.000000,,,,0.000000,0.000000,0.000000,0.000000,0.000000,0.000000,0.000000,0.000000,0.000000,0.000000,0.000000,0.000000,0.000000,0.000000,0.000000,0.000000,,,,,,,,,,,,,,,,,11.000000,0.000000,0.788014,-0.613037,-0.054443,0.015991,0.066903,-0.973263,0.227078,5.066883,-15.302335,21.840544,,,,,,,,,,,,,,,,,,,,,,,,,,,,,,,,,,,,,,,,,,,,,,,,,,,,,,,,,,,,,,,,,,,,,,,,,,,,,,,,,,,,,,,,,,,,,,,,,,,,,
1738754037.183960,45.000000,0.000000,4241.153809,4273.717773,4171.922852,4218.333496,4272.563965,4286.025879,4285.512695,4468.589844,4462.436035,4482.820313,4418.589844,5617.307617,4233.077148,4177.563965,0.000000,4.000000,80.000000,,,,0.000000,0.000000,0.000000,0.000000,0.000000,0.000000,0.000000,0.000000,0.000000,0.000000,0.000000,0.000000,0.000000,0.000000,0.000000,0.000000,,,,,,,,,,,,,,,,,,,,,,,,,,,,,,,,,,,,,,,,,,,,,,,,,,,,,,,,,,,,,,,,,,,,,,,,,,,,,,,,,,,,,,,,,,,,,,,,,,,,,,,,,,,,,,,,,,,,,,,,,,,,,,,,,
1738754037.191768,46.000000,0.000000,4243.846191,4275.128418,4172.436035,4221.666504,4271.282227,4283.461426,4286.153809,4471.794922,4461.025879,4484.230957,4419.743652,5619.871582,4228.077148,4177.948730,0.000000,4.000000,80.000000,,,,0.000000,0.000000,0.000000,0.000000,0.000000,0.000000,0.000000,0.000000,0.000000,0.000000,0.000000,0.000000,0.000000,0.000000,0.000000,0.000000,,,,,,,,,,,,,,,,,,,,,,,,,,,,,,,,,,,,,,,,,,,,,,,,,,,,,,,,,,,,0.020251,0.016748,0.015125,0.024963,0.024494,0.018856,0.023815,0.036449,0.027168,0.032727,0.030654,0.041589,0.013577,0.021128,0.037323,0.025130,0.031847,0.024377,0.023894,0.024811,0.023877,0.034306,0.008856,0.017522,0.031201,0.025243,0.031450,0.014551,0.022672,0.014157,0.023100,0.038080,0.015175,0.014493,0.027237,0.021535,0.026766,0.036017,0.016197,0.012008,0.022682,0.017132,0.030819,0.025756,0.041653,0.013845,0.012801,0.016651,0.033464,0.027210,0.013375,0.010549,0.025930,0.015655,0.029616,0.016990,0.023018,0.032894,0.035320,0.024342,0.039590,0.071550,0.062507,0.029989,0.031308,0.051396,0.019328,0.024433,0.033371,0.044141
1738754037.199476,47.000000,0.000000,4241.282227,4272.179688,4167.436035,4220.769043,4269.358887,4281.538574,4283.461426,4472.307617,4458.205078,4487.436035,4418.205078,5621.922852,4224.487305,4172.436035,0.000000,4.000000,80.000000,,,,0.000000,0.000000,0.000000,0.000000,0.000000,0.000000,0.000000,0.000000,0.000000,0.000000,0.000000,0.000000,0.000000,0.000000,0.000000,0.000000,,,,,,,,,,,,,,,,,,,,,,,,,,,,,,,,,,,,,,,,,,,,,,,,,,,,,,,,,,,,,,,,,,,,,,,,,,,,,,,,,,,,,,,,,,,,,,,,,,,,,,,,,,,,,,,,,,,,,,,,,,,,,,,,,
1738754037.207284,48.000000,0.000000,4239.230957,4274.487305,4166.282227,4216.794922,4271.025879,4284.743652,4279.487305,4467.692383,4462.179688,4487.436035,4420.384766,5618.077148,4238.205078,4180.384766,0.000000,4.000000,80.000000,,,,0.000000,0.000000,0.000000,0.000000,0.000000,0.000000,0.000000,0.000000,0.000000,0.000000,0.000000,0.000000,0.000000,0.000000,0.000000,0.000000,,,,,,,,,,,,,,,,,12.000000,0.000000,0.788014,-0.613037,-0.054443,0.015991,0.065926,-0.982542,0.239775,5.126862,-15.288768,21.789824,,,,,,,,,,,,,,,,,,,,,,,,,,,,,,,,,,,,,,,,,,,,,,,,,,,,,,,,,,,,,,,,,,,,,,,,,,,,,,,,,,,,,,,,,,,,,,,,,,,,,
1738754037.214992,49.000000,0.000000,4239.743652,4272.307617,4168.333496,4221.666504,4272.820313,4287.820313,4286.666504,4474.230957,4459.615234,4480.641113,4419.358887,5622.436035,4230.641113,4171.538574,0.000000,4.000000,80.000000,,,,0.000000,0.000000,0.000000,0.000000,0.000000,0.000000,0.000000,0.000000,0.000000,0.000000,0.000000,0.000000,0.000000,0.000000,0.000000,0.000000,,,,,,,,,,,,,,,,,,,,,,,,,,,,,,,,,,,,,,,,,,,,,,,,,,,,,,,,,,,,,,,,,,,,,,,,,,,,,,,,,,,,,,,,,,,,,,,,,,,,,,,,,,,,,,,,,,,,,,,,,,,,,,,,,
1738754037.222800,50.000000,0.000000,4234.358887,4273.717773,4164.871582,4218.974121,4269.615234,4285.128418,4285.641113,4472.436035,4461.538574,4481.410156,4419.230957,5612.307617,4236.922852,4169.358887,0.000000,4.000000,80.000000,,,,0.000000,0.000000,0.000000,0.000000,0.000000,0.000000,0.000000,0.000000,0.000000,0.000000,0.000000,0.000000,0.000000,0.000000,0.000000,0.000000,,,,,,,,,,,,,,,,,,,,,,,,,,,,,,,,,,,,,,,,,,,,,,,,,,,,,,,,,,,,,,,,,,,,,,,,,,,,,,,,,,,,,,,,,,,,,,,,,,,,,,,,,,,,,,,,,,,,,,,,,,,,,,,,,
1738754037.230508,51.000000,0.000000,4236.922852,4275.769043,4164.358887,4217.820313,4267.692383,4285.000000,4282.051270,4466.666504,4463.461426,4483.333496,4422.563965,5610.769043,4236.282227,4175.384766,0.000000,4.000000,80.000000,,,,0.000000,0.000000,0.000000,0.000000,0.000000,0.000000,0.000000,0.000000,0.000000,0.000000,0.000000,0.000000,0.000000,0.000000,0.000000,0.000000,,,,,,,,,,,,,,,,,,,,,,,,,,,,,,,,,,,,,,,,,,,,,,,,,,,,,,,,,,,,,,,,,,,,,,,,,,,,,,,,,,,,,,,,,,,,,,,,,,,,,,,,,,,,,,,,,,,,,,,,,,,,,,,,,
1738754037.238416,52.000000,0.000000,4238.205078,4270.384766,4157.820313,4214.615234,4271.025879,4283.461426,4278.589844,4468.589844,4464.871582,4481.538574,4420.128418,5613.589844,4229.743652,4165.769043,0.000000,4.000000,80.000000,,,,0.000000,0.000000,0.000000,0.000000,0.000000,0.000000,0.000000,0.000000,0.000000,0.000000,0.000000,0.000000,0.000000,0.000000,0.000000,0.000000,,,,,,,,,,,,,,,,,13.000000,0.000000,0.788114,-0.612915,-0.054382,0.015930,0.070809,-0.979612,0.248077,5.114175,-15.293224,21.860842,,,,,,,,,,,,,,,,,,,,,,,,,,,,,,,,,,,,,,,,,,,,,,,,,,,,,,,,,,,,,,,,,,,,,,,,,,,,,,,,,,,,,,,,,,,,,,,,,,,,,
1738754037.246224,53.000000,0.000000,4236.666504,4271.922852,4161.153809,4213.846191,4273.205078,4278.974121,4275.256348,4468.846191,4466.922852,4483.205078,4420.000000,5609.871582,4238.333496,4172.051270,0.000000,4.000000,80.000000,,,,0.000000,0.000000,0.000000,0.000000,0.000000,0.000000,0.000000,0.000000,0.000000,0.000000,0.000000,0.000000,0.000000,0.000000,0.000000,0.000000,,,,,,,,,,,,,,,,,,,,,,,,,,,,,,,,,,,,,,,,,,,,,,,,,,,,,,,,,,,,,,,,,,,,,,,,,,,,,,,,,,,,,,,,,,,,,,,,,,,,,,,,,,,,,,,,,,,,,,,,,,,,,,,,,
1738754037.254132,54.000000,0.000000,4237.692383,4272.179688,4166.538574,4222.820313,4270.897461,4279.230957,4281.538574,4468.974121,4463.461426,4485.000000,4421.666504,5615.384766,4230.256348,4173.974121,0.000000,4.000000,80.000000,,,,0.000000,0.000000,0.000000,0.000000,0.000000,0.000000,0.000000,0.000000,0.000000,0.000000,0.000000,0.000000,0.000000,0.000000,0.000000,0.000000,,,,,,,,,,,,,,,,,,,,,,,,,,,,,,,,,,,,,,,,,,,,,,,,,,,,,,,,,,,,,,,,,,,,,,,,,,,,,,,,,,,,,,,,,,,,,,,,,,,,,,,,,,,,,,,,,,,,,,,,,,,,,,,,,
1738754037.261940,55.000000,0.000000,4234.230957,4270.512695,4156.794922,4217.692383,4269.615234,4283.589844,4277.307617,4464.487305,4468.589844,4486.538574,4421.282227,5605.897461,4241.153809,4171.410156,0.000000,4.000000,80.000000,,,,0.000000,0.000000,0.000000,0.000000,0.000000,0.000000,0.000000,0.000000,0.000000,0.000000,0.000000,0.000000,0.000000,0.000000,0.000000,0.000000,,,,,,,,,,,,,,,,,,,,,,,,,,,,,,,,,,,,,,,,,,,,,,,,,,,,,,,,,,,,,,,,,,,,,,,,,,,,,,,,,,,,,,,,,,,,,,,,,,,,,,,,,,,,,,,,,,,,,,,,,,,,,,,,,
1738754037.269848,56.000000,0.000000,4237.820313,4271.794922,4164.615234,4217.179688,4273.077148,4285.384766,4278.717773,4468.077148,4467.179688,4484.871582,4419.487305,5608.589844,4241.410156,4176.410156,0.000000,4.000000,80.000000,,,,0.000000,0.000000,0.000000,0.000000,0.000000,0.000000,0.000000,0.000000,0.000000,0.000000,0.000000,0.000000,0.000000,0.000000,0.000000,0.000000,,,,,,,,,,,,,,,,,14.000000,0.000000,0.788112,-0.612915,-0.054382,0.016052,0.076181,-0.970333,0.231962,4.952758,-15.313902,21.891424,,,,,,,,,,,,,,,,,,,,,,,,,,,,,,,,,,,,,,,,,,,,,,,,,,,,,,,,,,,,,,,,,,,,,,,,,,,,,,,,,,,,,,,,,,,,,,,,,,,,,
1738754037.277656,57.000000,0.000000,4234.102539,4268.717773,4161.410156,4216.410156,4272.692383,4279.230957,4280.769043,4469.743652,4463.461426,4484.102539,4421.410156,5611.922852,4233.205078,4168.333496,0.000000,4.000000,80.000000,,,,0.000000,0.000000,0.000000,0.000000,0.000000,0.000000,0.000000,0.000000,0.000000,0.000000,0.000000,0.000000,0.000000,0.000000,0.000000,0.000000,,,,,,,,,,,,,,,,,,,,,,,,,,,,,,,,,,,,,,,,,,,,,,,,,,,,,,,,,,,,,,,,,,,,,,,,,,,,,,,,,,,,,,,,,,,,,,,,,,,,,,,,,,,,,,,,,,,,,,,,,,,,,,,,,
1738754037.285564,58.000000,0.000000,4230.128418,4271.282227,4153.974121,4210.897461,4269.230957,4277.307617,4275.641113,4462.436035,4470.641113,4485.256348,4425.641113,5599.743652,4245.897461,4170.769043,0.000000,4.000000,80.000000,,,,0.000000,0.000000,0.000000,0.000000,0.000000,0.000000,0.000000,0.000000,0.000000,0.000000,0.000000,0.000000,0.000000,0.000000,0.000000,0.000000,,,,,,,,,,,,,,,,,,,,,,,,,,,,,,,,,,,,,,,,,,,,,,,,,,,,,,,,,,,,,,,,,,,,,,,,,,,,,,,,,,,,,,,,,,,,,,,,,,,,,,,,,,,,,,,,,,,,,,,,,,,,,,,,,
1738754037.293372,59.000000,0.000000,4236.153809,4270.512695,4157.820313,4215.128418,4271.025879,4279.743652,4278.461426,4466.282227,4469.102539,4481.794922,4422.692383,5605.256348,4239.487305,4174.615234,0.000000,4.000000,80.000000,,,,0.000000,0.000000,0.000000,0.000000,0.000000,0.000000,0.000000,0.000000,0.000000,0.000000,0.000000,0.000000,0.000000,0.000000,0.000000,0.000000,,,,,,,,,,,,,,,,,,,,,,,,,,,,,,,,,,,,,,,,,,,,,,,,,,,,,,,,,,,,,,,,,,,,,,,,,,,,,,,,,,,,,,,,,,,,,,,,,,,,,,,,,,,,,,,,,,,,,,,,,,,,,,,,,
1738754037.301280,60.000000,0.000000,4228.205078,4265.256348,4143.077148,4207.307617,4271.794922,4276.025879,4268.589844,4462.692383,4469.615234,4483.846191,4423.461426,5595.769043,4253.461426,4172.307617,0.000000,4.000000,80.000000,,,,0.000000,0.000000,0.000000,0.000000,0.000000,0.000000,0.000000,0.000000,0.000000,0.000000,0.000000,0.000000,0.000000,0.000000,0.000000,0.000000,,,,,,,,,,,,,,,,,15.000000,0.000000,0.788155,-0.612854,-0.054443,0.016052,0.055183,-0.977170,0.230497,4.990815,-15.449179,21.818949,,,,,,,,,,,,,,,,,,,,,,,,,,,,,,,,,,,,,,,,,,,,,,,,,,,,,,,,,,,,,,,,,,,,,,,,,,,,,,,,,,,,,,,,,,,,,,,,,,,,,
1738754037.309088,61.000000,0.000000,4228.846191,4269.102539,4151.538574,4209.487305,4270.128418,4275.512695,4270.641113,4461.410156,4467.563965,4486.666504,4424.487305,5594.487305,4251.538574,4176.410156,0.000000,4.000000,80.000000,,,,0.000000,0.000000,0.000000,0.000000,0.000000,0.000000,0.000000,0.000000,0.000000,0.000000,0.000000,0.000000,0.000000,0.000000,0.000000,0.000000,,,,,,,,,,,,,,,,,,,,,,,,,,,,,,,,,,,,,,,,,,,,,,,,,,,,,,,,,,,,,,,,,,,,,,,,,,,,,,,,,,,,,,,,,,,,,,,,,,,,,,,,,,,,,,,,,,,,,,,,,,,,,,,,,
1738754037.316995,62.000000,0.000000,4229.358887,4268.717773,4150.256348,4210.897461,4268.461426,4272.692383,4270.256348,4462.436035,4465.641113,4484.871582,4423.333496,5601.153809,4244.102539,4173.461426,0.000000,4.000000,80.000000,,,,0.000000,0.000000,0.000000,0.000000,0.000000,0.000000,0.000000,0.000000,0.000000,0.000000,0.000000,0.000000,0.000000,0.000000,0.000000,0.000000,,,,,,,,,,,,,,,,,,,,,,,,,,,,,,,,,,,,,,,,,,,,,,,,,,,,,,,,,,,,0.018031,0.017267,0.017467,0.026202,0.021611,0.024721,0.031556,0.038740,0.026768,0.034382,0.034050,0.040433,0.011624,0.022344,0.038316,0.025200,0.035920,0.029849,0.024262,0.026330,0.024637,0.028452,0.008882,0.013078,0.027050,0.023259,0.032183,0.016816,0.020658,0.012645,0.024217,0.030694,0.018521,0.013623,0.030500,0.024437,0.020612,0.029333,0.015120,0.010620,0.020301,0.015963,0.031537,0.023812,0.037846,0.011207,0.010576,0.015321,0.030018,0.026602,0.016681,0.007922,0.022188,0.015676,0.027908,0.017805,0.023286,0.030956,0.034662,0.026264,0.040027,0.067812,0.054381,0.029912,0.035618,0.050063,0.026518,0.026648,0.033982,0.043728
1738754037.324803,63.000000,0.000000,4226.282227,4269.487305,4140.000000,4203.077148,4268.333496,4271.410156,4259.102539,4455.128418,4473.333496,4486.922852,4425.128418,5590.897461,4263.333496,4173.333496,0.000000,4.000000,80.000000,,,,0.000000,0.000000,0.000000,0.000000,0.000000,0.000000,0.000000,0.000000,0.000000,0.000000,0.000000,0.000000,0.000000,0.000000,0.000000,0.000000,,,,,,,,,,,,,,,,,,,,,,,,,,,,,,,,,,,,,,,,,,,,,,,,,,,,,,,,,,,,,,,,,,,,,,,,,,,,,,,,,,,,,,,,,,,,,,,,,,,,,,,,,,,,,,,,,,,,,,,,,,,,,,,,,
1738754037.332711,64.000000,0.000000,4236.666504,4268.461426,4156.794922,4214.487305,4272.051270,4277.563965,4271.794922,4463.333496,4467.692383,4485.384766,4420.769043,5602.692383,4244.487305,4172.179688,0.000000,4.000000,80.000000,,,,0.000000,0.000000,0.000000,0.000000,0.000000,0.000000,0.000000,0.000000,0.000000,0.000000,0.000000,0.000000,0.000000,0.000000,0.000000,0.000000,,,,,,,,,,,,,,,,,16.000000,0.000000,0.788102,-0.612915,-0.054504,0.016113,0.066903,-0.976193,0.239287,4.991734,-15.387594,21.837053,,,,,,,,,,,,,,,,,,,,,,,,,,,,,,,,,,,,,,,,,,,,,,,,,,,,,,,,,,,,,,,,,,,,,,,,,,,,,,,,,,,,,,,,,,,,,,,,,,,,,
1738754037.340519,65.000000,0.000000,4230.256348,4264.487305,4146.666504,4208.205078,4270.769043,4273.974121,4265.769043,4460.128418,4465.384766,4485.897461,4425.256348,5597.179688,4258.589844,4174.102539,0.000000,4.000000,80.000000,,,,0.000000,0.000000,0.000000,0.000000,0.000000,0.000000,0.000000,0.000000,0.000000,0.000000,0.000000,0.000000,0.000000,0.000000,0.000000,0.000000,,,,,,,,,,,,,,,,,,,,,,,,,,,,,,,,,,,,,,,,,,,,,,,,,,,,,,,,,,,,,,,,,,,,,,,,,,,,,,,,,,,,,,,,,,,,,,,,,,,,,,,,,,,,,,,,,,,,,,,,,,,,,,,,,
1738754037.348227,66.000000,0.000000,4230.000000,4269.102539,4150.897461,4206.410156,4270.128418,4272.948730,4266.666504,4458.461426,4466.794922,4486.794922,4430.128418,5593.846191,4261.025879,4175.769043,0.000000,4.000000,80.000000,,,,0.000000,0.000000,0.000000,0.000000,0.000000,0.000000,0.000000,0.000000,0.000000,0.000000,0.000000,0.000000,0.000000,0.000000,0.000000,0.000000,,,,,,,,,,,,,,,,,,,,,,,,,,,,,,,,,,,,,,,,,,,,,,,,,,,,,,,,,,,,,,,,,,,,,,,,,,,,,,,,,,,,,,,,,,,,,,,,,,,,,,,,,,,,,,,,,,,,,,,,,,,,,,,,,
1738754037.356035,67.000000,0.000000,4235.384766,4266.410156,4159.743652,4215.641113,4270.897461,4274.230957,4274.358887,4466.794922,4462.563965,4485.384766,4425.512695,5610.256348,4243.717773,4174.230957,0.000000,4.000000,80.000000,,,,0.000000,0.000000,0.000000,0.000000,0.000000,0.000000,0.000000,0.000000,0.000000,0.000000,0.000000,0.000000,0.000000,0.000000,0.000000,0.000000,,,,,,,,,,,,,,,,,,,,,,,,,,,,,,,,,,,,,,,,,,,,,,,,,,,,,,,,,,,,,,,,,,,,,,,,,,,,,,,,,,,,,,,,,,,,,,,,,,,,,,,,,,,,,,,,,,,,,,,,,,,,,,,,,
1738754037.363743,68.000000,0.000000,4228.077148,4264.487305,4147.179688,4206.025879,4269.615234,4273.974121,4262.051270,4457.692383,4469.358887,4489.230957,4427.563965,5598.589844,4268.077148,4184.615234,0.000000,4.000000,80.000000,,,,0.000000,0.000000,0.000000,0.000000,0.000000,0.000000,0.000000,0.000000,0.000000,0.000000,0.000000,0.000000,0.000000,0.000000,0.000000,0.000000,,,,,,,,,,,,,,,,,17.000000,0.000000,0.788106,-0.612915,-0.054443,0.016113,0.059089,-0.970333,0.238310,4.892560,-15.448834,21.786682,,,,,,,,,,,,,,,,,,,,,,,,,,,,,,,,,,,,,,,,,,,,,,,,,,,,,,,,,,,,,,,,,,,,,,,,,,,,,,,,,,,,,,,,,,,,,,,,,,,,,
1738754037.371651,69.000000,0.000000,4236.922852,4266.666504,4160.641113,4213.974121,4271.153809,4278.846191,4273.974121,4463.717773,4468.077148,4486.153809,4426.282227,5604.358887,4243.205078,4179.487305,0.000000,4.000000,80.000000,,,,0.000000,0.000000,0.000000,0.000000,0.000000,0.000000,0.000000,0.000000,0.000000,0.000000,0.000000,0.000000,0.000000,0.000000,0.000000,0.000000,,,,,,,,,,,,,,,,,,,,,,,,,,,,,,,,,,,,,,,,,,,,,,,,,,,,,,,,,,,,,,,,,,,,,,,,,,,,,,,,,,,,,,,,,,,,,,,,,,,,,,,,,,,,,,,,,,,,,,,,,,,,,,,,,
1738754037.379459,70.000000,0.000000,4236.410156,4266.153809,4154.743652,4214.102539,4270.128418,4273.205078,4268.717773,4463.077148,4462.820313,4485.128418,4428.077148,5609.615234,4250.384766,4182.436035,0.000000,4.000000,80.000000,,,,0.000000,0.000000,0.000000,0.000000,0.000000,0.000000,0.000000,0.000000,0.000000,0.000000,0.000000,0.000000,0.000000,0.000000,0.000000,0.000000,,,,,,,,,,,,,,,,,,,,,,,,,,,,,,,,,,,,,,,,,,,,,,,,,,,,,,,,,,,,,,,,,,,,,,,,,,,,,,,,,,,,,,,,,,,,,,,,,,,,,,,,,,,,,,,,,,,,,,,,,,,,,,,,,
1738754037.387267,71.000000,0.000000,4232.051270,4267.307617,4156.922852,4211.794922,4269.487305,4275.128418,4264.358887,4458.077148,4465.256348,4486.153809,4425.897461,5602.179688,4259.743652,4186.025879,0.000000,4.000000,80.000000,,,,0.000000,0.000000,0.000000,0.000000,0.000000,0.000000,0.000000,0.000000,0.000000,0.000000,0.000000,0.000000,0.000000,0.000000,0.000000,0.000000,,,,,,,,,,,,,,,,,,,,,,,,,,,,,,,,,,,,,,,,,,,,,,,,,,,,,,,,,,,,,,,,,,,,,,,,,,,,,,,,,,,,,,,,,,,,,,,,,,,,,,,,,,,,,,,,,,,,,,,,,,,,,,,,,
1738754037.394975,72.000000,0.000000,4236.794922,4264.230957,4171.153809,4223.333496,4271.282227,4281.025879,4278.846191,4468.461426,4462.436035,4484.487305,4423.717773,5613.205078,4227.179688,4174.487305,0.000000,4.000000,80.000000,,,,0.000000,0.000000,0.000000,0.000000,0.000000,0.000000,0.000000,0.000000,0.000000,0.000000,0.000000,0.000000,0.000000,0.000000,0.000000,0.000000,,,,,,,,,,,,,,,,,18.000000,0.000000,0.788102,-0.612915,-0.054504,0.016113,0.072274,-0.965450,0.234404,4.886638,-15.503951,21.658012,,,,,,,,,,,,,,,,,,,,,,,,,,,,,,,,,,,,,,,,,,,,,,,,,,,,,,,,,,,,,,,,,,,,,,,,,,,,,,,,,,,,,,,,,,,,,,,,,,,,,
1738754037.402783,73.000000,0.000000,4232.436035,4265.256348,4156.538574,4215.256348,4269.743652,4274.358887,4265.512695,4460.769043,4463.461426,4487.692383,4433.717773,5606.794922,4254.230957,4187.563965,0.000000,4.000000,80.000000,,,,0.000000,0.000000,0.000000,0.000000,0.000000,0.000000,0.000000,0.000000,0.000000,0.000000,0.000000,0.000000,0.000000,0.000000,0.000000,0.000000,,,,,,,,,,,,,,,,,,,,,,,,,,,,,,,,,,,,,,,,,,,,,,,,,,,,,,,,,,,,,,,,,,,,,,,,,,,,,,,,,,,,,,,,,,,,,,,,,,,,,,,,,,,,,,,,,,,,,,,,,,,,,,,,,
1738754037.410491,74.000000,0.000000,4238.333496,4268.461426,4167.692383,4219.871582,4270.897461,4277.307617,4272.563965,4465.769043,4463.077148,4484.230957,4428.846191,5611.794922,4241.153809,4181.922852,0.000000,4.000000,80.000000,,,,0.000000,0.000000,0.000000,0.000000,0.000000,0.000000,0.000000,0.000000,0.000000,0.000000,0.000000,0.000000,0.000000,0.000000,0.000000,0.000000,,,,,,,,,,,,,,,,,,,,,,,,,,,,,,,,,,,,,,,,,,,,,,,,,,,,,,,,,,,,,,,,,,,,,,,,,,,,,,,,,,,,,,,,,,,,,,,,,,,,,,,,,,,,,,,,,,,,,,,,,,,,,,,,,
1738754037.418299,75.000000,0.000000,4241.666504,4265.641113,4174.743652,4224.487305,4271.922852,4276.922852,4277.436035,4472.179688,4457.051270,4484.487305,4430.000000,5623.717773,4236.922852,4185.128418,0.000000,4.000000,80.000000,,,,0.000000,0.000000,0.000000,0.000000,0.000000,0.000000,0.000000,0.000000,0.000000,0.000000,0.000000,0.000000,0.000000,0.000000,0.000000,0.000000,,,,,,,,,,,,,,,,,,,,,,,,,,,,,,,,,,,,,,,,,,,,,,,,,,,,,,,,,,,,,,,,,,,,,,,,,,,,,,,,,,,,,,,,,,,,,,,,,,,,,,,,,,,,,,,,,,,,,,,,,,,,,,,,,
1738754037.426007,76.000000,0.000000,4242.051270,4271.794922,4174.230957,4221.794922,4271.410156,4277.820313,4272.307617,4467.692383,4457.436035,4487.051270,4432.948730,5618.333496,4249.743652,4197.692383,0.000000,4.000000,80.000000,,,,0.000000,0.000000,0.000000,0.000000,0.000000,0.000000,0.000000,0.000000,0.000000,0.000000,0.000000,0.000000,0.000000,0.000000,0.000000,0.000000,,,,,,,,,,,,,,,,,19.000000,0.000000,0.788046,-0.612976,-0.054626,0.016113,0.072763,-0.979123,0.234404,4.881307,-15.470222,21.758879,,,,,,,,,,,,,,,,,,,,,,,,,,,,,,,,,,,,,,,,,,,,,,,,,,,,,,,,,,,,,,,,,,,,,,,,,,,,,,,,,,,,,,,,,,,,,,,,,,,,,
1738754037.433815,77.000000,0.000000,4252.307617,4277.563965,4191.153809,4236.794922,4273.333496,4287.051270,4291.794922,4478.589844,4455.897461,4481.922852,4424.615234,5635.000000,4218.205078,4188.589844,0.000000,4.000000,80.000000,,,,0.000000,0.000000,0.000000,0.000000,0.000000,0.000000,0.000000,0.000000,0.000000,0.000000,0.000000,0.000000,0.000000,0.000000,0.000000,0.000000,,,,,,,,,,,,,,,,,,,,,,,,,,,,,,,,,,,,,,,,,,,,,,,,,,,,,,,,,,,,,,,,,,,,,,,,,,,,,,,,,,,,,,,,,,,,,,,,,,,,,,,,,,,,,,,,,,,,,,,,,,,,,,,,,
1738754037.441523,78.000000,0.000000,4251.922852,4279.487305,4189.230957,4234.743652,4275.128418,4285.384766,4289.102539,4475.897461,4455.897461,4482.179688,4434.871582,5640.000000,4241.025879,4208.461426,0.000000,4.000000,80.000000,,,,0.000000,0.000000,0.000000,0.000000,0.000000,0.000000,0.000000,0.000000,0.000000,0.000000,0.000000,0.000000,0.000000,0.000000,0.000000,0.000000,,,,,,,,,,,,,,,,,,,,,,,,,,,,,,,,,,,,,,,,,,,,,,,,,,,,,,,,,,,,0.016374,0.017783,0.018861,0.027508,0.019187,0.030917,0.040116,0.041139,0.025446,0.034400,0.043468,0.038263,0.011146,0.024218,0.038473,0.026291,0.039022,0.036069,0.024824,0.028639,0.024816,0.022959,0.010045,0.010024,0.022974,0.024297,0.032244,0.018081,0.019952,0.012153,0.028168,0.022898,0.022953,0.013894,0.033541,0.028675,0.014976,0.022275,0.015090,0.010886,0.020581,0.016339,0.030267,0.020976,0.032702,0.010008,0.010490,0.016634,0.026193,0.025748,0.023030,0.008405,0.018672,0.015402,0.026143,0.019939,0.022971,0.028760,0.033296,0.028225,0.044449,0.058213,0.044282,0.029427,0.039815,0.047909,0.035106,0.028326,0.035046,0.043463
1738754037.449331,79.000000,0.000000,4256.282227,4280.769043,4197.436035,4233.974121,4276.666504,4289.487305,4292.820313,4477.948730,4456.410156,4481.538574,4431.922852,5634.743652,4226.410156,4201.794922,0.000000,4.000000,80.000000,,,,0.000000,0.000000,0.000000,0.000000,0.000000,0.000000,0.000000,0.000000,0.000000,0.000000,0.000000,0.000000,0.000000,0.000000,0.000000,0.000000,,,,,,,,,,,,,,,,,,,,,,,,,,,,,,,,,,,,,,,,,,,,,,,,,,,,,,,,,,,,,,,,,,,,,,,,,,,,,,,,,,,,,,,,,,,,,,,,,,,,,,,,,,,,,,,,,,,,,,,,,,,,,,,,,
1738754037.457039,80.000000,0.000000,4262.692383,4275.769043,4203.589844,4241.282227,4276.025879,4292.948730,4301.282227,4484.102539,4448.205078,4478.461426,4428.461426,5646.538574,4208.461426,4197.563965,0.000000,4.000000,80.000000,,,,0.000000,0.000000,0.000000,0.000000,0.000000,0.000000,0.000000,0.000000,0.000000,0.000000,0.000000,0.000000,0.000000,0.000000,0.000000,0.000000,,,,,,,,,,,,,,,,,20.000000,0.000000,0.788045,-0.612976,-0.054626,0.016174,0.056159,-0.975217,0.236357,4.959843,-15.439867,21.682991,,,,,,,,,,,,,,,,,,,,,,,,,,,,,,,,,,,,,,,,,,,,,,,,,,,,,,,,,,,,,,,,,,,,,,,,,,,,,,,,,,,,,,,,,,,,,,,,,,,,,
1738754037.464947,81.000000,0.000000,4256.666504,4276.025879,4198.461426,4239.487305,4274.743652,4288.077148,4292.820313,4477.948730,4450.000000,4480.000000,4436.666504,5643.589844,4236.153809,4210.897461,0.000000,4.000000,80.000000,,,,0.000000,0.000000,0.000000,0.000000,0.000000,0.000000,0.000000,0.000000,0.000000,0.000000,0.000000,0.000000,0.000000,0.000000,0.000000,0.000000,,,,,,,,,,,,,,,,,,,,,,,,,,,,,,,,,,,,,,,,,,,,,,,,,,,,,,,,,,,,,,,,,,,,,,,,,,,,,,,,,,,,,,,,,,,,,,,,,,,,,,,,,,,,,,,,,,,,,,,,,,,,,,,,,
1738754037.472755,82.000000,0.000000,4261.025879,4279.487305,4211.153809,4248.846191,4276.666504,4288.077148,4303.589844,4486.153809,4453.974121,4479.102539,4431.538574,5647.692383,4204.358887,4188.461426,0.000000,4.000000,80.000000,,,,0.000000,0.000000,0.000000,0.000000,0.000000,0.000000,0.000000,0.000000,0.000000,0.000000,0.000000,0.000000,0.000000,0.000000,0.000000,0.000000,,,,,,,,,,,,,,,,,,,,,,,,,,,,,,,,,,,,,,,,,,,,,,,,,,,,,,,,,,,,,,,,,,,,,,,,,,,,,,,,,,,,,,,,,,,,,,,,,,,,,,,,,,,,,,,,,,,,,,,,,,,,,,,,,
1738754037.480663,83.000000,0.000000,4265.128418,4280.128418,4214.358887,4248.333496,4275.641113,4287.563965,4303.589844,4484.871582,4450.641113,4479.487305,4435.769043,5654.487305,4205.384766,4200.769043,0.000000,4.000000,80.000000,,,,0.000000,0.000000,0.000000,0.000000,0.000000,0.000000,0.000000,0.000000,0.000000,0.000000,0.000000,0.000000,0.000000,0.000000,0.000000,0.000000,,,,,,,,,,,,,,,,,,,,,,,,,,,,,,,,,,,,,,,,,,,,,,,,,,,,,,,,,,,,,,,,,,,,,,,,,,,,,,,,,,,,,,,,,,,,,,,,,,,,,,,,,,,,,,,,,,,,,,,,,,,,,,,,,
1738754037.488471,84.000000,0.000000,4257.692383,4276.153809,4205.897461,4239.615234,4275.384766,4289.230957,4298.846191,4478.717773,4454.871582,4481.666504,4428.461426,5638.974121,4215.641113,4193.589844,0.000000,4.000000,80.000000,,,,0.000000,0.000000,0.000000,0.000000,0.000000,0.000000,0.000000,0.000000,0.000000,0.000000,0.000000,0.000000,0.000000,0.000000,0.000000,0.000000,,,,,,,,,,,,,,,,,21.000000,0.000000,0.788003,-0.613037,-0.054565,0.016113,0.064949,-0.973263,0.231474,4.947192,-15.579214,21.698025,,,,,,,,,,,,,,,,,,,,,,,,,,,,,,,,,,,,,,,,,,,,,,,,,,,,,,,,,,,,,,,,,,,,,,,,,,,,,,,,,,,,,,,,,,,,,,,,,,,,,
1738754037.496379,85.000000,0.000000,4250.897461,4268.846191,4191.922852,4236.410156,4275.384766,4285.512695,4296.666504,4480.000000,4459.615234,4481.666504,4419.358887,5629.358887,4204.743652,4164.358887,0.000000,4.000000,80.000000,,,,0.000000,0.000000,0.000000,0.000000,0.000000,0.000000,0.000000,0.000000,0.000000,0.000000,0.000000,0.000000,0.000000,0.000000,0.000000,0.000000,,,,,,,,,,,,,,,,,,,,,,,,,,,,,,,,,,,,,,,,,,,,,,,,,,,,,,,,,,,,,,,,,,,,,,,,,,,,,,,,,,,,,,,,,,,,,,,,,,,,,,,,,,,,,,,,,,,,,,,,,,,,,,,,,
1738754037.504187,86.000000,0.000000,4243.589844,4270.128418,4177.820313,4223.846191,4272.563965,4279.358887,4283.717773,4472.179688,4466.282227,4484.230957,4426.025879,5617.436035,4230.897461,4173.205078,0.000000,4.000000,80.000000,,,,0.000000,0.000000,0.000000,0.000000,0.000000,0.000000,0.000000,0.000000,0.000000,0.000000,0.000000,0.000000,0.000000,0.000000,0.000000,0.000000,,,,,,,,,,,,,,,,,,,,,,,,,,,,,,,,,,,,,,,,,,,,,,,,,,,,,,,,,,,,,,,,,,,,,,,,,,,,,,,,,,,,,,,,,,,,,,,,,,,,,,,,,,,,,,,,,,,,,,,,,,,,,,,,,
1738754037.512095,87.000000,0.000000,4240.512695,4270.512695,4181.153809,4224.102539,4271.922852,4283.077148,4292.692383,4478.846191,4469.102539,4483.974121,4417.820313,5613.589844,4218.846191,4160.256348,0.000000,4.000000,80.000000,,,,0.000000,0.000000,0.000000,0.000000,0.000000,0.000000,0.000000,0.000000,0.000000,0.000000,0.000000,0.000000,0.000000,0.000000,0.000000,0.000000,,,,,,,,,,,,,,,,,,,,,,,,,,,,,,,,,,,,,,,,,,,,,,,,,,,,,,,,,,,,,,,,,,,,,,,,,,,,,,,,,,,,,,,,,,,,,,,,,,,,,,,,,,,,,,,,,,,,,,,,,,,,,,,,,
1738754037.519903,88.000000,0.000000,4239.358887,4267.307617,4177.436035,4225.769043,4272.820313,4282.692383,4290.641113,4479.102539,4466.922852,4483.846191,4418.205078,5616.538574,4218.717773,4159.871582,0.000000,4.000000,80.000000,,,,0.000000,0.000000,0.000000,0.000000,0.000000,0.000000,0.000000,0.000000,0.000000,0.000000,0.000000,0.000000,0.000000,0.000000,0.000000,0.000000,,,,,,,,,,,,,,,,,22.000000,0.000000,0.788053,-0.612976,-0.054504,0.016174,0.073739,-0.975217,0.236845,5.035806,-15.504625,21.611555,,,,,,,,,,,,,,,,,,,,,,,,,,,,,,,,,,,,,,,,,,,,,,,,,,,,,,,,,,,,,,,,,,,,,,,,,,,,,,,,,,,,,,,,,,,,,,,,,,,,,
1738754037.527811,89.000000,0.000000,4236.794922,4265.769043,4165.897461,4215.769043,4274.615234,4280.512695,4277.179688,4466.794922,4472.179688,4486.666504,4420.641113,5599.358887,4234.487305,4157.179688,0.000000,4.000000,80.000000,,,,0.000000,0.000000,0.000000,0.000000,0.000000,0.000000,0.000000,0.000000,0.000000,0.000000,0.000000,0.000000,0.000000,0.000000,0.000000,0.000000,,,,,,,,,,,,,,,,,,,,,,,,,,,,,,,,,,,,,,,,,,,,,,,,,,,,,,,,,,,,,,,,,,,,,,,,,,,,,,,,,,,,,,,,,,,,,,,,,,,,,,,,,,,,,,,,,,,,,,,,,,,,,,,,,
1738754037.535619,90.000000,0.000000,4234.230957,4259.743652,4163.205078,4216.922852,4272.179688,4278.974121,4281.922852,4471.794922,4470.000000,4486.153809,4415.897461,5600.000000,4220.769043,4142.051270,0.000000,4.000000,80.000000,,,,0.000000,0.000000,0.000000,0.000000,0.000000,0.000000,0.000000,0.000000,0.000000,0.000000,0.000000,0.000000,0.000000,0.000000,0.000000,0.000000,,,,,,,,,,,,,,,,,,,,,,,,,,,,,,,,,,,,,,,,,,,,,,,,,,,,,,,,,,,,,,,,,,,,,,,,,,,,,,,,,,,,,,,,,,,,,,,,,,,,,,,,,,,,,,,,,,,,,,,,,,,,,,,,,
1738754037.543327,91.000000,0.000000,4229.743652,4259.743652,4165.512695,4219.487305,4268.205078,4277.692383,4280.000000,4472.692383,4467.307617,4486.538574,4423.717773,5606.794922,4230.000000,4161.922852,0.000000,4.000000,80.000000,,,,0.000000,0.000000,0.000000,0.000000,0.000000,0.000000,0.000000,0.000000,0.000000,0.000000,0.000000,0.000000,0.000000,0.000000,0.000000,0.000000,,,,,,,,,,,,,,,,,,,,,,,,,,,,,,,,,,,,,,,,,,,,,,,,,,,,,,,,,,,,,,,,,,,,,,,,,,,,,,,,,,,,,,,,,,,,,,,,,,,,,,,,,,,,,,,,,,,,,,,,,,,,,,,,,
1738754037.551135,92.000000,0.000000,4236.025879,4262.307617,4173.461426,4223.846191,4272.563965,4283.077148,4285.512695,4472.820313,4469.358887,4485.128418,4421.153809,5606.666504,4217.051270,4159.358887,0.000000,4.000000,80.000000,,,,0.000000,0.000000,0.000000,0.000000,0.000000,0.000000,0.000000,0.000000,0.000000,0.000000,0.000000,0.000000,0.000000,0.000000,0.000000,0.000000,,,,,,,,,,,,,,,,,23.000000,0.000000,0.788003,-0.613037,-0.054565,0.016113,0.053717,-0.979612,0.243682,5.198893,-15.570829,21.783733,,,,,,,,,,,,,,,,,,,,,,,,,,,,,,,,,,,,,,,,,,,,,,,,,,,,,,,,,,,,,,,,,,,,,,,,,,,,,,,,,,,,,,,,,,,,,,,,,,,,,
1738754037.558843,93.000000,0.000000,4242.436035,4263.205078,4171.794922,4223.717773,4275.897461,4282.051270,4288.461426,4473.846191,4467.307617,4484.230957,4421.410156,5611.794922,4220.897461,4161.922852,0.000000,4.000000,80.000000,,,,0.000000,0.000000,0.000000,0.000000,0.000000,0.000000,0.000000,0.000000,0.000000,0.000000,0.000000,0.000000,0.000000,0.000000,0.000000,0.000000,,,,,,,,,,,,,,,,,,,,,,,,,,,,,,,,,,,,,,,,,,,,,,,,,,,,,,,,,,,,,,,,,,,,,,,,,,,,,,,,,,,,,,,,,,,,,,,,,,,,,,,,,,,,,,,,,,,,,,,,,,,,,,,,,
1738754037.566651,94.000000,0.000000,4240.897461,4269.230957,4171.025879,4222.179688,4273.077148,4277.820313,4286.153809,4470.897461,4467.820313,4486.666504,4427.436035,5610.512695,4235.128418,4171.922852,0.000000,4.000000,80.000000,,,,0.000000,0.000000,0.000000,0.000000,0.000000,0.000000,0.000000,0.000000,0.000000,0.000000,0.000000,0.000000,0.000000,0.000000,0.000000,0.000000,1.000000,0.000000,0.000000,0.000000,0.000000,0.000000,0.000000,0.000000,0.000000,0.000000,0.000000,0.000000,0.000000,0.000000,0.000000,0.000000,,,,,,,,,,,,,,,,,,,,,,,,,,,,,,,,,,,,,,,,,,,,0.018041,0.018884,0.019121,0.028370,0.017364,0.038033,0.046627,0.043689,0.024002,0.032936,0.076335,0.039902,0.012823,0.026173,0.038630,0.034314,0.040637,0.042394,0.025252,0.031494,0.023564,0.019463,0.010960,0.008455,0.019405,0.028751,0.032581,0.018224,0.021168,0.012882,0.041124,0.017928,0.028060,0.015683,0.035429,0.034099,0.010722,0.016458,0.016036,0.012810,0.024323,0.019032,0.027324,0.018185,0.027739,0.009683,0.011079,0.020479,0.023404,0.024674,0.031382,0.011565,0.016327,0.014778,0.024471,0.036398,0.025058,0.026813,0.032211,0.029445,0.068335,0.046455,0.035512,0.029573,0.043568,0.051637,0.044677,0.029328,0.036381,0.042221
1738754037.574359,95.000000,0.000000,4245.000000,4270.384766,4179.358887,4231.666504,4272.820313,4283.077148,4295.897461,4478.333496,4464.871582,4484.743652,4423.077148,5619.871582,4213.846191,4165.641113,0.000000,4.000000,80.000000,,,,0.000000,0.000000,0.000000,0.000000,0.000000,0.000000,0.000000,0.000000,0.000000,0.000000,0.000000,0.000000,0.000000,0.000000,0.000000,0.000000,,,,,,,,,,,,,,,,,,,,,,,,,,,,,,,,,,,,,,,,,,,,,,,,,,,,,,,,,,,,,,,,,,,,,,,,,,,,,,,,,,,,,,,,,,,,,,,,,,,,,,,,,,,,,,,,,,,,,,,,,,,,,,,,,
1738754037.582167,96.000000,0.000000,4245.512695,4271.282227,4177.820313,4228.333496,4275.769043,4286.922852,4290.000000,4476.538574,4465.641113,4483.846191,4426.666504,5620.000000,4236.538574,4182.692383,0.000000,4.000000,80.000000,,,,0.000000,0.000000,0.000000,0.000000,0.000000,0.000000,0.000000,0.000000,0.000000,0.000000,0.000000,0.000000,0.000000,0.000000,0.000000,0.000000,,,,,,,,,,,,,,,,,24.000000,0.000000,0.788007,-0.613037,-0.054504,0.016113,0.065438,-0.970333,0.244659,5.179003,-15.463747,21.855360,,,,,,,,,,,,,,,,,,,,,,,,,,,,,,,,,,,,,,,,,,,,,,,,,,,,,,,,,,,,,,,,,,,,,,,,,,,,,,,,,,,,,,,,,,,,,,,,,,,,,
1738754037.589875,97.000000,0.000000,4246.666504,4271.794922,4183.589844,4229.615234,4274.102539,4286.153809,4290.769043,4475.641113,4468.333496,4484.487305,4426.153809,5618.333496,4230.256348,4172.179688,0.000000,4.000000,80.000000,,,,0.000000,0.000000,0.000000,0.000000,0.000000,0.000000,0.000000,0.000000,0.000000,0.000000,0.000000,0.000000,0.000000,0.000000,0.000000,0.000000,,,,,,,,,,,,,,,,,,,,,,,,,,,,,,,,,,,,,,,,,,,,,,,,,,,,,,,,,,,,,,,,,,,,,,,,,,,,,,,,,,,,,,,,,,,,,,,,,,,,,,,,,,,,,,,,,,,,,,,,,,,,,,,,,
1738754037.597683,98.000000,0.000000,4248.717773,4269.487305,4182.051270,4234.871582,4271.153809,4284.102539,4294.230957,4479.358887,4463.846191,4485.000000,4426.922852,5627.436035,4216.153809,4171.153809,0.000000,4.000000,80.000000,,,,0.000000,0.000000,0.000000,0.000000,0.000000,0.000000,0.000000,0.000000,0.000000,0.000000,0.000000,0.000000,0.000000,0.000000,0.000000,0.000000,,,,,,,,,,,,,,,,,,,,,,,,,,,,,,,,,,,,,,,,,,,,,,,,,,,,,,,,,,,,,,,,,,,,,,,,,,,,,,,,,,,,,,,,,,,,,,,,,,,,,,,,,,,,,,,,,,,,,,,,,,,,,,,,,
1738754037.605391,99.000000,0.000000,4248.717773,4273.205078,4176.666504,4227.179688,4272.820313,4287.307617,4288.589844,4474.871582,4464.743652,4486.794922,4430.128418,5618.205078,4235.128418,4189.358887,0.000000,4.000000,80.000000,,,,0.000000,0.000000,0.000000,0.000000,0.000000,0.000000,0.000000,0.000000,0.000000,0.000000,0.000000,0.000000,0.000000,0.000000,0.000000,0.000000,,,,,,,,,,,,,,,,,,,,,,,,,,,,,,,,,,,,,,,,,,,,,,,,,,,,,,,,,,,,,,,,,,,,,,,,,,,,,,,,,,,,,,,,,,,,,,,,,,,,,,,,,,,,,,,,,,,,,,,,,,,,,,,,,
1738754037.613199,100.000000,0.000000,4253.461426,4273.205078,4187.051270,4229.871582,4274.487305,4290.384766,4299.358887,4479.358887,4466.153809,4484.358887,4421.922852,5618.846191,4213.589844,4170.897461,0.000000,4.000000,80.000000,,,,0.000000,0.000000,0.000000,0.000000,0.000000,0.000000,0.000000,0.000000,0.000000,0.000000,0.000000,0.000000,0.000000,0.000000,0.000000,0.000000,,,,,,,,,,,,,,,,,25.000000,0.000000,0.788007,-0.613037,-0.054504,0.016113,0.058113,-0.980100,0.248077,4.994436,-15.367373,21.786491,,,,,,,,,,,,,,,,,,,,,,,,,,,,,,,,,,,,,,,,,,,,,,,,,,,,,,,,,,,,,,,,,,,,,,,,,,,,,,,,,,,,,,,,,,,,,,,,,,,,,
1738754037.620907,101.000000,0.000000,4249.615234,4272.179688,4182.692383,4228.461426,4272.948730,4285.384766,4296.410156,4476.153809,4468.077148,4485.384766,4426.410156,5621.153809,4225.641113,4176.282227,0.000000,4.000000,80.000000,,,,0.000000,0.000000,0.000000,0.000000,0.000000,0.000000,0.000000,0.000000,0.000000,0.000000,0.000000,0.000000,0.000000,0.000000,0.000000,0.000000,,,,,,,,,,,,,,,,,,,,,,,,,,,,,,,,,,,,,,,,,,,,,,,,,,,,,,,,,,,,,,,,,,,,,,,,,,,,,,,,,,,,,,,,,,,,,,,,,,,,,,,,,,,,,,,,,,,,,,,,,,,,,,,,,
1738754037.628715,102.000000,0.000000,4244.871582,4270.256348,4178.717773,4226.538574,4273.846191,4284.743652,4292.948730,4473.589844,4468.974121,4487.051270,4426.410156,5615.897461,4228.974121,4175.128418,0.000000,4.000000,80.000000,,,,0.000000,0.000000,0.000000,0.000000,0.000000,0.000000,0.000000,0.000000,0.000000,0.000000,0.000000,0.000000,0.000000,0.000000,0.000000,0.000000,,,,,,,,,,,,,,,,,,,,,,,,,,,,,,,,,,,,,,,,,,,,,,,,,,,,,,,,,,,,,,,,,,,,,,,,,,,,,,,,,,,,,,,,,,,,,,,,,,,,,,,,,,,,,,,,,,,,,,,,,,,,,,,,,
1738754037.636423,103.000000,0.000000,4243.846191,4266.538574,4180.512695,4231.025879,4273.846191,4286.025879,4297.179688,4480.512695,4462.051270,4485.000000,4421.922852,5624.102539,4211.922852,4168.333496,0.000000,4.000000,80.000000,,,,0.000000,0.000000,0.000000,0.000000,0.000000,0.000000,0.000000,0.000000,0.000000,0.000000,0.000000,0.000000,0.000000,0.000000,0.000000,0.000000,,,,,,,,,,,,,,,,,,,,,,,,,,,,,,,,,,,,,,,,,,,,,,,,,,,,,,,,,,,,,,,,,,,,,,,,,,,,,,,,,,,,,,,,,,,,,,,,,,,,,,,,,,,,,,,,,,,,,,,,,,,,,,,,,
1738754037.644231,104.000000,0.000000,4241.538574,4270.128418,4178.205078,4227.179688,4271.666504,4284.615234,4287.563965,4476.282227,4464.743652,4486.922852,4425.641113,5621.025879,4232.820313,4184.102539,0.000000,4.000000,80.000000,,,,0.000000,0.000000,0.000000,0.000000,0.000000,0.000000,0.000000,0.000000,0.000000,0.000000,0.000000,0.000000,0.000000,0.000000,0.000000,0.000000,,,,,,,,,,,,,,,,,26.000000,0.000000,0.788004,-0.613037,-0.054565,0.016052,0.056648,-0.975217,0.231962,5.244993,-15.497302,21.891174,,,,,,,,,,,,,,,,,,,,,,,,,,,,,,,,,,,,,,,,,,,,,,,,,,,,,,,,,,,,,,,,,,,,,,,,,,,,,,,,,,,,,,,,,,,,,,,,,,,,,
1738754037.651939,105.000000,0.000000,4246.666504,4271.410156,4184.358887,4230.128418,4274.358887,4286.922852,4294.358887,4479.358887,4467.179688,4485.641113,4420.897461,5620.256348,4220.128418,4169.743652,0.000000,4.000000,80.000000,,,,0.000000,0.000000,0.000000,0.000000,0.000000,0.000000,0.000000,0.000000,0.000000,0.000000,0.000000,0.000000,0.000000,0.000000,0.000000,0.000000,,,,,,,,,,,,,,,,,,,,,,,,,,,,,,,,,,,,,,,,,,,,,,,,,,,,,,,,,,,,,,,,,,,,,,,,,,,,,,,,,,,,,,,,,,,,,,,,,,,,,,,,,,,,,,,,,,,,,,,,,,,,,,,,,
1738754037.659847,106.000000,0.000000,4247.051270,4271.025879,4180.641113,4229.743652,4276.794922,4283.589844,4294.743652,4476.794922,4462.307617,4484.487305,4427.179688,5624.871582,4226.922852,4175.128418,0.000000,4.000000,80.000000,,,,0.000000,0.000000,0.000000,0.000000,0.000000,0.000000,0.000000,0.000000,0.000000,0.000000,0.000000,0.000000,0.000000,0.000000,0.000000,0.000000,,,,,,,,,,,,,,,,,,,,,,,,,,,,,,,,,,,,,,,,,,,,,,,,,,,,,,,,,,,,,,,,,,,,,,,,,,,,,,,,,,,,,,,,,,,,,,,,,,,,,,,,,,,,,,,,,,,,,,,,,,,,,,,,,
1738754037.667655,107.000000,0.000000,4243.589844,4271.666504,4176.794922,4226.025879,4277.563965,4283.077148,4287.563965,4471.794922,4465.256348,4486.794922,4428.333496,5618.974121,4240.128418,4181.794922,0.000000,4.000000,80.000000,,,,0.000000,0.000000,0.000000,0.000000,0.000000,0.000000,0.000000,0.000000,0.000000,0.000000,0.000000,0.000000,0.000000,0.000000,0.000000,0.000000,,,,,,,,,,,,,,,,,,,,,,,,,,,,,,,,,,,,,,,,,,,,,,,,,,,,,,,,,,,,,,,,,,,,,,,,,,,,,,,,,,,,,,,,,,,,,,,,,,,,,,,,,,,,,,,,,,,,,,,,,,,,,,,,,
1738754037.675563,108.000000,0.000000,4248.974121,4266.410156,4185.000000,4231.666504,4277.179688,4286.794922,4295.000000,4480.897461,4466.922852,4485.128418,4420.897461,5624.102539,4217.692383,4168.846191,0.000000,4.000000,80.000000,,,,0.000000,0.000000,0.000000,0.000000,0.000000,0.000000,0.000000,0.000000,0.000000,0.000000,0.000000,0.000000,0.000000,0.000000,0.000000,0.000000,,,,,,,,,,,,,,,,,27.000000,0.000000,0.788008,-0.613037,-0.054504,0.016052,0.082530,-0.969845,0.243194,5.137160,-15.430904,21.902058,,,,,,,,,,,,,,,,,,,,,,,,,,,,,,,,,,,,,,,,,,,,,,,,,,,,,,,,,,,,,,,,,,,,,,,,,,,,,,,,,,,,,,,,,,,,,,,,,,,,,
1738754037.683371,109.000000,0.000000,4251.153809,4271.538574,4185.256348,4226.922852,4275.256348,4284.358887,4290.641113,4477.563965,4468.974121,4485.384766,4430.000000,5620.641113,4233.846191,4184.230957,0.000000,4.000000,80.000000,,,,0.000000,0.000000,0.000000,0.000000,0.000000,0.000000,0.000000,0.000000,0.000000,0.000000,0.000000,0.000000,0.000000,0.000000,0.000000,0.000000,,,,,,,,,,,,,,,,,,,,,,,,,,,,,,,,,,,,,,,,,,,,,,,,,,,,,,,,,,,,,,,,,,,,,,,,,,,,,,,,,,,,,,,,,,,,,,,,,,,,,,,,,,,,,,,,,,,,,,,,,,,,,,,,,
1738754037.691279,110.000000,0.000000,4250.128418,4276.538574,4180.128418,4228.974121,4277.051270,4284.487305,4290.641113,4476.282227,4467.179688,4486.666504,4427.948730,5617.436035,4230.128418,4177.436035,0.000000,4.000000,80.000000,,,,0.000000,0.000000,0.000000,0.000000,0.000000,0.000000,0.000000,0.000000,0.000000,0.000000,0.000000,0.000000,0.000000,0.000000,0.000000,0.000000,,,,,,,,,,,,,,,,,,,,,,,,,,,,,,,,,,,,,,,,,,,,,,,,,,,,,,,,,,,,0.041511,0.025372,0.018293,0.028497,0.016035,0.050625,0.049905,0.045555,0.023210,0.030496,0.202390,0.055475,0.016931,0.028149,0.039665,0.078572,0.044199,0.048075,0.025413,0.034218,0.024338,0.019198,0.011084,0.008135,0.017083,0.041857,0.035018,0.017558,0.024488,0.014927,0.084084,0.022140,0.033218,0.019014,0.035588,0.049084,0.008842,0.013107,0.017365,0.015935,0.042869,0.023943,0.023439,0.016369,0.024329,0.011127,0.011745,0.025692,0.022405,0.023492,0.038821,0.016933,0.015992,0.014116,0.023132,0.130672,0.038284,0.024846,0.032451,0.029672,0.139765,0.039298,0.029953,0.031808,0.046773,0.091275,0.058464,0.029268,0.037825,0.039363
1738754037.699086,111.000000,0.000000,4248.205078,4270.641113,4178.974121,4234.230957,4277.948730,4287.179688,4292.948730,4478.461426,4461.153809,4486.538574,4424.102539,5625.128418,4215.897461,4172.948730,0.000000,4.000000,80.000000,,,,0.000000,0.000000,0.000000,0.000000,0.000000,0.000000,0.000000,0.000000,0.000000,0.000000,0.000000,0.000000,0.000000,0.000000,0.000000,0.000000,,,,,,,,,,,,,,,,,,,,,,,,,,,,,,,,,,,,,,,,,,,,,,,,,,,,,,,,,,,,,,,,,,,,,,,,,,,,,,,,,,,,,,,,,,,,,,,,,,,,,,,,,,,,,,,,,,,,,,,,,,,,,,,,,
1738754037.706994,112.000000,0.000000,4244.615234,4270.000000,4180.256348,4226.538574,4274.230957,4287.436035,4289.743652,4475.128418,4466.794922,4486.282227,4428.077148,5615.256348,4234.871582,4184.102539,0.000000,4.000000,80.000000,,,,0.000000,0.000000,0.000000,0.000000,0.000000,0.000000,0.000000,0.000000,0.000000,0.000000,0.000000,0.000000,0.000000,0.000000,0.000000,0.000000,,,,,,,,,,,,,,,,,28.000000,0.000000,0.787963,-0.613098,-0.054504,0.015930,0.069344,-0.959590,0.245147,5.040111,-15.471148,21.961851,,,,,,,,,,,,,,,,,,,,,,,,,,,,,,,,,,,,,,,,,,,,,,,,,,,,,,,,,,,,,,,,,,,,,,,,,,,,,,,,,,,,,,,,,,,,,,,,,,,,,
1738754037.714802,113.000000,0.000000,4248.717773,4274.615234,4182.307617,4230.384766,4272.563965,4287.563965,4297.179688,4481.282227,4468.589844,4483.077148,4425.512695,5620.256348,4222.948730,4171.794922,0.000000,4.000000,80.000000,,,,0.000000,0.000000,0.000000,0.000000,0.000000,0.000000,0.000000,0.000000,0.000000,0.000000,0.000000,0.000000,0.000000,0.000000,0.000000,0.000000,,,,,,,,,,,,,,,,,,,,,,,,,,,,,,,,,,,,,,,,,,,,,,,,,,,,,,,,,,,,,,,,,,,,,,,,,,,,,,,,,,,,,,,,,,,,,,,,,,,,,,,,,,,,,,,,,,,,,,,,,,,,,,,,,
1738754037.722710,114.000000,0.000000,4249.615234,4277.051270,4180.256348,4228.846191,4275.000000,4285.384766,4292.307617,4477.563965,4466.666504,4483.077148,4428.333496,5627.051270,4224.487305,4175.512695,0.000000,4.000000,80.000000,,,,0.000000,0.000000,0.000000,0.000000,0.000000,0.000000,0.000000,0.000000,0.000000,0.000000,0.000000,0.000000,0.000000,0.000000,0.000000,0.000000,,,,,,,,,,,,,,,,,,,,,,,,,,,,,,,,,,,,,,,,,,,,,,,,,,,,,,,,,,,,,,,,,,,,,,,,,,,,,,,,,,,,,,,,,,,,,,,,,,,,,,,,,,,,,,,,,,,,,,,,,,,,,,,,,
1738754037.730518,115.000000,0.000000,4247.179688,4270.641113,4179.358887,4223.461426,4274.615234,4283.717773,4290.128418,4475.769043,4466.666504,4484.358887,4427.563965,5617.948730,4232.820313,4178.077148,0.000000,4.000000,80.000000,,,,0.000000,0.000000,0.000000,0.000000,0.000000,0.000000,0.000000,0.000000,0.000000,0.000000,0.000000,0.000000,0.000000,0.000000,0.000000,0.000000,,,,,,,,,,,,,,,,,,,,,,,,,,,,,,,,,,,,,,,,,,,,,,,,,,,,,,,,,,,,,,,,,,,,,,,,,,,,,,,,,,,,,,,,,,,,,,,,,,,,,,,,,,,,,,,,,,,,,,,,,,,,,,,,,
1738754037.738226,116.000000,0.000000,4248.589844,4268.461426,4180.897461,4228.846191,4272.563965,4285.641113,4299.358887,4480.641113,4463.333496,4482.563965,4425.769043,5623.333496,4221.794922,4177.307617,0.000000,4.000000,80.000000,,,,0.000000,0.000000,0.000000,0.000000,0.000000,0.000000,0.000000,0.000000,0.000000,0.000000,0.000000,0.000000,0.000000,0.000000,0.000000,0.000000,,,,,,,,,,,,,,,,,29.000000,0.000000,0.787968,-0.613098,-0.054443,0.015930,0.071298,-0.977170,0.244659,4.952766,-15.457366,21.799000,,,,,,,,,,,,,,,,,,,,,,,,,,,,,,,,,,,,,,,,,,,,,,,,,,,,,,,,,,,,,,,,,,,,,,,,,,,,,,,,,,,,,,,,,,,,,,,,,,,,,
1738754037.746034,117.000000,0.000000,4246.282227,4279.102539,4180.641113,4227.179688,4274.743652,4287.692383,4294.102539,4475.128418,4466.794922,4485.897461,4430.000000,5622.820313,4237.436035,4186.666504,0.000000,4.000000,80.000000,,,,0.000000,0.000000,0.000000,0.000000,0.000000,0.000000,0.000000,0.000000,0.000000,0.000000,0.000000,0.000000,0.000000,0.000000,0.000000,0.000000,,,,,,,,,,,,,,,,,,,,,,,,,,,,,,,,,,,,,,,,,,,,,,,,,,,,,,,,,,,,,,,,,,,,,,,,,,,,,,,,,,,,,,,,,,,,,,,,,,,,,,,,,,,,,,,,,,,,,,,,,,,,,,,,,
1738754037.753742,118.000000,0.000000,4248.333496,4277.692383,4183.846191,4229.871582,4278.077148,4286.922852,4291.794922,4479.230957,4465.256348,4487.563965,4428.077148,5624.615234,4231.025879,4178.717773,0.000000,4.000000,80.000000,,,,0.000000,0.000000,0.000000,0.000000,0.000000,0.000000,0.000000,0.000000,0.000000,0.000000,0.000000,0.000000,0.000000,0.000000,0.000000,0.000000,,,,,,,,,,,,,,,,,,,,,,,,,,,,,,,,,,,,,,,,,,,,,,,,,,,,,,,,,,,,,,,,,,,,,,,,,,,,,,,,,,,,,,,,,,,,,,,,,,,,,,,,,,,,,,,,,,,,,,,,,,,,,,,,,
1738754037.761550,119.000000,0.000000,4248.846191,4273.846191,4183.077148,4231.025879,4276.153809,4286.922852,4291.794922,4481.025879,4460.512695,4485.256348,4429.743652,5626.794922,4228.589844,4182.948730,0.000000,4.000000,80.000000,,,,0.000000,0.000000,0.000000,0.000000,0.000000,0.000000,0.000000,0.000000,0.000000,0.000000,0.000000,0.000000,0.000000,0.000000,0.000000,0.000000,,,,,,,,,,,,,,,,,,,,,,,,,,,,,,,,,,,,,,,,,,,,,,,,,,,,,,,,,,,,,,,,,,,,,,,,,,,,,,,,,,,,,,,,,,,,,,,,,,,,,,,,,,,,,,,,,,,,,,,,,,,,,,,,,
