title:bread1, start timestamp:1738746917.336044, stop timestamp:1738746918.374204, headset type:EPOCX, headset serial:E50208A5, headset firmware:720, channels:168, sampling rate:eeg_128;mot_32;pm_0.1;pow_8, samples:134       , version:2.2, 
Timestamp,EEG.Counter,EEG.Interpolated,EEG.AF3,EEG.F7,EEG.F3,EEG.FC5,EEG.T7,EEG.P7,EEG.O1,EEG.O2,EEG.P8,EEG.T8,EEG.FC6,EEG.F4,EEG.F8,EEG.AF4,EEG.RawCq,EEG.Battery,EEG.BatteryPercent,MarkerIndex,MarkerType,MarkerValueInt,EEG.MarkerHardware,CQ.AF3,CQ.F7,CQ.F3,CQ.FC5,CQ.T7,CQ.P7,CQ.O1,CQ.O2,CQ.P8,CQ.T8,CQ.FC6,CQ.F4,CQ.F8,CQ.AF4,CQ.Overall,EQ.SampleRateQuality,EQ.OVERALL,EQ.AF3,EQ.F7,EQ.F3,EQ.FC5,EQ.T7,EQ.P7,EQ.O1,EQ.O2,EQ.P8,EQ.T8,EQ.FC6,EQ.F4,EQ.F8,EQ.AF4,MOT.CounterMems,MOT.InterpolatedMems,MOT.Q0,MOT.Q1,MOT.Q2,MOT.Q3,MOT.AccX,MOT.AccY,MOT.AccZ,MOT.MagX,MOT.MagY,MOT.MagZ,PM.Attention.IsActive,PM.Attention.Scaled,PM.Attention.Raw,PM.Attention.Min,PM.Attention.Max,PM.Engagement.IsActive,PM.Engagement.Scaled,PM.Engagement.Raw,PM.Engagement.Min,PM.Engagement.Max,PM.Excitement.IsActive,PM.Excitement.Scaled,PM.Excitement.Raw,PM.Excitement.Min,PM.Excitement.Max,PM.LongTermExcitement,PM.Stress.IsActive,PM.Stress.Scaled,PM.Stress.Raw,PM.Stress.Min,PM.Stress.Max,PM.Relaxation.IsActive,PM.Relaxation.Scaled,PM.Relaxation.Raw,PM.Relaxation.Min,PM.Relaxation.Max,PM.Interest.IsActive,PM.Interest.Scaled,PM.Interest.Raw,PM.Interest.Min,PM.Interest.Max,POW.AF3.Theta,POW.AF3.Alpha,POW.AF3.BetaL,POW.AF3.BetaH,POW.AF3.Gamma,POW.F7.Theta,POW.F7.Alpha,POW.F7.BetaL,POW.F7.BetaH,POW.F7.Gamma,POW.F3.Theta,POW.F3.Alpha,POW.F3.BetaL,POW.F3.BetaH,POW.F3.Gamma,POW.FC5.Theta,POW.FC5.Alpha,POW.FC5.BetaL,POW.FC5.BetaH,POW.FC5.Gamma,POW.T7.Theta,POW.T7.Alpha,POW.T7.BetaL,POW.T7.BetaH,POW.T7.Gamma,POW.P7.Theta,POW.P7.Alpha,POW.P7.BetaL,POW.P7.BetaH,POW.P7.Gamma,POW.O1.Theta,POW.O1.Alpha,POW.O1.BetaL,POW.O1.BetaH,POW.O1.Gamma,POW.O2.Theta,POW.O2.Alpha,POW.O2.BetaL,POW.O2.BetaH,POW.O2.Gamma,POW.P8.Theta,POW.P8.Alpha,POW.P8.BetaL,POW.P8.BetaH,POW.P8.Gamma,POW.T8.Theta,POW.T8.Alpha,POW.T8.BetaL,POW.T8.BetaH,POW.T8.Gamma,POW.FC6.Theta,POW.FC6.Alpha,POW.FC6.BetaL,POW.FC6.BetaH,POW.FC6.Gamma,POW.F4.Theta,POW.F4.Alpha,POW.F4.BetaL,POW.F4.BetaH,POW.F4.Gamma,POW.F8.Theta,POW.F8.Alpha,POW.F8.BetaL,POW.F8.BetaH,POW.F8.Gamma,POW.AF4.Theta,POW.AF4.Alpha,POW.AF4.BetaL,POW.AF4.BetaH,POW.AF4.Gamma
1738746917.336044,22.000000,0.000000,4253.717773,4297.307617,4239.358887,4274.743652,4310.000000,4316.153809,4310.641113,4240.512695,4160.256348,4035.256348,4214.230957,3069.871826,4398.333496,4442.051270,0.000000,1.000000,30.000000,,,,0.000000,0.000000,0.000000,0.000000,0.000000,0.000000,0.000000,0.000000,0.000000,0.000000,0.000000,0.000000,0.000000,0.000000,0.000000,0.000000,,,,,,,,,,,,,,,,,,,,,,,,,,,,,,,,,,,,,,,,,,,,,,,,,,,,,,,,,,,,,,,,,,,,,,,,,,,,,,,,,,,,,,,,,,,,,,,,,,,,,,,,,,,,,,,,,,,,,,,,,,,,,,,,,
1738746917.343752,23.000000,0.000000,4252.436035,4296.410156,4238.846191,4269.230957,4304.487305,4314.743652,4310.769043,4240.384766,4158.974121,4032.820557,4216.666504,3069.102539,4403.333496,4445.897461,0.000000,1.000000,30.000000,,,,0.000000,0.000000,0.000000,0.000000,0.000000,0.000000,0.000000,0.000000,0.000000,0.000000,0.000000,0.000000,0.000000,0.000000,0.000000,0.000000,,,,,,,,,,,,,,,,,,,,,,,,,,,,,,,,,,,,,,,,,,,,,,,,,,,,,,,,,,,,,,,,,,,,,,,,,,,,,,,,,,,,,,,,,,,,,,,,,,,,,,,,,,,,,,,,,,,,,,,,,,,,,,,,,
1738746917.351560,24.000000,0.000000,4251.922852,4292.948730,4241.025879,4273.717773,4304.102539,4316.794922,4312.948730,4237.820313,4159.743652,4033.974365,4218.846191,3065.256348,4403.077148,4445.512695,0.000000,1.000000,30.000000,,,,0.000000,0.000000,0.000000,0.000000,0.000000,0.000000,0.000000,0.000000,0.000000,0.000000,0.000000,0.000000,0.000000,0.000000,0.000000,0.000000,,,,,,,,,,,,,,,,,6.000000,0.000000,0.798916,-0.597839,0.060913,-0.024719,-0.073739,-0.963008,0.278354,1.514471,-13.672295,21.381227,,,,,,,,,,,,,,,,,,,,,,,,,,,,,,,,,,,,,,,,,,,,,,,,,,,,,,,,,,,,,,,,,,,,,,,,,,,,,,,,,,,,,,,,,,,,,,,,,,,,,
1738746917.359268,25.000000,0.000000,4253.077148,4293.846191,4241.922852,4274.358887,4305.769043,4317.820313,4312.820313,4237.179688,4160.641113,4035.128174,4217.948730,3069.487061,4400.512695,4446.666504,0.000000,1.000000,30.000000,,,,0.000000,0.000000,0.000000,0.000000,0.000000,0.000000,0.000000,0.000000,0.000000,0.000000,0.000000,0.000000,0.000000,0.000000,0.000000,0.000000,,,,,,,,,,,,,,,,,,,,,,,,,,,,,,,,,,,,,,,,,,,,,,,,,,,,,,,,,,,,,,,,,,,,,,,,,,,,,,,,,,,,,,,,,,,,,,,,,,,,,,,,,,,,,,,,,,,,,,,,,,,,,,,,,
1738746917.367076,26.000000,0.000000,4252.692383,4293.846191,4239.615234,4266.666504,4305.512695,4317.179688,4312.692383,4237.820313,4160.128418,4032.179443,4216.538574,3071.281982,4400.641113,4445.256348,0.000000,1.000000,30.000000,,,,0.000000,0.000000,0.000000,0.000000,0.000000,0.000000,0.000000,0.000000,0.000000,0.000000,0.000000,0.000000,0.000000,0.000000,0.000000,0.000000,1.000000,0.000000,0.000000,0.000000,0.000000,0.000000,0.000000,0.000000,0.000000,0.000000,0.000000,0.000000,0.000000,0.000000,0.000000,0.000000,,,,,,,,,,,,,,,,,,,,,,,,,,,,,,,,,,,,,,,,,,,,0.015253,0.020199,0.023414,0.013322,0.025238,0.023113,0.014051,0.018760,0.017125,0.011931,0.022079,0.031563,0.017364,0.017883,0.023021,0.022722,0.008585,0.024239,0.017450,0.027971,0.027487,0.020023,0.034978,0.018844,0.023348,0.023950,0.033919,0.016873,0.020421,0.017344,0.010719,0.058914,0.048208,0.023926,0.030906,0.025529,0.026040,0.013992,0.010469,0.022468,0.026595,0.023230,0.014504,0.020232,0.018229,0.010675,0.007634,0.029605,0.027007,0.028303,0.024095,0.027623,0.027804,0.013883,0.017044,0.016291,0.019408,0.018646,0.014708,0.013989,0.027123,0.061412,0.027886,0.019277,0.027368,0.020699,0.018448,0.022836,0.008864,0.026662
1738746917.374784,27.000000,0.000000,4252.307617,4291.282227,4239.615234,4266.794922,4305.769043,4316.538574,4314.871582,4237.307617,4159.487305,4032.051270,4215.000000,3066.281982,4400.641113,4441.922852,0.000000,1.000000,30.000000,,,,0.000000,0.000000,0.000000,0.000000,0.000000,0.000000,0.000000,0.000000,0.000000,0.000000,0.000000,0.000000,0.000000,0.000000,0.000000,0.000000,,,,,,,,,,,,,,,,,,,,,,,,,,,,,,,,,,,,,,,,,,,,,,,,,,,,,,,,,,,,,,,,,,,,,,,,,,,,,,,,,,,,,,,,,,,,,,,,,,,,,,,,,,,,,,,,,,,,,,,,,,,,,,,,,
1738746917.382592,28.000000,0.000000,4253.846191,4292.307617,4241.153809,4271.538574,4303.846191,4316.282227,4311.922852,4236.410156,4160.256348,4032.820557,4218.461426,3066.410156,4403.846191,4450.128418,0.000000,1.000000,30.000000,,,,0.000000,0.000000,0.000000,0.000000,0.000000,0.000000,0.000000,0.000000,0.000000,0.000000,0.000000,0.000000,0.000000,0.000000,0.000000,0.000000,,,,,,,,,,,,,,,,,7.000000,0.000000,0.798874,-0.597900,0.060913,-0.024597,-0.073251,-0.948358,0.278354,1.463024,-13.588398,21.343103,,,,,,,,,,,,,,,,,,,,,,,,,,,,,,,,,,,,,,,,,,,,,,,,,,,,,,,,,,,,,,,,,,,,,,,,,,,,,,,,,,,,,,,,,,,,,,,,,,,,,
1738746917.390300,29.000000,0.000000,4251.922852,4293.333496,4241.538574,4267.179688,4303.717773,4317.436035,4313.974121,4235.641113,4163.717773,4029.871826,4220.000000,3068.589844,4402.307617,4446.922852,0.000000,1.000000,30.000000,,,,0.000000,0.000000,0.000000,0.000000,0.000000,0.000000,0.000000,0.000000,0.000000,0.000000,0.000000,0.000000,0.000000,0.000000,0.000000,0.000000,,,,,,,,,,,,,,,,,,,,,,,,,,,,,,,,,,,,,,,,,,,,,,,,,,,,,,,,,,,,,,,,,,,,,,,,,,,,,,,,,,,,,,,,,,,,,,,,,,,,,,,,,,,,,,,,,,,,,,,,,,,,,,,,,
1738746917.398108,30.000000,0.000000,4250.384766,4292.307617,4240.641113,4263.333496,4307.051270,4315.641113,4317.179688,4235.384766,4161.410156,4029.358887,4217.436035,3069.102539,4401.794922,4444.358887,0.000000,1.000000,30.000000,,,,0.000000,0.000000,0.000000,0.000000,0.000000,0.000000,0.000000,0.000000,0.000000,0.000000,0.000000,0.000000,0.000000,0.000000,0.000000,0.000000,,,,,,,,,,,,,,,,,,,,,,,,,,,,,,,,,,,,,,,,,,,,,,,,,,,,,,,,,,,,,,,,,,,,,,,,,,,,,,,,,,,,,,,,,,,,,,,,,,,,,,,,,,,,,,,,,,,,,,,,,,,,,,,,,
1738746917.405816,31.000000,0.000000,4253.077148,4291.025879,4240.897461,4270.000000,4307.051270,4313.077148,4313.974121,4239.487305,4157.179688,4030.769287,4214.743652,3068.974365,4401.666504,4448.205078,0.000000,1.000000,30.000000,,,,0.000000,0.000000,0.000000,0.000000,0.000000,0.000000,0.000000,0.000000,0.000000,0.000000,0.000000,0.000000,0.000000,0.000000,0.000000,0.000000,,,,,,,,,,,,,,,,,,,,,,,,,,,,,,,,,,,,,,,,,,,,,,,,,,,,,,,,,,,,,,,,,,,,,,,,,,,,,,,,,,,,,,,,,,,,,,,,,,,,,,,,,,,,,,,,,,,,,,,,,,,,,,,,,
1738746917.413624,32.000000,0.000000,4254.615234,4291.282227,4242.820313,4274.615234,4305.384766,4314.487305,4313.846191,4241.025879,4159.871582,4032.179443,4216.025879,3068.333252,4398.077148,4443.974121,0.000000,1.000000,30.000000,,,,0.000000,0.000000,0.000000,0.000000,0.000000,0.000000,0.000000,0.000000,0.000000,0.000000,0.000000,0.000000,0.000000,0.000000,0.000000,0.000000,,,,,,,,,,,,,,,,,8.000000,0.000000,0.798834,-0.597961,0.060791,-0.024719,-0.060554,-0.963497,0.271518,1.450055,-13.746225,21.258793,,,,,,,,,,,,,,,,,,,,,,,,,,,,,,,,,,,,,,,,,,,,,,,,,,,,,,,,,,,,,,,,,,,,,,,,,,,,,,,,,,,,,,,,,,,,,,,,,,,,,
1738746917.421332,33.000000,0.000000,4255.512695,4293.205078,4242.051270,4269.102539,4305.384766,4316.153809,4315.000000,4236.538574,4161.794922,4033.333252,4218.333496,3068.461426,4401.538574,4449.871582,0.000000,1.000000,30.000000,,,,0.000000,0.000000,0.000000,0.000000,0.000000,0.000000,0.000000,0.000000,0.000000,0.000000,0.000000,0.000000,0.000000,0.000000,0.000000,0.000000,,,,,,,,,,,,,,,,,,,,,,,,,,,,,,,,,,,,,,,,,,,,,,,,,,,,,,,,,,,,,,,,,,,,,,,,,,,,,,,,,,,,,,,,,,,,,,,,,,,,,,,,,,,,,,,,,,,,,,,,,,,,,,,,,
1738746917.429140,34.000000,0.000000,4253.974121,4294.358887,4241.025879,4265.128418,4306.282227,4318.333496,4314.743652,4236.666504,4159.102539,4034.871826,4211.922852,3065.512939,4401.794922,4446.025879,0.000000,1.000000,30.000000,,,,0.000000,0.000000,0.000000,0.000000,0.000000,0.000000,0.000000,0.000000,0.000000,0.000000,0.000000,0.000000,0.000000,0.000000,0.000000,0.000000,,,,,,,,,,,,,,,,,,,,,,,,,,,,,,,,,,,,,,,,,,,,,,,,,,,,,,,,,,,,,,,,,,,,,,,,,,,,,,,,,,,,,,,,,,,,,,,,,,,,,,,,,,,,,,,,,,,,,,,,,,,,,,,,,
1738746917.436848,35.000000,0.000000,4250.384766,4294.102539,4241.794922,4266.922852,4307.563965,4318.077148,4313.205078,4238.974121,4158.717773,4037.179443,4210.256348,3066.923096,4402.692383,4439.487305,0.000000,1.000000,30.000000,,,,0.000000,0.000000,0.000000,0.000000,0.000000,0.000000,0.000000,0.000000,0.000000,0.000000,0.000000,0.000000,0.000000,0.000000,0.000000,0.000000,,,,,,,,,,,,,,,,,,,,,,,,,,,,,,,,,,,,,,,,,,,,,,,,,,,,,,,,,,,,,,,,,,,,,,,,,,,,,,,,,,,,,,,,,,,,,,,,,,,,,,,,,,,,,,,,,,,,,,,,,,,,,,,,,
1738746917.444756,36.000000,0.000000,4251.538574,4293.589844,4239.871582,4270.128418,4309.871582,4316.410156,4313.077148,4237.563965,4160.256348,4033.205078,4217.307617,3071.794922,4404.487305,4448.333496,0.000000,1.000000,30.000000,,,,0.000000,0.000000,0.000000,0.000000,0.000000,0.000000,0.000000,0.000000,0.000000,0.000000,0.000000,0.000000,0.000000,0.000000,0.000000,0.000000,,,,,,,,,,,,,,,,,9.000000,0.000000,0.798838,-0.597961,0.060730,-0.024719,-0.074716,-0.969845,0.282261,1.471716,-13.688270,21.132914,,,,,,,,,,,,,,,,,,,,,,,,,,,,,,,,,,,,,,,,,,,,,,,,,,,,,,,,,,,,,,,,,,,,,,,,,,,,,,,,,,,,,,,,,,,,,,,,,,,,,
1738746917.452564,37.000000,0.000000,4252.692383,4294.358887,4238.333496,4274.102539,4310.256348,4317.563965,4315.512695,4238.974121,4158.461426,4027.820557,4217.307617,3070.000000,4397.948730,4447.179688,0.000000,1.000000,30.000000,,,,0.000000,0.000000,0.000000,0.000000,0.000000,0.000000,0.000000,0.000000,0.000000,0.000000,0.000000,0.000000,0.000000,0.000000,0.000000,0.000000,,,,,,,,,,,,,,,,,,,,,,,,,,,,,,,,,,,,,,,,,,,,,,,,,,,,,,,,,,,,,,,,,,,,,,,,,,,,,,,,,,,,,,,,,,,,,,,,,,,,,,,,,,,,,,,,,,,,,,,,,,,,,,,,,
1738746917.460472,38.000000,0.000000,4251.538574,4296.666504,4238.717773,4272.307617,4306.922852,4315.897461,4312.179688,4240.256348,4156.794922,4028.205078,4215.000000,3069.871826,4400.641113,4446.538574,0.000000,1.000000,30.000000,,,,0.000000,0.000000,0.000000,0.000000,0.000000,0.000000,0.000000,0.000000,0.000000,0.000000,0.000000,0.000000,0.000000,0.000000,0.000000,0.000000,,,,,,,,,,,,,,,,,,,,,,,,,,,,,,,,,,,,,,,,,,,,,,,,,,,,,,,,,,,,,,,,,,,,,,,,,,,,,,,,,,,,,,,,,,,,,,,,,,,,,,,,,,,,,,,,,,,,,,,,,,,,,,,,,
1738746917.468280,39.000000,0.000000,4251.282227,4294.615234,4239.358887,4265.000000,4304.743652,4315.000000,4310.897461,4239.358887,4158.333496,4029.871826,4216.025879,3069.102539,4402.948730,4446.538574,0.000000,1.000000,30.000000,,,,0.000000,0.000000,0.000000,0.000000,0.000000,0.000000,0.000000,0.000000,0.000000,0.000000,0.000000,0.000000,0.000000,0.000000,0.000000,0.000000,,,,,,,,,,,,,,,,,,,,,,,,,,,,,,,,,,,,,,,,,,,,,,,,,,,,,,,,,,,,,,,,,,,,,,,,,,,,,,,,,,,,,,,,,,,,,,,,,,,,,,,,,,,,,,,,,,,,,,,,,,,,,,,,,
1738746917.476188,40.000000,0.000000,4251.666504,4292.051270,4240.641113,4264.871582,4306.025879,4316.410156,4314.358887,4239.743652,4160.512695,4029.871826,4215.897461,3066.794922,4400.000000,4449.871582,0.000000,1.000000,30.000000,,,,0.000000,0.000000,0.000000,0.000000,0.000000,0.000000,0.000000,0.000000,0.000000,0.000000,0.000000,0.000000,0.000000,0.000000,0.000000,0.000000,,,,,,,,,,,,,,,,,10.000000,0.000000,0.798880,-0.597900,0.060791,-0.024719,-0.068856,-0.966427,0.271029,1.457878,-13.652776,21.152956,,,,,,,,,,,,,,,,,,,,,,,,,,,,,,,,,,,,,,,,,,,,,,,,,,,,,,,,,,,,,,,,,,,,,,,,,,,,,,,,,,,,,,,,,,,,,,,,,,,,,
1738746917.483996,41.000000,0.000000,4252.179688,4294.102539,4241.025879,4271.922852,4306.922852,4315.384766,4315.512695,4237.563965,4161.410156,4031.666748,4218.077148,3069.230713,4402.051270,4455.256348,0.000000,1.000000,30.000000,,,,0.000000,0.000000,0.000000,0.000000,0.000000,0.000000,0.000000,0.000000,0.000000,0.000000,0.000000,0.000000,0.000000,0.000000,0.000000,0.000000,,,,,,,,,,,,,,,,,,,,,,,,,,,,,,,,,,,,,,,,,,,,,,,,,,,,,,,,,,,,,,,,,,,,,,,,,,,,,,,,,,,,,,,,,,,,,,,,,,,,,,,,,,,,,,,,,,,,,,,,,,,,,,,,,
1738746917.491904,42.000000,0.000000,4253.205078,4293.974121,4242.436035,4275.000000,4306.410156,4317.179688,4313.461426,4237.563965,4161.153809,4032.051270,4219.615234,3070.256348,4399.230957,4447.051270,0.000000,1.000000,30.000000,,,,0.000000,0.000000,0.000000,0.000000,0.000000,0.000000,0.000000,0.000000,0.000000,0.000000,0.000000,0.000000,0.000000,0.000000,0.000000,0.000000,,,,,,,,,,,,,,,,,,,,,,,,,,,,,,,,,,,,,,,,,,,,,,,,,,,,,,,,,,,,0.016544,0.022907,0.025004,0.010462,0.023031,0.021951,0.016858,0.016604,0.016046,0.012801,0.027663,0.030888,0.016339,0.017800,0.024444,0.026218,0.009163,0.035983,0.023225,0.035211,0.021355,0.016629,0.029769,0.016966,0.023385,0.023339,0.035500,0.013462,0.023083,0.017342,0.012030,0.048116,0.042486,0.026436,0.033423,0.024075,0.021954,0.014635,0.008728,0.021949,0.024906,0.024935,0.017871,0.022762,0.020313,0.010129,0.005678,0.028797,0.019152,0.024891,0.027215,0.032811,0.022076,0.013333,0.018112,0.015805,0.015748,0.017158,0.015772,0.014639,0.024455,0.063703,0.030868,0.020269,0.025598,0.018662,0.016080,0.018295,0.008779,0.028005
1738746917.499712,43.000000,0.000000,4252.436035,4292.948730,4241.922852,4270.769043,4303.717773,4318.717773,4308.717773,4241.025879,4159.358887,4031.281982,4218.717773,3070.256348,4399.743652,4448.589844,0.000000,1.000000,30.000000,,,,0.000000,0.000000,0.000000,0.000000,0.000000,0.000000,0.000000,0.000000,0.000000,0.000000,0.000000,0.000000,0.000000,0.000000,0.000000,0.000000,,,,,,,,,,,,,,,,,,,,,,,,,,,,,,,,,,,,,,,,,,,,,,,,,,,,,,,,,,,,,,,,,,,,,,,,,,,,,,,,,,,,,,,,,,,,,,,,,,,,,,,,,,,,,,,,,,,,,,,,,,,,,,,,,
1738746917.507620,44.000000,0.000000,4251.153809,4293.589844,4240.256348,4270.769043,4303.589844,4317.436035,4311.025879,4240.769043,4158.589844,4036.153809,4217.820313,3069.487061,4401.025879,4447.820313,0.000000,1.000000,30.000000,,,,0.000000,0.000000,0.000000,0.000000,0.000000,0.000000,0.000000,0.000000,0.000000,0.000000,0.000000,0.000000,0.000000,0.000000,0.000000,0.000000,,,,,,,,,,,,,,,,,11.000000,0.000000,0.798841,-0.597961,0.060669,-0.024780,-0.069344,-0.960566,0.278354,1.328757,-13.804165,21.170994,,,,,,,,,,,,,,,,,,,,,,,,,,,,,,,,,,,,,,,,,,,,,,,,,,,,,,,,,,,,,,,,,,,,,,,,,,,,,,,,,,,,,,,,,,,,,,,,,,,,,
1738746917.515428,45.000000,0.000000,4255.256348,4293.717773,4241.410156,4275.256348,4305.512695,4317.692383,4315.512695,4238.589844,4159.871582,4038.205078,4217.179688,3068.461426,4398.717773,4442.179688,0.000000,1.000000,30.000000,,,,0.000000,0.000000,0.000000,0.000000,0.000000,0.000000,0.000000,0.000000,0.000000,0.000000,0.000000,0.000000,0.000000,0.000000,0.000000,0.000000,,,,,,,,,,,,,,,,,,,,,,,,,,,,,,,,,,,,,,,,,,,,,,,,,,,,,,,,,,,,,,,,,,,,,,,,,,,,,,,,,,,,,,,,,,,,,,,,,,,,,,,,,,,,,,,,,,,,,,,,,,,,,,,,,
1738746917.523336,46.000000,0.000000,4257.179688,4294.871582,4242.436035,4275.256348,4306.282227,4318.205078,4313.077148,4239.102539,4160.256348,4032.307617,4218.589844,3069.487061,4402.307617,4450.512695,0.000000,1.000000,30.000000,,,,0.000000,0.000000,0.000000,0.000000,0.000000,0.000000,0.000000,0.000000,0.000000,0.000000,0.000000,0.000000,0.000000,0.000000,0.000000,0.000000,,,,,,,,,,,,,,,,,,,,,,,,,,,,,,,,,,,,,,,,,,,,,,,,,,,,,,,,,,,,,,,,,,,,,,,,,,,,,,,,,,,,,,,,,,,,,,,,,,,,,,,,,,,,,,,,,,,,,,,,,,,,,,,,,
1738746917.531143,47.000000,0.000000,4254.615234,4295.384766,4240.000000,4271.282227,4307.948730,4317.820313,4314.871582,4241.025879,4159.743652,4030.512939,4217.692383,3068.589844,4401.666504,4449.358887,0.000000,1.000000,30.000000,,,,0.000000,0.000000,0.000000,0.000000,0.000000,0.000000,0.000000,0.000000,0.000000,0.000000,0.000000,0.000000,0.000000,0.000000,0.000000,0.000000,,,,,,,,,,,,,,,,,,,,,,,,,,,,,,,,,,,,,,,,,,,,,,,,,,,,,,,,,,,,,,,,,,,,,,,,,,,,,,,,,,,,,,,,,,,,,,,,,,,,,,,,,,,,,,,,,,,,,,,,,,,,,,,,,
1738746917.538852,48.000000,0.000000,4255.512695,4294.358887,4239.102539,4269.743652,4307.948730,4317.051270,4316.666504,4239.871582,4159.230957,4033.846191,4218.717773,3069.102539,4399.871582,4447.692383,0.000000,1.000000,30.000000,,,,0.000000,0.000000,0.000000,0.000000,0.000000,0.000000,0.000000,0.000000,0.000000,0.000000,0.000000,0.000000,0.000000,0.000000,0.000000,0.000000,,,,,,,,,,,,,,,,,12.000000,0.000000,0.798851,-0.597961,0.060547,-0.024780,-0.070321,-0.958125,0.280796,1.329214,-13.757082,21.153894,,,,,,,,,,,,,,,,,,,,,,,,,,,,,,,,,,,,,,,,,,,,,,,,,,,,,,,,,,,,,,,,,,,,,,,,,,,,,,,,,,,,,,,,,,,,,,,,,,,,,
1738746917.546660,49.000000,0.000000,4254.615234,4292.948730,4241.025879,4272.051270,4307.307617,4318.205078,4315.256348,4239.230957,4159.615234,4031.923096,4217.179688,3068.846191,4399.487305,4448.205078,0.000000,1.000000,30.000000,,,,0.000000,0.000000,0.000000,0.000000,0.000000,0.000000,0.000000,0.000000,0.000000,0.000000,0.000000,0.000000,0.000000,0.000000,0.000000,0.000000,,,,,,,,,,,,,,,,,,,,,,,,,,,,,,,,,,,,,,,,,,,,,,,,,,,,,,,,,,,,,,,,,,,,,,,,,,,,,,,,,,,,,,,,,,,,,,,,,,,,,,,,,,,,,,,,,,,,,,,,,,,,,,,,,
1738746917.554368,50.000000,0.000000,4250.897461,4292.179688,4240.512695,4270.769043,4307.563965,4319.102539,4313.974121,4240.769043,4161.025879,4027.179443,4214.743652,3067.435791,4397.563965,4443.461426,0.000000,1.000000,30.000000,,,,0.000000,0.000000,0.000000,0.000000,0.000000,0.000000,0.000000,0.000000,0.000000,0.000000,0.000000,0.000000,0.000000,0.000000,0.000000,0.000000,,,,,,,,,,,,,,,,,,,,,,,,,,,,,,,,,,,,,,,,,,,,,,,,,,,,,,,,,,,,,,,,,,,,,,,,,,,,,,,,,,,,,,,,,,,,,,,,,,,,,,,,,,,,,,,,,,,,,,,,,,,,,,,,,
1738746917.562176,51.000000,0.000000,4251.794922,4295.128418,4237.820313,4268.717773,4306.410156,4317.820313,4311.025879,4241.025879,4159.743652,4033.333252,4220.256348,3069.487061,4402.948730,4449.487305,0.000000,1.000000,30.000000,,,,0.000000,0.000000,0.000000,0.000000,0.000000,0.000000,0.000000,0.000000,0.000000,0.000000,0.000000,0.000000,0.000000,0.000000,0.000000,0.000000,,,,,,,,,,,,,,,,,,,,,,,,,,,,,,,,,,,,,,,,,,,,,,,,,,,,,,,,,,,,,,,,,,,,,,,,,,,,,,,,,,,,,,,,,,,,,,,,,,,,,,,,,,,,,,,,,,,,,,,,,,,,,,,,,
1738746917.569884,52.000000,0.000000,4253.461426,4298.846191,4238.589844,4271.794922,4304.102539,4318.717773,4313.846191,4240.000000,4158.846191,4038.974365,4220.641113,3068.974365,4403.077148,4446.538574,0.000000,1.000000,30.000000,,,,0.000000,0.000000,0.000000,0.000000,0.000000,0.000000,0.000000,0.000000,0.000000,0.000000,0.000000,0.000000,0.000000,0.000000,0.000000,0.000000,,,,,,,,,,,,,,,,,13.000000,0.000000,0.798894,-0.597900,0.060547,-0.024841,-0.072274,-0.962520,0.277866,1.296293,-13.848041,21.171839,,,,,,,,,,,,,,,,,,,,,,,,,,,,,,,,,,,,,,,,,,,,,,,,,,,,,,,,,,,,,,,,,,,,,,,,,,,,,,,,,,,,,,,,,,,,,,,,,,,,,
1738746917.577692,53.000000,0.000000,4252.563965,4298.077148,4240.512695,4273.717773,4304.615234,4317.307617,4317.436035,4238.333496,4161.153809,4034.102539,4217.563965,3067.179443,4402.051270,4443.461426,0.000000,1.000000,30.000000,,,,0.000000,0.000000,0.000000,0.000000,0.000000,0.000000,0.000000,0.000000,0.000000,0.000000,0.000000,0.000000,0.000000,0.000000,0.000000,0.000000,,,,,,,,,,,,,,,,,,,,,,,,,,,,,,,,,,,,,,,,,,,,,,,,,,,,,,,,,,,,,,,,,,,,,,,,,,,,,,,,,,,,,,,,,,,,,,,,,,,,,,,,,,,,,,,,,,,,,,,,,,,,,,,,,
1738746917.585400,54.000000,0.000000,4252.820313,4293.461426,4240.256348,4269.743652,4307.051270,4315.897461,4314.487305,4238.717773,4161.282227,4033.076904,4219.230957,3067.051270,4403.077148,4448.589844,0.000000,1.000000,30.000000,,,,0.000000,0.000000,0.000000,0.000000,0.000000,0.000000,0.000000,0.000000,0.000000,0.000000,0.000000,0.000000,0.000000,0.000000,0.000000,0.000000,,,,,,,,,,,,,,,,,,,,,,,,,,,,,,,,,,,,,,,,,,,,,,,,,,,,,,,,,,,,,,,,,,,,,,,,,,,,,,,,,,,,,,,,,,,,,,,,,,,,,,,,,,,,,,,,,,,,,,,,,,,,,,,,,
1738746917.593308,55.000000,0.000000,4252.563965,4291.666504,4242.179688,4266.153809,4309.230957,4318.077148,4311.025879,4241.153809,4159.230957,4036.666748,4220.128418,3067.564209,4398.077148,4443.461426,0.000000,1.000000,30.000000,,,,0.000000,0.000000,0.000000,0.000000,0.000000,0.000000,0.000000,0.000000,0.000000,0.000000,0.000000,0.000000,0.000000,0.000000,0.000000,0.000000,,,,,,,,,,,,,,,,,,,,,,,,,,,,,,,,,,,,,,,,,,,,,,,,,,,,,,,,,,,,,,,,,,,,,,,,,,,,,,,,,,,,,,,,,,,,,,,,,,,,,,,,,,,,,,,,,,,,,,,,,,,,,,,,,
1738746917.601116,56.000000,0.000000,4251.538574,4293.846191,4243.333496,4269.102539,4310.000000,4317.948730,4309.102539,4241.025879,4159.743652,4035.000000,4217.692383,3069.743652,4402.051270,4444.487305,0.000000,1.000000,30.000000,,,,0.000000,0.000000,0.000000,0.000000,0.000000,0.000000,0.000000,0.000000,0.000000,0.000000,0.000000,0.000000,0.000000,0.000000,0.000000,0.000000,,,,,,,,,,,,,,,,,14.000000,0.000000,0.798899,-0.597900,0.060486,-0.024841,-0.072274,-0.964962,0.277866,1.249997,-13.863236,21.004654,,,,,,,,,,,,,,,,,,,,,,,,,,,,,,,,,,,,,,,,,,,,,,,,,,,,,,,,,,,,,,,,,,,,,,,,,,,,,,,,,,,,,,,,,,,,,,,,,,,,,
1738746917.608923,57.000000,0.000000,4251.153809,4292.948730,4240.384766,4272.563965,4308.077148,4317.820313,4313.077148,4240.000000,4160.256348,4031.153809,4211.666504,3068.974365,4406.282227,4445.000000,0.000000,1.000000,30.000000,,,,0.000000,0.000000,0.000000,0.000000,0.000000,0.000000,0.000000,0.000000,0.000000,0.000000,0.000000,0.000000,0.000000,0.000000,0.000000,0.000000,,,,,,,,,,,,,,,,,,,,,,,,,,,,,,,,,,,,,,,,,,,,,,,,,,,,,,,,,,,,,,,,,,,,,,,,,,,,,,,,,,,,,,,,,,,,,,,,,,,,,,,,,,,,,,,,,,,,,,,,,,,,,,,,,
1738746917.616632,58.000000,0.000000,4251.538574,4291.666504,4240.128418,4270.897461,4309.743652,4317.051270,4314.871582,4240.128418,4157.948730,4031.410156,4213.589844,3068.589844,4405.769043,4445.000000,0.000000,1.000000,30.000000,,,,0.000000,0.000000,0.000000,0.000000,0.000000,0.000000,0.000000,0.000000,0.000000,0.000000,0.000000,0.000000,0.000000,0.000000,0.000000,0.000000,,,,,,,,,,,,,,,,,,,,,,,,,,,,,,,,,,,,,,,,,,,,,,,,,,,,,,,,,,,,0.018169,0.024909,0.025778,0.009058,0.020679,0.020833,0.022385,0.015588,0.015017,0.014727,0.034199,0.030009,0.016820,0.018006,0.025769,0.034262,0.012132,0.050851,0.028864,0.043458,0.016672,0.013407,0.024717,0.015070,0.023715,0.022586,0.033576,0.011616,0.025745,0.018458,0.013741,0.036371,0.035081,0.029377,0.035668,0.024363,0.017538,0.014177,0.007614,0.021310,0.024282,0.024628,0.021364,0.025950,0.022843,0.009315,0.005137,0.028393,0.013163,0.023694,0.029769,0.037330,0.016776,0.013909,0.020510,0.016626,0.012453,0.016598,0.017415,0.015303,0.023195,0.064064,0.033795,0.022580,0.023367,0.017547,0.014376,0.015615,0.008489,0.028525
1738746917.624539,59.000000,0.000000,4252.820313,4295.128418,4241.666504,4269.230957,4311.025879,4317.051270,4311.410156,4240.256348,4159.615234,4034.743652,4219.230957,3069.615479,4405.000000,4448.589844,0.000000,1.000000,30.000000,,,,0.000000,0.000000,0.000000,0.000000,0.000000,0.000000,0.000000,0.000000,0.000000,0.000000,0.000000,0.000000,0.000000,0.000000,0.000000,0.000000,,,,,,,,,,,,,,,,,,,,,,,,,,,,,,,,,,,,,,,,,,,,,,,,,,,,,,,,,,,,,,,,,,,,,,,,,,,,,,,,,,,,,,,,,,,,,,,,,,,,,,,,,,,,,,,,,,,,,,,,,,,,,,,,,
1738746917.632347,60.000000,0.000000,4252.948730,4297.051270,4240.769043,4271.025879,4306.538574,4319.102539,4311.025879,4243.461426,4162.820313,4035.641113,4215.512695,3068.589844,4401.153809,4443.974121,0.000000,1.000000,30.000000,,,,0.000000,0.000000,0.000000,0.000000,0.000000,0.000000,0.000000,0.000000,0.000000,0.000000,0.000000,0.000000,0.000000,0.000000,0.000000,0.000000,,,,,,,,,,,,,,,,,15.000000,0.000000,0.798899,-0.597900,0.060486,-0.024841,-0.074228,-0.961543,0.281773,1.308331,-13.893579,21.004189,,,,,,,,,,,,,,,,,,,,,,,,,,,,,,,,,,,,,,,,,,,,,,,,,,,,,,,,,,,,,,,,,,,,,,,,,,,,,,,,,,,,,,,,,,,,,,,,,,,,,
1738746917.640255,61.000000,0.000000,4253.077148,4295.000000,4240.769043,4271.538574,4304.358887,4318.461426,4311.666504,4243.974121,4160.000000,4034.871826,4216.538574,3069.230713,4403.461426,4448.333496,0.000000,1.000000,30.000000,,,,0.000000,0.000000,0.000000,0.000000,0.000000,0.000000,0.000000,0.000000,0.000000,0.000000,0.000000,0.000000,0.000000,0.000000,0.000000,0.000000,,,,,,,,,,,,,,,,,,,,,,,,,,,,,,,,,,,,,,,,,,,,,,,,,,,,,,,,,,,,,,,,,,,,,,,,,,,,,,,,,,,,,,,,,,,,,,,,,,,,,,,,,,,,,,,,,,,,,,,,,,,,,,,,,
1738746917.648063,62.000000,0.000000,4253.461426,4294.358887,4242.820313,4273.205078,4305.641113,4316.538574,4312.692383,4240.769043,4159.102539,4035.897461,4220.384766,3067.692383,4401.794922,4446.922852,0.000000,1.000000,30.000000,,,,0.000000,0.000000,0.000000,0.000000,0.000000,0.000000,0.000000,0.000000,0.000000,0.000000,0.000000,0.000000,0.000000,0.000000,0.000000,0.000000,,,,,,,,,,,,,,,,,,,,,,,,,,,,,,,,,,,,,,,,,,,,,,,,,,,,,,,,,,,,,,,,,,,,,,,,,,,,,,,,,,,,,,,,,,,,,,,,,,,,,,,,,,,,,,,,,,,,,,,,,,,,,,,,,
1738746917.655971,63.000000,0.000000,4252.436035,4296.025879,4243.589844,4274.615234,4305.769043,4318.717773,4311.922852,4241.666504,4160.897461,4034.358887,4218.846191,3066.281982,4400.897461,4440.769043,0.000000,1.000000,30.000000,,,,0.000000,0.000000,0.000000,0.000000,0.000000,0.000000,0.000000,0.000000,0.000000,0.000000,0.000000,0.000000,0.000000,0.000000,0.000000,0.000000,,,,,,,,,,,,,,,,,,,,,,,,,,,,,,,,,,,,,,,,,,,,,,,,,,,,,,,,,,,,,,,,,,,,,,,,,,,,,,,,,,,,,,,,,,,,,,,,,,,,,,,,,,,,,,,,,,,,,,,,,,,,,,,,,
1738746917.663779,64.000000,0.000000,4251.153809,4297.051270,4243.717773,4271.666504,4306.666504,4321.538574,4308.974121,4244.102539,4159.102539,4032.692383,4219.871582,3069.615479,4406.410156,4448.589844,0.000000,1.000000,30.000000,,,,0.000000,0.000000,0.000000,0.000000,0.000000,0.000000,0.000000,0.000000,0.000000,0.000000,0.000000,0.000000,0.000000,0.000000,0.000000,0.000000,,,,,,,,,,,,,,,,,16.000000,0.000000,0.798899,-0.597900,0.060486,-0.024841,-0.060554,-0.959590,0.280308,1.344164,-14.037555,21.153770,,,,,,,,,,,,,,,,,,,,,,,,,,,,,,,,,,,,,,,,,,,,,,,,,,,,,,,,,,,,,,,,,,,,,,,,,,,,,,,,,,,,,,,,,,,,,,,,,,,,,
1738746917.671687,65.000000,0.000000,4252.051270,4295.384766,4244.102539,4271.153809,4309.871582,4322.436035,4312.820313,4242.051270,4157.436035,4034.615479,4217.948730,3068.846191,4401.153809,4447.307617,0.000000,1.000000,30.000000,,,,0.000000,0.000000,0.000000,0.000000,0.000000,0.000000,0.000000,0.000000,0.000000,0.000000,0.000000,0.000000,0.000000,0.000000,0.000000,0.000000,,,,,,,,,,,,,,,,,,,,,,,,,,,,,,,,,,,,,,,,,,,,,,,,,,,,,,,,,,,,,,,,,,,,,,,,,,,,,,,,,,,,,,,,,,,,,,,,,,,,,,,,,,,,,,,,,,,,,,,,,,,,,,,,,
1738746917.679495,66.000000,0.000000,4254.871582,4294.358887,4241.025879,4272.436035,4308.846191,4320.769043,4315.641113,4238.717773,4158.333496,4033.846191,4216.282227,3068.589844,4399.615234,4446.153809,0.000000,1.000000,30.000000,,,,0.000000,0.000000,0.000000,0.000000,0.000000,0.000000,0.000000,0.000000,0.000000,0.000000,0.000000,0.000000,0.000000,0.000000,0.000000,0.000000,,,,,,,,,,,,,,,,,,,,,,,,,,,,,,,,,,,,,,,,,,,,,,,,,,,,,,,,,,,,,,,,,,,,,,,,,,,,,,,,,,,,,,,,,,,,,,,,,,,,,,,,,,,,,,,,,,,,,,,,,,,,,,,,,
1738746917.687403,67.000000,0.000000,4256.025879,4296.922852,4239.615234,4271.282227,4306.922852,4317.820313,4314.615234,4239.230957,4158.846191,4032.435791,4216.666504,3072.051270,4403.205078,4449.230957,0.000000,1.000000,30.000000,,,,0.000000,0.000000,0.000000,0.000000,0.000000,0.000000,0.000000,0.000000,0.000000,0.000000,0.000000,0.000000,0.000000,0.000000,0.000000,0.000000,,,,,,,,,,,,,,,,,,,,,,,,,,,,,,,,,,,,,,,,,,,,,,,,,,,,,,,,,,,,,,,,,,,,,,,,,,,,,,,,,,,,,,,,,,,,,,,,,,,,,,,,,,,,,,,,,,,,,,,,,,,,,,,,,
1738746917.695211,68.000000,0.000000,4255.384766,4297.692383,4241.922852,4270.769043,4309.230957,4316.666504,4313.846191,4240.000000,4159.230957,4035.256348,4215.512695,3070.512939,4402.307617,4446.153809,0.000000,1.000000,30.000000,,,,0.000000,0.000000,0.000000,0.000000,0.000000,0.000000,0.000000,0.000000,0.000000,0.000000,0.000000,0.000000,0.000000,0.000000,0.000000,0.000000,,,,,,,,,,,,,,,,,17.000000,0.000000,0.798853,-0.597961,0.060486,-0.024841,-0.067879,-0.963008,0.281284,1.259748,-14.050466,21.171726,,,,,,,,,,,,,,,,,,,,,,,,,,,,,,,,,,,,,,,,,,,,,,,,,,,,,,,,,,,,,,,,,,,,,,,,,,,,,,,,,,,,,,,,,,,,,,,,,,,,,
1738746917.702919,69.000000,0.000000,4253.717773,4295.256348,4240.512695,4273.974121,4311.666504,4317.436035,4312.051270,4239.487305,4162.051270,4036.923096,4217.179688,3068.718018,4404.358887,4449.230957,0.000000,1.000000,30.000000,,,,0.000000,0.000000,0.000000,0.000000,0.000000,0.000000,0.000000,0.000000,0.000000,0.000000,0.000000,0.000000,0.000000,0.000000,0.000000,0.000000,,,,,,,,,,,,,,,,,,,,,,,,,,,,,,,,,,,,,,,,,,,,,,,,,,,,,,,,,,,,,,,,,,,,,,,,,,,,,,,,,,,,,,,,,,,,,,,,,,,,,,,,,,,,,,,,,,,,,,,,,,,,,,,,,
1738746917.710727,70.000000,0.000000,4251.153809,4291.794922,4240.897461,4274.230957,4309.487305,4317.563965,4314.230957,4240.641113,4164.358887,4035.769287,4217.051270,3069.871826,4400.769043,4446.282227,0.000000,1.000000,30.000000,,,,0.000000,0.000000,0.000000,0.000000,0.000000,0.000000,0.000000,0.000000,0.000000,0.000000,0.000000,0.000000,0.000000,0.000000,0.000000,0.000000,,,,,,,,,,,,,,,,,,,,,,,,,,,,,,,,,,,,,,,,,,,,,,,,,,,,,,,,,,,,,,,,,,,,,,,,,,,,,,,,,,,,,,,,,,,,,,,,,,,,,,,,,,,,,,,,,,,,,,,,,,,,,,,,,
1738746917.718435,71.000000,0.000000,4252.051270,4291.794922,4243.589844,4269.358887,4307.179688,4316.410156,4314.615234,4240.512695,4162.820313,4037.435791,4216.666504,3070.256348,4400.769043,4443.461426,0.000000,1.000000,30.000000,,,,0.000000,0.000000,0.000000,0.000000,0.000000,0.000000,0.000000,0.000000,0.000000,0.000000,0.000000,0.000000,0.000000,0.000000,0.000000,0.000000,,,,,,,,,,,,,,,,,,,,,,,,,,,,,,,,,,,,,,,,,,,,,,,,,,,,,,,,,,,,,,,,,,,,,,,,,,,,,,,,,,,,,,,,,,,,,,,,,,,,,,,,,,,,,,,,,,,,,,,,,,,,,,,,,
1738746917.726243,72.000000,0.000000,4255.641113,4295.512695,4241.538574,4268.974121,4309.358887,4316.538574,4312.436035,4239.871582,4162.179688,4037.564209,4218.077148,3067.948730,4405.512695,4444.871582,0.000000,1.000000,30.000000,,,,0.000000,0.000000,0.000000,0.000000,0.000000,0.000000,0.000000,0.000000,0.000000,0.000000,0.000000,0.000000,0.000000,0.000000,0.000000,0.000000,,,,,,,,,,,,,,,,,18.000000,0.000000,0.798810,-0.598022,0.060425,-0.024902,-0.064461,-0.958613,0.282749,1.317106,-14.028752,21.104553,,,,,,,,,,,,,,,,,,,,,,,,,,,,,,,,,,,,,,,,,,,,,,,,,,,,,,,,,,,,,,,,,,,,,,,,,,,,,,,,,,,,,,,,,,,,,,,,,,,,,
1738746917.733951,73.000000,0.000000,4256.666504,4295.641113,4241.025879,4273.717773,4309.871582,4319.230957,4314.230957,4243.077148,4163.846191,4034.615479,4216.794922,3067.051270,4401.794922,4441.666504,0.000000,1.000000,30.000000,,,,0.000000,0.000000,0.000000,0.000000,0.000000,0.000000,0.000000,0.000000,0.000000,0.000000,0.000000,0.000000,0.000000,0.000000,0.000000,0.000000,,,,,,,,,,,,,,,,,,,,,,,,,,,,,,,,,,,,,,,,,,,,,,,,,,,,,,,,,,,,,,,,,,,,,,,,,,,,,,,,,,,,,,,,,,,,,,,,,,,,,,,,,,,,,,,,,,,,,,,,,,,,,,,,,
1738746917.741759,74.000000,0.000000,4253.589844,4295.769043,4244.615234,4273.461426,4306.410156,4318.589844,4313.461426,4244.358887,4162.563965,4035.128174,4216.153809,3069.487061,4402.692383,4448.333496,0.000000,1.000000,30.000000,,,,0.000000,0.000000,0.000000,0.000000,0.000000,0.000000,0.000000,0.000000,0.000000,0.000000,0.000000,0.000000,0.000000,0.000000,0.000000,0.000000,,,,,,,,,,,,,,,,,,,,,,,,,,,,,,,,,,,,,,,,,,,,,,,,,,,,,,,,,,,,0.019581,0.025680,0.025696,0.008946,0.018610,0.020843,0.028793,0.015059,0.014929,0.017145,0.040496,0.029381,0.017590,0.018395,0.026883,0.050301,0.018269,0.065942,0.034164,0.052566,0.013865,0.011226,0.021235,0.013129,0.024226,0.022082,0.028856,0.011278,0.027879,0.020325,0.015749,0.027904,0.028362,0.032460,0.037260,0.025691,0.014090,0.012653,0.007384,0.020591,0.024556,0.022299,0.024015,0.029111,0.025172,0.008434,0.006764,0.030111,0.010196,0.025386,0.031431,0.039874,0.013265,0.015016,0.024114,0.019305,0.009632,0.016068,0.019104,0.015820,0.022834,0.062937,0.036793,0.025200,0.021092,0.016301,0.013323,0.014925,0.008063,0.027890
1738746917.749467,75.000000,0.000000,4251.025879,4297.179688,4243.717773,4270.769043,4306.153809,4317.179688,4313.461426,4241.410156,4160.256348,4035.384521,4217.563965,3069.230713,4402.563965,4447.436035,0.000000,1.000000,30.000000,,,,0.000000,0.000000,0.000000,0.000000,0.000000,0.000000,0.000000,0.000000,0.000000,0.000000,0.000000,0.000000,0.000000,0.000000,0.000000,0.000000,,,,,,,,,,,,,,,,,,,,,,,,,,,,,,,,,,,,,,,,,,,,,,,,,,,,,,,,,,,,,,,,,,,,,,,,,,,,,,,,,,,,,,,,,,,,,,,,,,,,,,,,,,,,,,,,,,,,,,,,,,,,,,,,,
1738746917.757375,76.000000,0.000000,4253.333496,4296.282227,4240.128418,4272.692383,4308.589844,4315.897461,4313.461426,4240.769043,4159.871582,4035.000000,4219.487305,3071.025635,4401.282227,4441.794922,0.000000,1.000000,30.000000,,,,0.000000,0.000000,0.000000,0.000000,0.000000,0.000000,0.000000,0.000000,0.000000,0.000000,0.000000,0.000000,0.000000,0.000000,0.000000,0.000000,,,,,,,,,,,,,,,,,19.000000,0.000000,0.798856,-0.597961,0.060425,-0.024902,-0.058113,-0.967403,0.275424,1.402062,-13.959210,21.010765,,,,,,,,,,,,,,,,,,,,,,,,,,,,,,,,,,,,,,,,,,,,,,,,,,,,,,,,,,,,,,,,,,,,,,,,,,,,,,,,,,,,,,,,,,,,,,,,,,,,,
1738746917.765183,77.000000,0.000000,4254.871582,4296.410156,4241.794922,4274.487305,4307.563965,4316.282227,4312.563965,4242.948730,4160.897461,4035.384521,4217.436035,3071.794922,4404.358887,4446.153809,0.000000,1.000000,30.000000,,,,0.000000,0.000000,0.000000,0.000000,0.000000,0.000000,0.000000,0.000000,0.000000,0.000000,0.000000,0.000000,0.000000,0.000000,0.000000,0.000000,,,,,,,,,,,,,,,,,,,,,,,,,,,,,,,,,,,,,,,,,,,,,,,,,,,,,,,,,,,,,,,,,,,,,,,,,,,,,,,,,,,,,,,,,,,,,,,,,,,,,,,,,,,,,,,,,,,,,,,,,,,,,,,,,
1738746917.773091,78.000000,0.000000,4252.179688,4297.563965,4242.692383,4272.051270,4305.256348,4319.230957,4313.461426,4243.461426,4161.538574,4034.743652,4214.743652,3067.179443,4401.282227,4443.333496,0.000000,1.000000,30.000000,,,,0.000000,0.000000,0.000000,0.000000,0.000000,0.000000,0.000000,0.000000,0.000000,0.000000,0.000000,0.000000,0.000000,0.000000,0.000000,0.000000,,,,,,,,,,,,,,,,,,,,,,,,,,,,,,,,,,,,,,,,,,,,,,,,,,,,,,,,,,,,,,,,,,,,,,,,,,,,,,,,,,,,,,,,,,,,,,,,,,,,,,,,,,,,,,,,,,,,,,,,,,,,,,,,,
1738746917.780899,79.000000,0.000000,4253.846191,4297.051270,4240.897461,4271.282227,4306.922852,4318.205078,4311.538574,4240.128418,4162.436035,4035.769287,4218.717773,3067.948730,4402.307617,4447.436035,0.000000,1.000000,30.000000,,,,0.000000,0.000000,0.000000,0.000000,0.000000,0.000000,0.000000,0.000000,0.000000,0.000000,0.000000,0.000000,0.000000,0.000000,0.000000,0.000000,,,,,,,,,,,,,,,,,,,,,,,,,,,,,,,,,,,,,,,,,,,,,,,,,,,,,,,,,,,,,,,,,,,,,,,,,,,,,,,,,,,,,,,,,,,,,,,,,,,,,,,,,,,,,,,,,,,,,,,,,,,,,,,,,
1738746917.788707,80.000000,0.000000,4255.641113,4294.102539,4242.692383,4273.717773,4310.769043,4316.153809,4311.538574,4239.358887,4162.307617,4039.230713,4219.102539,3071.025635,4403.077148,4448.461426,0.000000,1.000000,30.000000,,,,0.000000,0.000000,0.000000,0.000000,0.000000,0.000000,0.000000,0.000000,0.000000,0.000000,0.000000,0.000000,0.000000,0.000000,0.000000,0.000000,,,,,,,,,,,,,,,,,20.000000,0.000000,0.798810,-0.598022,0.060425,-0.024902,-0.065926,-0.952265,0.279819,1.395189,-14.029956,21.126356,,,,,,,,,,,,,,,,,,,,,,,,,,,,,,,,,,,,,,,,,,,,,,,,,,,,,,,,,,,,,,,,,,,,,,,,,,,,,,,,,,,,,,,,,,,,,,,,,,,,,
1738746917.796415,81.000000,0.000000,4252.307617,4294.871582,4243.333496,4274.871582,4310.897461,4317.692383,4313.077148,4242.179688,4161.410156,4037.051270,4217.436035,3069.871826,4401.282227,4443.077148,0.000000,1.000000,30.000000,,,,0.000000,0.000000,0.000000,0.000000,0.000000,0.000000,0.000000,0.000000,0.000000,0.000000,0.000000,0.000000,0.000000,0.000000,0.000000,0.000000,,,,,,,,,,,,,,,,,,,,,,,,,,,,,,,,,,,,,,,,,,,,,,,,,,,,,,,,,,,,,,,,,,,,,,,,,,,,,,,,,,,,,,,,,,,,,,,,,,,,,,,,,,,,,,,,,,,,,,,,,,,,,,,,,
1738746917.804223,82.000000,0.000000,4250.641113,4295.128418,4240.769043,4272.179688,4306.666504,4319.102539,4311.410156,4242.307617,4163.589844,4032.692383,4219.615234,3067.051270,4404.487305,4447.179688,0.000000,1.000000,30.000000,,,,0.000000,0.000000,0.000000,0.000000,0.000000,0.000000,0.000000,0.000000,0.000000,0.000000,0.000000,0.000000,0.000000,0.000000,0.000000,0.000000,,,,,,,,,,,,,,,,,,,,,,,,,,,,,,,,,,,,,,,,,,,,,,,,,,,,,,,,,,,,,,,,,,,,,,,,,,,,,,,,,,,,,,,,,,,,,,,,,,,,,,,,,,,,,,,,,,,,,,,,,,,,,,,,,
1738746917.811931,83.000000,0.000000,4251.666504,4292.563965,4242.179688,4271.410156,4305.769043,4318.589844,4314.230957,4241.666504,4166.153809,4032.051270,4216.794922,3065.256348,4402.563965,4445.256348,0.000000,1.000000,30.000000,,,,0.000000,0.000000,0.000000,0.000000,0.000000,0.000000,0.000000,0.000000,0.000000,0.000000,0.000000,0.000000,0.000000,0.000000,0.000000,0.000000,,,,,,,,,,,,,,,,,,,,,,,,,,,,,,,,,,,,,,,,,,,,,,,,,,,,,,,,,,,,,,,,,,,,,,,,,,,,,,,,,,,,,,,,,,,,,,,,,,,,,,,,,,,,,,,,,,,,,,,,,,,,,,,,,
1738746917.819739,84.000000,0.000000,4253.846191,4296.794922,4242.436035,4273.589844,4308.333496,4315.897461,4314.871582,4241.282227,4160.897461,4032.820557,4214.615234,3069.102539,4403.333496,4448.205078,0.000000,1.000000,30.000000,,,,0.000000,0.000000,0.000000,0.000000,0.000000,0.000000,0.000000,0.000000,0.000000,0.000000,0.000000,0.000000,0.000000,0.000000,0.000000,0.000000,,,,,,,,,,,,,,,,,21.000000,0.000000,0.798808,-0.598022,0.060486,-0.024841,-0.072763,-0.963497,0.279819,1.372337,-14.110294,21.130386,,,,,,,,,,,,,,,,,,,,,,,,,,,,,,,,,,,,,,,,,,,,,,,,,,,,,,,,,,,,,,,,,,,,,,,,,,,,,,,,,,,,,,,,,,,,,,,,,,,,,
1738746917.827447,85.000000,0.000000,4254.487305,4299.743652,4240.769043,4273.589844,4308.846191,4316.922852,4312.307617,4243.333496,4156.922852,4033.589844,4218.589844,3070.769287,4404.615234,4448.974121,0.000000,1.000000,30.000000,,,,0.000000,0.000000,0.000000,0.000000,0.000000,0.000000,0.000000,0.000000,0.000000,0.000000,0.000000,0.000000,0.000000,0.000000,0.000000,0.000000,,,,,,,,,,,,,,,,,,,,,,,,,,,,,,,,,,,,,,,,,,,,,,,,,,,,,,,,,,,,,,,,,,,,,,,,,,,,,,,,,,,,,,,,,,,,,,,,,,,,,,,,,,,,,,,,,,,,,,,,,,,,,,,,,
1738746917.835255,86.000000,0.000000,4252.948730,4296.025879,4243.077148,4271.666504,4308.589844,4318.461426,4312.692383,4243.589844,4161.794922,4032.820557,4220.384766,3069.102539,4402.563965,4445.000000,0.000000,1.000000,30.000000,,,,0.000000,0.000000,0.000000,0.000000,0.000000,0.000000,0.000000,0.000000,0.000000,0.000000,0.000000,0.000000,0.000000,0.000000,0.000000,0.000000,,,,,,,,,,,,,,,,,,,,,,,,,,,,,,,,,,,,,,,,,,,,,,,,,,,,,,,,,,,,,,,,,,,,,,,,,,,,,,,,,,,,,,,,,,,,,,,,,,,,,,,,,,,,,,,,,,,,,,,,,,,,,,,,,
1738746917.842963,87.000000,0.000000,4253.717773,4294.743652,4243.846191,4272.051270,4309.743652,4315.769043,4310.641113,4238.846191,4162.948730,4032.564209,4218.077148,3070.000000,4404.230957,4450.384766,0.000000,1.000000,30.000000,,,,0.000000,0.000000,0.000000,0.000000,0.000000,0.000000,0.000000,0.000000,0.000000,0.000000,0.000000,0.000000,0.000000,0.000000,0.000000,0.000000,,,,,,,,,,,,,,,,,,,,,,,,,,,,,,,,,,,,,,,,,,,,,,,,,,,,,,,,,,,,,,,,,,,,,,,,,,,,,,,,,,,,,,,,,,,,,,,,,,,,,,,,,,,,,,,,,,,,,,,,,,,,,,,,,
1738746917.850871,88.000000,0.000000,4255.256348,4295.769043,4242.820313,4272.692383,4310.512695,4318.589844,4312.820313,4240.128418,4159.743652,4033.974365,4214.487305,3069.102539,4400.128418,4445.128418,0.000000,1.000000,30.000000,,,,0.000000,0.000000,0.000000,0.000000,0.000000,0.000000,0.000000,0.000000,0.000000,0.000000,0.000000,0.000000,0.000000,0.000000,0.000000,0.000000,,,,,,,,,,,,,,,,,22.000000,0.000000,0.798851,-0.597961,0.060486,-0.024902,-0.073251,-0.960078,0.282261,1.235103,-14.049265,21.217348,,,,,,,,,,,,,,,,,,,,,,,,,,,,,,,,,,,,,,,,,,,,,,,,,,,,,,,,,,,,,,,,,,,,,,,,,,,,,,,,,,,,,,,,,,,,,,,,,,,,,
1738746917.858679,89.000000,0.000000,4253.333496,4294.743652,4240.641113,4270.769043,4309.102539,4321.282227,4317.179688,4244.230957,4159.230957,4034.615479,4218.333496,3069.743652,4400.512695,4444.743652,0.000000,1.000000,30.000000,,,,0.000000,0.000000,0.000000,0.000000,0.000000,0.000000,0.000000,0.000000,0.000000,0.000000,0.000000,0.000000,0.000000,0.000000,0.000000,0.000000,,,,,,,,,,,,,,,,,,,,,,,,,,,,,,,,,,,,,,,,,,,,,,,,,,,,,,,,,,,,,,,,,,,,,,,,,,,,,,,,,,,,,,,,,,,,,,,,,,,,,,,,,,,,,,,,,,,,,,,,,,,,,,,,,
1738746917.866586,90.000000,0.000000,4250.512695,4295.769043,4239.871582,4270.897461,4307.307617,4318.077148,4314.743652,4242.948730,4161.794922,4033.205078,4223.717773,3068.974365,4405.769043,4450.000000,0.000000,1.000000,30.000000,,,,0.000000,0.000000,0.000000,0.000000,0.000000,0.000000,0.000000,0.000000,0.000000,0.000000,0.000000,0.000000,0.000000,0.000000,0.000000,0.000000,1.000000,0.000000,0.000000,0.000000,0.000000,0.000000,0.000000,0.000000,0.000000,0.000000,0.000000,0.000000,0.000000,0.000000,0.000000,0.000000,,,,,,,,,,,,,,,,,,,,,,,,,,,,,,,,,,,,,,,,,,,,0.021492,0.025770,0.024678,0.009977,0.017125,0.020977,0.034477,0.014451,0.016367,0.019513,0.046682,0.029214,0.018305,0.018686,0.027649,0.073812,0.027010,0.077794,0.039361,0.062369,0.012456,0.011156,0.020386,0.011568,0.024728,0.021617,0.022684,0.011882,0.028851,0.022306,0.018394,0.024957,0.023782,0.034944,0.037973,0.027036,0.012443,0.010626,0.008191,0.019920,0.024708,0.018718,0.025128,0.031279,0.026697,0.007729,0.011211,0.036402,0.009943,0.029667,0.032008,0.040055,0.012272,0.016074,0.028448,0.022891,0.007495,0.014936,0.020583,0.016339,0.023085,0.060704,0.039576,0.027490,0.019168,0.015408,0.013123,0.016386,0.007966,0.026672
1738746917.874394,91.000000,0.000000,4251.410156,4299.230957,4243.333496,4274.871582,4306.538574,4317.307617,4310.512695,4241.666504,4162.948730,4034.743652,4220.128418,3065.769287,4403.205078,4446.282227,0.000000,1.000000,30.000000,,,,0.000000,0.000000,0.000000,0.000000,0.000000,0.000000,0.000000,0.000000,0.000000,0.000000,0.000000,0.000000,0.000000,0.000000,0.000000,0.000000,,,,,,,,,,,,,,,,,,,,,,,,,,,,,,,,,,,,,,,,,,,,,,,,,,,,,,,,,,,,,,,,,,,,,,,,,,,,,,,,,,,,,,,,,,,,,,,,,,,,,,,,,,,,,,,,,,,,,,,,,,,,,,,,,
1738746917.882302,92.000000,0.000000,4252.820313,4299.230957,4243.589844,4273.461426,4305.128418,4321.025879,4312.436035,4240.256348,4160.000000,4036.410156,4215.897461,3067.948730,4403.974121,4448.974121,0.000000,1.000000,30.000000,,,,0.000000,0.000000,0.000000,0.000000,0.000000,0.000000,0.000000,0.000000,0.000000,0.000000,0.000000,0.000000,0.000000,0.000000,0.000000,0.000000,,,,,,,,,,,,,,,,,23.000000,0.000000,0.798851,-0.597961,0.060486,-0.024902,-0.073251,-0.963008,0.279331,1.161593,-13.977672,21.312279,,,,,,,,,,,,,,,,,,,,,,,,,,,,,,,,,,,,,,,,,,,,,,,,,,,,,,,,,,,,,,,,,,,,,,,,,,,,,,,,,,,,,,,,,,,,,,,,,,,,,
1738746917.890110,93.000000,0.000000,4252.820313,4295.000000,4241.025879,4269.487305,4306.794922,4323.461426,4319.487305,4238.589844,4159.230957,4034.487061,4216.025879,3069.487061,4402.179688,4443.717773,0.000000,1.000000,30.000000,,,,0.000000,0.000000,0.000000,0.000000,0.000000,0.000000,0.000000,0.000000,0.000000,0.000000,0.000000,0.000000,0.000000,0.000000,0.000000,0.000000,,,,,,,,,,,,,,,,,,,,,,,,,,,,,,,,,,,,,,,,,,,,,,,,,,,,,,,,,,,,,,,,,,,,,,,,,,,,,,,,,,,,,,,,,,,,,,,,,,,,,,,,,,,,,,,,,,,,,,,,,,,,,,,,,
1738746917.898018,94.000000,0.000000,4255.128418,4292.692383,4242.692383,4271.538574,4309.615234,4318.077148,4317.179688,4240.641113,4160.641113,4036.025635,4219.615234,3066.666748,4401.025879,4441.282227,0.000000,1.000000,30.000000,,,,0.000000,0.000000,0.000000,0.000000,0.000000,0.000000,0.000000,0.000000,0.000000,0.000000,0.000000,0.000000,0.000000,0.000000,0.000000,0.000000,,,,,,,,,,,,,,,,,,,,,,,,,,,,,,,,,,,,,,,,,,,,,,,,,,,,,,,,,,,,,,,,,,,,,,,,,,,,,,,,,,,,,,,,,,,,,,,,,,,,,,,,,,,,,,,,,,,,,,,,,,,,,,,,,
1738746917.905826,95.000000,0.000000,4255.256348,4293.461426,4245.512695,4274.487305,4309.102539,4315.384766,4311.025879,4241.794922,4161.794922,4037.820557,4218.846191,3065.641113,4403.974121,4448.461426,0.000000,1.000000,30.000000,,,,0.000000,0.000000,0.000000,0.000000,0.000000,0.000000,0.000000,0.000000,0.000000,0.000000,0.000000,0.000000,0.000000,0.000000,0.000000,0.000000,,,,,,,,,,,,,,,,,,,,,,,,,,,,,,,,,,,,,,,,,,,,,,,,,,,,,,,,,,,,,,,,,,,,,,,,,,,,,,,,,,,,,,,,,,,,,,,,,,,,,,,,,,,,,,,,,,,,,,,,,,,,,,,,,
1738746917.913534,96.000000,0.000000,4252.948730,4293.974121,4243.077148,4274.230957,4309.487305,4320.128418,4315.128418,4240.769043,4159.358887,4034.230713,4214.230957,3067.820557,4400.384766,4444.615234,0.000000,1.000000,30.000000,,,,0.000000,0.000000,0.000000,0.000000,0.000000,0.000000,0.000000,0.000000,0.000000,0.000000,0.000000,0.000000,0.000000,0.000000,0.000000,0.000000,,,,,,,,,,,,,,,,,24.000000,0.000000,0.798851,-0.597961,0.060547,-0.024780,-0.082530,-0.966915,0.283238,1.212100,-14.029904,21.431051,,,,,,,,,,,,,,,,,,,,,,,,,,,,,,,,,,,,,,,,,,,,,,,,,,,,,,,,,,,,,,,,,,,,,,,,,,,,,,,,,,,,,,,,,,,,,,,,,,,,,
1738746917.921342,97.000000,0.000000,4252.820313,4295.256348,4239.487305,4274.487305,4311.153809,4320.128418,4317.692383,4241.282227,4157.692383,4034.743652,4219.230957,3070.512939,4403.461426,4447.179688,0.000000,1.000000,30.000000,,,,0.000000,0.000000,0.000000,0.000000,0.000000,0.000000,0.000000,0.000000,0.000000,0.000000,0.000000,0.000000,0.000000,0.000000,0.000000,0.000000,,,,,,,,,,,,,,,,,,,,,,,,,,,,,,,,,,,,,,,,,,,,,,,,,,,,,,,,,,,,,,,,,,,,,,,,,,,,,,,,,,,,,,,,,,,,,,,,,,,,,,,,,,,,,,,,,,,,,,,,,,,,,,,,,
1738746917.929050,98.000000,0.000000,4253.205078,4295.384766,4240.769043,4275.000000,4311.153809,4319.358887,4315.897461,4240.641113,4162.436035,4037.820557,4219.871582,3068.718018,4405.000000,4448.717773,0.000000,1.000000,30.000000,,,,0.000000,0.000000,0.000000,0.000000,0.000000,0.000000,0.000000,0.000000,0.000000,0.000000,0.000000,0.000000,0.000000,0.000000,0.000000,0.000000,,,,,,,,,,,,,,,,,,,,,,,,,,,,,,,,,,,,,,,,,,,,,,,,,,,,,,,,,,,,,,,,,,,,,,,,,,,,,,,,,,,,,,,,,,,,,,,,,,,,,,,,,,,,,,,,,,,,,,,,,,,,,,,,,
1738746917.936858,99.000000,0.000000,4254.102539,4293.589844,4243.589844,4273.077148,4308.333496,4321.794922,4313.461426,4238.589844,4165.641113,4035.897461,4215.256348,3068.333252,4400.897461,4445.128418,0.000000,1.000000,30.000000,,,,0.000000,0.000000,0.000000,0.000000,0.000000,0.000000,0.000000,0.000000,0.000000,0.000000,0.000000,0.000000,0.000000,0.000000,0.000000,0.000000,,,,,,,,,,,,,,,,,,,,,,,,,,,,,,,,,,,,,,,,,,,,,,,,,,,,,,,,,,,,,,,,,,,,,,,,,,,,,,,,,,,,,,,,,,,,,,,,,,,,,,,,,,,,,,,,,,,,,,,,,,,,,,,,,
1738746917.944566,100.000000,0.000000,4253.974121,4294.102539,4242.179688,4272.179688,4308.846191,4320.384766,4313.589844,4239.615234,4160.897461,4034.743652,4220.512695,3071.281982,4403.205078,4447.307617,0.000000,1.000000,30.000000,,,,0.000000,0.000000,0.000000,0.000000,0.000000,0.000000,0.000000,0.000000,0.000000,0.000000,0.000000,0.000000,0.000000,0.000000,0.000000,0.000000,,,,,,,,,,,,,,,,,25.000000,0.000000,0.798851,-0.597961,0.060547,-0.024780,-0.078135,-0.957148,0.265657,1.107557,-14.093580,21.254614,,,,,,,,,,,,,,,,,,,,,,,,,,,,,,,,,,,,,,,,,,,,,,,,,,,,,,,,,,,,,,,,,,,,,,,,,,,,,,,,,,,,,,,,,,,,,,,,,,,,,
1738746917.952374,101.000000,0.000000,4251.538574,4293.846191,4241.794922,4275.256348,4311.666504,4317.820313,4318.205078,4241.025879,4160.512695,4038.461426,4221.153809,3070.256348,4404.102539,4443.589844,0.000000,1.000000,30.000000,,,,0.000000,0.000000,0.000000,0.000000,0.000000,0.000000,0.000000,0.000000,0.000000,0.000000,0.000000,0.000000,0.000000,0.000000,0.000000,0.000000,,,,,,,,,,,,,,,,,,,,,,,,,,,,,,,,,,,,,,,,,,,,,,,,,,,,,,,,,,,,,,,,,,,,,,,,,,,,,,,,,,,,,,,,,,,,,,,,,,,,,,,,,,,,,,,,,,,,,,,,,,,,,,,,,
1738746917.960082,102.000000,0.000000,4253.077148,4293.974121,4244.102539,4276.153809,4308.333496,4318.717773,4315.512695,4240.512695,4164.743652,4037.307617,4217.179688,3069.743652,4405.384766,4447.563965,0.000000,1.000000,30.000000,,,,0.000000,0.000000,0.000000,0.000000,0.000000,0.000000,0.000000,0.000000,0.000000,0.000000,0.000000,0.000000,0.000000,0.000000,0.000000,0.000000,,,,,,,,,,,,,,,,,,,,,,,,,,,,,,,,,,,,,,,,,,,,,,,,,,,,,,,,,,,,,,,,,,,,,,,,,,,,,,,,,,,,,,,,,,,,,,,,,,,,,,,,,,,,,,,,,,,,,,,,,,,,,,,,,
1738746917.967890,103.000000,0.000000,4256.153809,4297.436035,4244.230957,4273.461426,4304.871582,4319.487305,4313.589844,4241.282227,4162.307617,4032.307617,4217.563965,3069.871826,4401.666504,4448.205078,0.000000,1.000000,30.000000,,,,0.000000,0.000000,0.000000,0.000000,0.000000,0.000000,0.000000,0.000000,0.000000,0.000000,0.000000,0.000000,0.000000,0.000000,0.000000,0.000000,,,,,,,,,,,,,,,,,,,,,,,,,,,,,,,,,,,,,,,,,,,,,,,,,,,,,,,,,,,,,,,,,,,,,,,,,,,,,,,,,,,,,,,,,,,,,,,,,,,,,,,,,,,,,,,,,,,,,,,,,,,,,,,,,
1738746917.975598,104.000000,0.000000,4253.846191,4297.307617,4243.461426,4272.692383,4308.205078,4319.487305,4317.179688,4239.102539,4159.615234,4033.589844,4219.743652,3068.589844,4400.000000,4444.102539,0.000000,1.000000,30.000000,,,,0.000000,0.000000,0.000000,0.000000,0.000000,0.000000,0.000000,0.000000,0.000000,0.000000,0.000000,0.000000,0.000000,0.000000,0.000000,0.000000,,,,,,,,,,,,,,,,,26.000000,0.000000,0.798803,-0.598022,0.060547,-0.024841,-0.064461,-0.965450,0.272006,1.130135,-14.150889,21.145819,,,,,,,,,,,,,,,,,,,,,,,,,,,,,,,,,,,,,,,,,,,,,,,,,,,,,,,,,,,,,,,,,,,,,,,,,,,,,,,,,,,,,,,,,,,,,,,,,,,,,
1738746917.983406,105.000000,0.000000,4252.820313,4296.922852,4243.846191,4273.846191,4311.410156,4317.948730,4316.538574,4235.384766,4163.461426,4034.743652,4220.000000,3070.384521,4406.666504,4451.410156,0.000000,1.000000,30.000000,,,,0.000000,0.000000,0.000000,0.000000,0.000000,0.000000,0.000000,0.000000,0.000000,0.000000,0.000000,0.000000,0.000000,0.000000,0.000000,0.000000,,,,,,,,,,,,,,,,,,,,,,,,,,,,,,,,,,,,,,,,,,,,,,,,,,,,,,,,,,,,,,,,,,,,,,,,,,,,,,,,,,,,,,,,,,,,,,,,,,,,,,,,,,,,,,,,,,,,,,,,,,,,,,,,,
1738746917.991114,106.000000,0.000000,4255.128418,4296.794922,4241.666504,4272.692383,4307.436035,4316.538574,4316.538574,4241.025879,4164.743652,4032.564209,4218.461426,3070.641113,4401.666504,4447.692383,0.000000,1.000000,30.000000,,,,0.000000,0.000000,0.000000,0.000000,0.000000,0.000000,0.000000,0.000000,0.000000,0.000000,0.000000,0.000000,0.000000,0.000000,0.000000,0.000000,,,,,,,,,,,,,,,,,,,,,,,,,,,,,,,,,,,,,,,,,,,,,,,,,,,,,,,,,,,,0.023959,0.025843,0.022729,0.012168,0.016328,0.021663,0.038745,0.013951,0.019437,0.021331,0.051206,0.029369,0.019256,0.018645,0.027846,0.100132,0.036369,0.083516,0.044619,0.072125,0.012223,0.014095,0.022749,0.010897,0.025058,0.020717,0.016918,0.012984,0.028217,0.023697,0.021850,0.026538,0.021732,0.036199,0.037734,0.026931,0.013215,0.008974,0.009771,0.019507,0.024337,0.015334,0.025040,0.031703,0.027109,0.007409,0.018290,0.048786,0.011165,0.035364,0.032825,0.038541,0.013951,0.016712,0.032853,0.026871,0.006193,0.013556,0.021671,0.017074,0.023759,0.057489,0.041355,0.029377,0.017872,0.015867,0.013745,0.019902,0.008671,0.025793
1738746917.998922,107.000000,0.000000,4256.025879,4296.794922,4240.000000,4271.410156,4302.436035,4317.179688,4315.256348,4244.358887,4161.538574,4035.256348,4220.384766,3070.512939,4398.974121,4446.794922,0.000000,1.000000,30.000000,,,,0.000000,0.000000,0.000000,0.000000,0.000000,0.000000,0.000000,0.000000,0.000000,0.000000,0.000000,0.000000,0.000000,0.000000,0.000000,0.000000,,,,,,,,,,,,,,,,,,,,,,,,,,,,,,,,,,,,,,,,,,,,,,,,,,,,,,,,,,,,,,,,,,,,,,,,,,,,,,,,,,,,,,,,,,,,,,,,,,,,,,,,,,,,,,,,,,,,,,,,,,,,,,,,,
1738746918.006630,108.000000,0.000000,4254.358887,4297.051270,4243.974121,4273.077148,4306.025879,4320.641113,4313.077148,4239.487305,4163.333496,4039.871826,4219.358887,3069.871826,4404.743652,4452.179688,0.000000,1.000000,30.000000,,,,0.000000,0.000000,0.000000,0.000000,0.000000,0.000000,0.000000,0.000000,0.000000,0.000000,0.000000,0.000000,0.000000,0.000000,0.000000,0.000000,,,,,,,,,,,,,,,,,27.000000,0.000000,0.798760,-0.598083,0.060486,-0.024902,-0.060554,-0.965450,0.281284,1.183788,-14.219133,21.114571,,,,,,,,,,,,,,,,,,,,,,,,,,,,,,,,,,,,,,,,,,,,,,,,,,,,,,,,,,,,,,,,,,,,,,,,,,,,,,,,,,,,,,,,,,,,,,,,,,,,,
1738746918.014538,109.000000,0.000000,4252.307617,4296.025879,4245.384766,4274.615234,4313.205078,4321.922852,4315.384766,4238.846191,4166.282227,4039.358887,4218.846191,3068.333252,4405.641113,4447.820313,0.000000,1.000000,30.000000,,,,0.000000,0.000000,0.000000,0.000000,0.000000,0.000000,0.000000,0.000000,0.000000,0.000000,0.000000,0.000000,0.000000,0.000000,0.000000,0.000000,,,,,,,,,,,,,,,,,,,,,,,,,,,,,,,,,,,,,,,,,,,,,,,,,,,,,,,,,,,,,,,,,,,,,,,,,,,,,,,,,,,,,,,,,,,,,,,,,,,,,,,,,,,,,,,,,,,,,,,,,,,,,,,,,
1738746918.022346,110.000000,0.000000,4252.820313,4294.871582,4241.153809,4273.974121,4312.820313,4320.128418,4316.666504,4241.538574,4161.025879,4036.281982,4224.102539,3069.487061,4405.769043,4448.333496,0.000000,1.000000,30.000000,,,,0.000000,0.000000,0.000000,0.000000,0.000000,0.000000,0.000000,0.000000,0.000000,0.000000,0.000000,0.000000,0.000000,0.000000,0.000000,0.000000,,,,,,,,,,,,,,,,,,,,,,,,,,,,,,,,,,,,,,,,,,,,,,,,,,,,,,,,,,,,,,,,,,,,,,,,,,,,,,,,,,,,,,,,,,,,,,,,,,,,,,,,,,,,,,,,,,,,,,,,,,,,,,,,,
1738746918.030254,111.000000,0.000000,4252.436035,4293.077148,4241.410156,4272.051270,4308.974121,4322.051270,4314.358887,4241.538574,4157.436035,4035.641113,4222.179688,3069.230713,4402.948730,4446.410156,0.000000,1.000000,30.000000,,,,0.000000,0.000000,0.000000,0.000000,0.000000,0.000000,0.000000,0.000000,0.000000,0.000000,0.000000,0.000000,0.000000,0.000000,0.000000,0.000000,,,,,,,,,,,,,,,,,,,,,,,,,,,,,,,,,,,,,,,,,,,,,,,,,,,,,,,,,,,,,,,,,,,,,,,,,,,,,,,,,,,,,,,,,,,,,,,,,,,,,,,,,,,,,,,,,,,,,,,,,,,,,,,,,
1738746918.038062,112.000000,0.000000,4253.333496,4293.717773,4242.948730,4272.820313,4310.128418,4323.461426,4311.794922,4239.871582,4160.641113,4035.384521,4218.717773,3070.128174,4405.641113,4448.974121,0.000000,1.000000,30.000000,,,,0.000000,0.000000,0.000000,0.000000,0.000000,0.000000,0.000000,0.000000,0.000000,0.000000,0.000000,0.000000,0.000000,0.000000,0.000000,0.000000,,,,,,,,,,,,,,,,,28.000000,0.000000,0.798847,-0.597961,0.060547,-0.024902,-0.059578,-0.963985,0.293493,1.232076,-14.113887,21.086447,,,,,,,,,,,,,,,,,,,,,,,,,,,,,,,,,,,,,,,,,,,,,,,,,,,,,,,,,,,,,,,,,,,,,,,,,,,,,,,,,,,,,,,,,,,,,,,,,,,,,
1738746918.045970,113.000000,0.000000,4254.871582,4295.769043,4241.922852,4275.384766,4312.179688,4319.615234,4311.794922,4240.000000,4165.769043,4036.025635,4220.512695,3069.487061,4408.205078,4453.205078,0.000000,1.000000,30.000000,,,,0.000000,0.000000,0.000000,0.000000,0.000000,0.000000,0.000000,0.000000,0.000000,0.000000,0.000000,0.000000,0.000000,0.000000,0.000000,0.000000,,,,,,,,,,,,,,,,,,,,,,,,,,,,,,,,,,,,,,,,,,,,,,,,,,,,,,,,,,,,,,,,,,,,,,,,,,,,,,,,,,,,,,,,,,,,,,,,,,,,,,,,,,,,,,,,,,,,,,,,,,,,,,,,,
1738746918.053778,114.000000,0.000000,4253.717773,4296.666504,4241.538574,4273.846191,4310.897461,4317.948730,4313.717773,4241.282227,4164.230957,4037.051270,4220.256348,3067.179443,4403.077148,4446.794922,0.000000,1.000000,30.000000,,,,0.000000,0.000000,0.000000,0.000000,0.000000,0.000000,0.000000,0.000000,0.000000,0.000000,0.000000,0.000000,0.000000,0.000000,0.000000,0.000000,,,,,,,,,,,,,,,,,,,,,,,,,,,,,,,,,,,,,,,,,,,,,,,,,,,,,,,,,,,,,,,,,,,,,,,,,,,,,,,,,,,,,,,,,,,,,,,,,,,,,,,,,,,,,,,,,,,,,,,,,,,,,,,,,
1738746918.061686,115.000000,0.000000,4253.589844,4297.307617,4240.128418,4272.179688,4308.717773,4321.153809,4311.922852,4237.692383,4160.897461,4036.281982,4221.025879,3070.769287,4403.846191,4450.512695,0.000000,1.000000,30.000000,,,,0.000000,0.000000,0.000000,0.000000,0.000000,0.000000,0.000000,0.000000,0.000000,0.000000,0.000000,0.000000,0.000000,0.000000,0.000000,0.000000,,,,,,,,,,,,,,,,,,,,,,,,,,,,,,,,,,,,,,,,,,,,,,,,,,,,,,,,,,,,,,,,,,,,,,,,,,,,,,,,,,,,,,,,,,,,,,,,,,,,,,,,,,,,,,,,,,,,,,,,,,,,,,,,,
1738746918.069494,116.000000,0.000000,4253.717773,4295.384766,4241.153809,4273.205078,4308.461426,4321.282227,4311.410156,4236.922852,4164.615234,4035.897461,4220.769043,3069.102539,4402.820313,4451.666504,0.000000,1.000000,30.000000,,,,0.000000,0.000000,0.000000,0.000000,0.000000,0.000000,0.000000,0.000000,0.000000,0.000000,0.000000,0.000000,0.000000,0.000000,0.000000,0.000000,,,,,,,,,,,,,,,,,29.000000,0.000000,0.798849,-0.597961,0.060547,-0.024841,-0.079600,-0.976682,0.277378,1.292202,-13.985831,20.994469,,,,,,,,,,,,,,,,,,,,,,,,,,,,,,,,,,,,,,,,,,,,,,,,,,,,,,,,,,,,,,,,,,,,,,,,,,,,,,,,,,,,,,,,,,,,,,,,,,,,,
1738746918.077402,117.000000,0.000000,4252.307617,4295.512695,4243.846191,4274.102539,4308.717773,4316.153809,4313.589844,4240.641113,4166.794922,4035.897461,4217.307617,3065.384521,4405.256348,4448.589844,0.000000,1.000000,30.000000,,,,0.000000,0.000000,0.000000,0.000000,0.000000,0.000000,0.000000,0.000000,0.000000,0.000000,0.000000,0.000000,0.000000,0.000000,0.000000,0.000000,,,,,,,,,,,,,,,,,,,,,,,,,,,,,,,,,,,,,,,,,,,,,,,,,,,,,,,,,,,,,,,,,,,,,,,,,,,,,,,,,,,,,,,,,,,,,,,,,,,,,,,,,,,,,,,,,,,,,,,,,,,,,,,,,
1738746918.085210,118.000000,0.000000,4253.205078,4296.410156,4242.563965,4273.717773,4307.436035,4314.615234,4313.717773,4242.948730,4162.820313,4035.512939,4216.922852,3069.743652,4411.025879,4450.769043,0.000000,1.000000,30.000000,,,,0.000000,0.000000,0.000000,0.000000,0.000000,0.000000,0.000000,0.000000,0.000000,0.000000,0.000000,0.000000,0.000000,0.000000,0.000000,0.000000,,,,,,,,,,,,,,,,,,,,,,,,,,,,,,,,,,,,,,,,,,,,,,,,,,,,,,,,,,,,,,,,,,,,,,,,,,,,,,,,,,,,,,,,,,,,,,,,,,,,,,,,,,,,,,,,,,,,,,,,,,,,,,,,,
1738746918.093118,119.000000,0.000000,4255.256348,4297.179688,4241.538574,4273.974121,4305.256348,4318.846191,4313.589844,4243.077148,4160.897461,4034.743652,4220.256348,3070.897461,4404.871582,4445.512695,0.000000,1.000000,30.000000,,,,0.000000,0.000000,0.000000,0.000000,0.000000,0.000000,0.000000,0.000000,0.000000,0.000000,0.000000,0.000000,0.000000,0.000000,0.000000,0.000000,,,,,,,,,,,,,,,,,,,,,,,,,,,,,,,,,,,,,,,,,,,,,,,,,,,,,,,,,,,,,,,,,,,,,,,,,,,,,,,,,,,,,,,,,,,,,,,,,,,,,,,,,,,,,,,,,,,,,,,,,,,,,,,,,
1738746918.100925,120.000000,0.000000,4254.230957,4296.538574,4243.846191,4272.307617,4307.051270,4320.128418,4311.666504,4241.538574,4162.051270,4034.871826,4221.794922,3068.718018,4404.487305,4447.820313,0.000000,1.000000,30.000000,,,,0.000000,0.000000,0.000000,0.000000,0.000000,0.000000,0.000000,0.000000,0.000000,0.000000,0.000000,0.000000,0.000000,0.000000,0.000000,0.000000,,,,,,,,,,,,,,,,,30.000000,0.000000,0.798846,-0.597961,0.060608,-0.024780,-0.086925,-0.958125,0.274936,1.279648,-14.070581,21.145021,,,,,,,,,,,,,,,,,,,,,,,,,,,,,,,,,,,,,,,,,,,,,,,,,,,,,,,,,,,,,,,,,,,,,,,,,,,,,,,,,,,,,,,,,,,,,,,,,,,,,
1738746918.108634,121.000000,0.000000,4253.974121,4294.230957,4244.615234,4271.538574,4310.641113,4317.692383,4313.717773,4241.025879,4162.436035,4035.000000,4218.974121,3068.205078,4407.179688,4446.922852,0.000000,1.000000,30.000000,,,,0.000000,0.000000,0.000000,0.000000,0.000000,0.000000,0.000000,0.000000,0.000000,0.000000,0.000000,0.000000,0.000000,0.000000,0.000000,0.000000,,,,,,,,,,,,,,,,,,,,,,,,,,,,,,,,,,,,,,,,,,,,,,,,,,,,,,,,,,,,,,,,,,,,,,,,,,,,,,,,,,,,,,,,,,,,,,,,,,,,,,,,,,,,,,,,,,,,,,,,,,,,,,,,,
1738746918.116442,122.000000,0.000000,4257.692383,4293.589844,4243.205078,4275.769043,4309.487305,4317.436035,4317.051270,4241.666504,4161.153809,4033.333252,4220.384766,3068.205078,4402.948730,4444.230957,0.000000,1.000000,30.000000,,,,0.000000,0.000000,0.000000,0.000000,0.000000,0.000000,0.000000,0.000000,0.000000,0.000000,0.000000,0.000000,0.000000,0.000000,0.000000,0.000000,,,,,,,,,,,,,,,,,,,,,,,,,,,,,,,,,,,,,,,,,,,,,,,,,,,,,,,,,,,,0.027154,0.026072,0.020392,0.015486,0.016161,0.021236,0.041797,0.013812,0.023830,0.022273,0.053608,0.029426,0.020925,0.018139,0.027295,0.122730,0.043650,0.081584,0.049422,0.080269,0.013192,0.020211,0.028059,0.011366,0.025268,0.019290,0.013086,0.014469,0.026048,0.024080,0.026420,0.029423,0.021276,0.035890,0.036745,0.024980,0.016290,0.008172,0.011589,0.019543,0.023790,0.013493,0.024898,0.030030,0.026602,0.008026,0.026813,0.066479,0.012642,0.040907,0.033799,0.036515,0.017857,0.016836,0.036715,0.029608,0.005862,0.012589,0.022146,0.018116,0.024542,0.053027,0.040887,0.030998,0.017222,0.018459,0.014747,0.024704,0.010503,0.025865
1738746918.124150,123.000000,0.000000,4256.922852,4296.025879,4242.307617,4276.025879,4307.179688,4319.102539,4313.333496,4241.794922,4160.512695,4032.564209,4223.846191,3069.230713,4403.077148,4452.436035,0.000000,1.000000,30.000000,,,,0.000000,0.000000,0.000000,0.000000,0.000000,0.000000,0.000000,0.000000,0.000000,0.000000,0.000000,0.000000,0.000000,0.000000,0.000000,0.000000,,,,,,,,,,,,,,,,,,,,,,,,,,,,,,,,,,,,,,,,,,,,,,,,,,,,,,,,,,,,,,,,,,,,,,,,,,,,,,,,,,,,,,,,,,,,,,,,,,,,,,,,,,,,,,,,,,,,,,,,,,,,,,,,,
1738746918.131958,124.000000,0.000000,4253.974121,4297.179688,4245.000000,4271.922852,4309.102539,4321.922852,4313.333496,4242.436035,4162.307617,4033.974365,4221.410156,3070.384521,4402.307617,4449.743652,0.000000,1.000000,30.000000,,,,0.000000,0.000000,0.000000,0.000000,0.000000,0.000000,0.000000,0.000000,0.000000,0.000000,0.000000,0.000000,0.000000,0.000000,0.000000,0.000000,,,,,,,,,,,,,,,,,31.000000,0.000000,0.798846,-0.597961,0.060608,-0.024780,-0.064949,-0.967403,0.279819,1.201683,-13.996857,21.130520,,,,,,,,,,,,,,,,,,,,,,,,,,,,,,,,,,,,,,,,,,,,,,,,,,,,,,,,,,,,,,,,,,,,,,,,,,,,,,,,,,,,,,,,,,,,,,,,,,,,,
1738746918.139666,125.000000,0.000000,4254.615234,4295.897461,4248.205078,4272.051270,4311.025879,4319.230957,4314.487305,4242.436035,4163.717773,4036.153809,4222.948730,3070.256348,4403.333496,4452.051270,0.000000,1.000000,30.000000,,,,0.000000,0.000000,0.000000,0.000000,0.000000,0.000000,0.000000,0.000000,0.000000,0.000000,0.000000,0.000000,0.000000,0.000000,0.000000,0.000000,,,,,,,,,,,,,,,,,,,,,,,,,,,,,,,,,,,,,,,,,,,,,,,,,,,,,,,,,,,,,,,,,,,,,,,,,,,,,,,,,,,,,,,,,,,,,,,,,,,,,,,,,,,,,,,,,,,,,,,,,,,,,,,,,
1738746918.147474,126.000000,0.000000,4254.102539,4295.384766,4247.307617,4273.974121,4309.230957,4315.128418,4313.589844,4243.461426,4161.922852,4039.230713,4222.436035,3068.205078,4404.743652,4451.282227,0.000000,1.000000,30.000000,,,,0.000000,0.000000,0.000000,0.000000,0.000000,0.000000,0.000000,0.000000,0.000000,0.000000,0.000000,0.000000,0.000000,0.000000,0.000000,0.000000,,,,,,,,,,,,,,,,,,,,,,,,,,,,,,,,,,,,,,,,,,,,,,,,,,,,,,,,,,,,,,,,,,,,,,,,,,,,,,,,,,,,,,,,,,,,,,,,,,,,,,,,,,,,,,,,,,,,,,,,,,,,,,,,,
1738746918.155182,127.000000,0.000000,4255.384766,4295.769043,4244.871582,4272.692383,4307.436035,4318.589844,4315.000000,4243.077148,4160.897461,4039.487061,4217.179688,3068.974365,4403.589844,4442.051270,30.000000,1.000000,30.000000,,,,0.000000,0.000000,0.000000,0.000000,0.000000,0.000000,0.000000,0.000000,0.000000,0.000000,0.000000,0.000000,0.000000,0.000000,0.000000,0.000000,,,,,,,,,,,,,,,,,,,,,,,,,,,,,,,,,,,,,,,,,,,,,,,,,,,,,,,,,,,,,,,,,,,,,,,,,,,,,,,,,,,,,,,,,,,,,,,,,,,,,,,,,,,,,,,,,,,,,,,,,,,,,,,,,
1738746918.162990,0.000000,0.000000,4259.358887,4297.692383,4243.205078,4271.922852,4308.333496,4319.871582,4315.128418,4239.871582,4163.846191,4037.179443,4220.128418,3071.538574,4408.461426,4448.974121,0.000000,1.000000,30.000000,,,,0.000000,0.000000,0.000000,0.000000,0.000000,0.000000,0.000000,0.000000,0.000000,0.000000,0.000000,0.000000,0.000000,0.000000,0.000000,0.000000,,,,,,,,,,,,,,,,,0.000000,0.000000,0.798846,-0.597961,0.060608,-0.024780,-0.077158,-0.951288,0.286656,1.164848,-13.913837,21.134134,,,,,,,,,,,,,,,,,,,,,,,,,,,,,,,,,,,,,,,,,,,,,,,,,,,,,,,,,,,,,,,,,,,,,,,,,,,,,,,,,,,,,,,,,,,,,,,,,,,,,
1738746918.170698,1.000000,0.000000,4257.436035,4298.589844,4242.948730,4274.358887,4310.256348,4318.205078,4316.410156,4238.205078,4167.051270,4037.692383,4222.436035,3069.871826,4404.871582,4448.461426,0.000000,1.000000,30.000000,,,,0.000000,0.000000,0.000000,0.000000,0.000000,0.000000,0.000000,0.000000,0.000000,0.000000,0.000000,0.000000,0.000000,0.000000,0.000000,0.000000,,,,,,,,,,,,,,,,,,,,,,,,,,,,,,,,,,,,,,,,,,,,,,,,,,,,,,,,,,,,,,,,,,,,,,,,,,,,,,,,,,,,,,,,,,,,,,,,,,,,,,,,,,,,,,,,,,,,,,,,,,,,,,,,,
1738746918.178506,2.000000,0.000000,4255.000000,4297.948730,4242.948730,4273.589844,4311.410156,4318.717773,4316.153809,4240.512695,4165.512695,4039.615479,4219.743652,3070.769287,4402.820313,4447.692383,0.000000,1.000000,30.000000,,,,0.000000,0.000000,0.000000,0.000000,0.000000,0.000000,0.000000,0.000000,0.000000,0.000000,0.000000,0.000000,0.000000,0.000000,0.000000,0.000000,,,,,,,,,,,,,,,,,,,,,,,,,,,,,,,,,,,,,,,,,,,,,,,,,,,,,,,,,,,,,,,,,,,,,,,,,,,,,,,,,,,,,,,,,,,,,,,,,,,,,,,,,,,,,,,,,,,,,,,,,,,,,,,,,
1738746918.186214,3.000000,0.000000,4256.538574,4296.153809,4243.077148,4272.179688,4310.769043,4321.538574,4312.436035,4243.717773,4159.743652,4036.538574,4218.333496,3072.435791,4408.461426,4451.794922,0.000000,1.000000,30.000000,,,,0.000000,0.000000,0.000000,0.000000,0.000000,0.000000,0.000000,0.000000,0.000000,0.000000,0.000000,0.000000,0.000000,0.000000,0.000000,0.000000,,,,,,,,,,,,,,,,,,,,,,,,,,,,,,,,,,,,,,,,,,,,,,,,,,,,,,,,,,,,,,,,,,,,,,,,,,,,,,,,,,,,,,,,,,,,,,,,,,,,,,,,,,,,,,,,,,,,,,,,,,,,,,,,,
1738746918.194122,4.000000,0.000000,4256.538574,4293.974121,4245.897461,4275.128418,4311.538574,4320.512695,4311.410156,4245.000000,4158.846191,4034.358887,4217.563965,3068.974365,4406.666504,4445.512695,0.000000,1.000000,30.000000,,,,0.000000,0.000000,0.000000,0.000000,0.000000,0.000000,0.000000,0.000000,0.000000,0.000000,0.000000,0.000000,0.000000,0.000000,0.000000,0.000000,,,,,,,,,,,,,,,,,1.000000,0.000000,0.798841,-0.597961,0.060669,-0.024780,-0.072763,-0.967892,0.272494,1.231697,-13.905787,21.204054,,,,,,,,,,,,,,,,,,,,,,,,,,,,,,,,,,,,,,,,,,,,,,,,,,,,,,,,,,,,,,,,,,,,,,,,,,,,,,,,,,,,,,,,,,,,,,,,,,,,,
1738746918.201930,5.000000,0.000000,4254.487305,4296.922852,4244.615234,4274.871582,4311.794922,4316.922852,4313.205078,4242.307617,4161.794922,4037.435791,4220.641113,3069.102539,4406.153809,4447.820313,0.000000,1.000000,30.000000,,,,0.000000,0.000000,0.000000,0.000000,0.000000,0.000000,0.000000,0.000000,0.000000,0.000000,0.000000,0.000000,0.000000,0.000000,0.000000,0.000000,,,,,,,,,,,,,,,,,,,,,,,,,,,,,,,,,,,,,,,,,,,,,,,,,,,,,,,,,,,,,,,,,,,,,,,,,,,,,,,,,,,,,,,,,,,,,,,,,,,,,,,,,,,,,,,,,,,,,,,,,,,,,,,,,
1738746918.209837,6.000000,0.000000,4254.871582,4299.102539,4241.794922,4271.153809,4307.692383,4321.410156,4314.743652,4240.256348,4163.846191,4037.179443,4220.512695,3069.743652,4404.615234,4447.820313,0.000000,1.000000,30.000000,,,,0.000000,0.000000,0.000000,0.000000,0.000000,0.000000,0.000000,0.000000,0.000000,0.000000,0.000000,0.000000,0.000000,0.000000,0.000000,0.000000,,,,,,,,,,,,,,,,,,,,,,,,,,,,,,,,,,,,,,,,,,,,,,,,,,,,,,,,,,,,,,,,,,,,,,,,,,,,,,,,,,,,,,,,,,,,,,,,,,,,,,,,,,,,,,,,,,,,,,,,,,,,,,,,,
1738746918.217645,7.000000,0.000000,4256.153809,4297.436035,4241.666504,4272.436035,4306.282227,4323.589844,4310.897461,4241.666504,4164.102539,4035.128174,4217.948730,3068.461426,4405.128418,4445.128418,0.000000,1.000000,30.000000,,,,0.000000,0.000000,0.000000,0.000000,0.000000,0.000000,0.000000,0.000000,0.000000,0.000000,0.000000,0.000000,0.000000,0.000000,0.000000,0.000000,,,,,,,,,,,,,,,,,,,,,,,,,,,,,,,,,,,,,,,,,,,,,,,,,,,,,,,,,,,,,,,,,,,,,,,,,,,,,,,,,,,,,,,,,,,,,,,,,,,,,,,,,,,,,,,,,,,,,,,,,,,,,,,,,
1738746918.225553,8.000000,0.000000,4256.282227,4296.282227,4244.230957,4273.846191,4308.461426,4320.128418,4310.512695,4242.179688,4163.333496,4037.051270,4219.871582,3069.743652,4406.153809,4448.717773,0.000000,1.000000,30.000000,,,,0.000000,0.000000,0.000000,0.000000,0.000000,0.000000,0.000000,0.000000,0.000000,0.000000,0.000000,0.000000,0.000000,0.000000,0.000000,0.000000,,,,,,,,,,,,,,,,,2.000000,0.000000,0.798839,-0.597961,0.060669,-0.024841,-0.062996,-0.963985,0.278354,1.191860,-13.865209,21.166983,,,,,,,,,,,,,,,,,,,,,,,,,,,,,,,,,,,,,,,,,,,,,,,,,,,,,,,,,,,,,,,,,,,,,,,,,,,,,,,,,,,,,,,,,,,,,,,,,,,,,
1738746918.233361,9.000000,0.000000,4255.256348,4295.769043,4245.769043,4270.641113,4309.615234,4320.512695,4314.615234,4241.666504,4163.717773,4035.512939,4220.384766,3069.615479,4401.410156,4447.179688,0.000000,1.000000,30.000000,,,,0.000000,0.000000,0.000000,0.000000,0.000000,0.000000,0.000000,0.000000,0.000000,0.000000,0.000000,0.000000,0.000000,0.000000,0.000000,0.000000,,,,,,,,,,,,,,,,,,,,,,,,,,,,,,,,,,,,,,,,,,,,,,,,,,,,,,,,,,,,,,,,,,,,,,,,,,,,,,,,,,,,,,,,,,,,,,,,,,,,,,,,,,,,,,,,,,,,,,,,,,,,,,,,,
1738746918.241269,10.000000,0.000000,4254.871582,4296.538574,4242.051270,4270.128418,4310.128418,4321.666504,4311.025879,4241.410156,4165.000000,4032.948730,4219.230957,3068.974365,4404.487305,4449.871582,0.000000,1.000000,30.000000,,,,0.000000,0.000000,0.000000,0.000000,0.000000,0.000000,0.000000,0.000000,0.000000,0.000000,0.000000,0.000000,0.000000,0.000000,0.000000,0.000000,,,,,,,,,,,,,,,,,,,,,,,,,,,,,,,,,,,,,,,,,,,,,,,,,,,,,,,,,,,,0.030065,0.026051,0.018239,0.019542,0.016432,0.020295,0.044308,0.014269,0.029156,0.022307,0.052483,0.029006,0.023198,0.017254,0.026040,0.134240,0.046497,0.072562,0.052596,0.084669,0.014915,0.029655,0.035261,0.012929,0.025693,0.017817,0.011931,0.016262,0.022975,0.023571,0.031674,0.030359,0.020900,0.034103,0.035616,0.021828,0.020739,0.008001,0.013302,0.020096,0.023311,0.014004,0.025979,0.026545,0.025988,0.010345,0.034741,0.085942,0.013974,0.044863,0.035585,0.034851,0.023088,0.016478,0.039792,0.030666,0.006458,0.012690,0.021733,0.019317,0.024895,0.047038,0.037410,0.032234,0.017142,0.023544,0.015414,0.029416,0.013469,0.026767
1738746918.249077,11.000000,0.000000,4253.974121,4297.307617,4240.384766,4274.487305,4311.794922,4320.256348,4311.410156,4242.307617,4165.512695,4036.538574,4217.820313,3068.076904,4405.384766,4448.333496,0.000000,1.000000,30.000000,,,,0.000000,0.000000,0.000000,0.000000,0.000000,0.000000,0.000000,0.000000,0.000000,0.000000,0.000000,0.000000,0.000000,0.000000,0.000000,0.000000,,,,,,,,,,,,,,,,,,,,,,,,,,,,,,,,,,,,,,,,,,,,,,,,,,,,,,,,,,,,,,,,,,,,,,,,,,,,,,,,,,,,,,,,,,,,,,,,,,,,,,,,,,,,,,,,,,,,,,,,,,,,,,,,,
1738746918.256985,12.000000,0.000000,4253.077148,4295.769043,4247.436035,4275.128418,4311.922852,4317.948730,4316.153809,4243.589844,4164.487305,4038.461426,4220.641113,3070.512939,4402.692383,4449.102539,0.000000,1.000000,30.000000,,,,0.000000,0.000000,0.000000,0.000000,0.000000,0.000000,0.000000,0.000000,0.000000,0.000000,0.000000,0.000000,0.000000,0.000000,0.000000,0.000000,,,,,,,,,,,,,,,,,3.000000,0.000000,0.798833,-0.597961,0.060730,-0.024902,-0.070809,-0.967403,0.281773,1.189341,-13.745355,21.300283,,,,,,,,,,,,,,,,,,,,,,,,,,,,,,,,,,,,,,,,,,,,,,,,,,,,,,,,,,,,,,,,,,,,,,,,,,,,,,,,,,,,,,,,,,,,,,,,,,,,,
1738746918.264793,13.000000,0.000000,4254.102539,4295.897461,4249.102539,4270.897461,4310.641113,4318.846191,4314.230957,4242.179688,4166.282227,4033.461426,4223.717773,3073.974365,4405.256348,4455.000000,0.000000,1.000000,30.000000,,,,0.000000,0.000000,0.000000,0.000000,0.000000,0.000000,0.000000,0.000000,0.000000,0.000000,0.000000,0.000000,0.000000,0.000000,0.000000,0.000000,,,,,,,,,,,,,,,,,,,,,,,,,,,,,,,,,,,,,,,,,,,,,,,,,,,,,,,,,,,,,,,,,,,,,,,,,,,,,,,,,,,,,,,,,,,,,,,,,,,,,,,,,,,,,,,,,,,,,,,,,,,,,,,,,
1738746918.272701,14.000000,0.000000,4252.436035,4296.282227,4243.205078,4272.179688,4311.282227,4323.589844,4315.512695,4243.333496,4166.666504,4033.461426,4221.025879,3071.281982,4404.102539,4446.538574,0.000000,1.000000,30.000000,,,,0.000000,0.000000,0.000000,0.000000,0.000000,0.000000,0.000000,0.000000,0.000000,0.000000,0.000000,0.000000,0.000000,0.000000,0.000000,0.000000,,,,,,,,,,,,,,,,,,,,,,,,,,,,,,,,,,,,,,,,,,,,,,,,,,,,,,,,,,,,,,,,,,,,,,,,,,,,,,,,,,,,,,,,,,,,,,,,,,,,,,,,,,,,,,,,,,,,,,,,,,,,,,,,,
1738746918.280509,15.000000,0.000000,4253.205078,4296.153809,4242.179688,4275.769043,4310.897461,4323.077148,4316.538574,4245.128418,4163.589844,4039.743652,4223.333496,3068.974365,4404.871582,4448.589844,0.000000,1.000000,30.000000,,,,0.000000,0.000000,0.000000,0.000000,0.000000,0.000000,0.000000,0.000000,0.000000,0.000000,0.000000,0.000000,0.000000,0.000000,0.000000,0.000000,,,,,,,,,,,,,,,,,,,,,,,,,,,,,,,,,,,,,,,,,,,,,,,,,,,,,,,,,,,,,,,,,,,,,,,,,,,,,,,,,,,,,,,,,,,,,,,,,,,,,,,,,,,,,,,,,,,,,,,,,,,,,,,,,
1738746918.288217,16.000000,0.000000,4256.153809,4297.051270,4244.871582,4273.205078,4310.128418,4317.948730,4315.512695,4244.615234,4166.282227,4038.974365,4221.794922,3069.487061,4403.333496,4451.922852,0.000000,1.000000,30.000000,,,,0.000000,0.000000,0.000000,0.000000,0.000000,0.000000,0.000000,0.000000,0.000000,0.000000,0.000000,0.000000,0.000000,0.000000,0.000000,0.000000,,,,,,,,,,,,,,,,,4.000000,0.000000,0.798748,-0.598083,0.060669,-0.024841,-0.063973,-0.963008,0.271029,1.253740,-13.887486,21.303589,,,,,,,,,,,,,,,,,,,,,,,,,,,,,,,,,,,,,,,,,,,,,,,,,,,,,,,,,,,,,,,,,,,,,,,,,,,,,,,,,,,,,,,,,,,,,,,,,,,,,
1738746918.296025,17.000000,0.000000,4255.384766,4298.077148,4243.974121,4271.538574,4312.051270,4318.077148,4315.384766,4243.846191,4166.410156,4035.256348,4215.256348,3069.615479,4402.948730,4444.743652,0.000000,1.000000,30.000000,,,,0.000000,0.000000,0.000000,0.000000,0.000000,0.000000,0.000000,0.000000,0.000000,0.000000,0.000000,0.000000,0.000000,0.000000,0.000000,0.000000,,,,,,,,,,,,,,,,,,,,,,,,,,,,,,,,,,,,,,,,,,,,,,,,,,,,,,,,,,,,,,,,,,,,,,,,,,,,,,,,,,,,,,,,,,,,,,,,,,,,,,,,,,,,,,,,,,,,,,,,,,,,,,,,,
1738746918.303733,18.000000,0.000000,4254.615234,4297.051270,4241.410156,4275.512695,4312.179688,4321.538574,4313.333496,4243.077148,4160.897461,4037.564209,4218.461426,3068.205078,4408.333496,4450.256348,0.000000,1.000000,30.000000,,,,0.000000,0.000000,0.000000,0.000000,0.000000,0.000000,0.000000,0.000000,0.000000,0.000000,0.000000,0.000000,0.000000,0.000000,0.000000,0.000000,,,,,,,,,,,,,,,,,,,,,,,,,,,,,,,,,,,,,,,,,,,,,,,,,,,,,,,,,,,,,,,,,,,,,,,,,,,,,,,,,,,,,,,,,,,,,,,,,,,,,,,,,,,,,,,,,,,,,,,,,,,,,,,,,
1738746918.311641,19.000000,0.000000,4255.769043,4294.487305,4241.922852,4276.666504,4309.743652,4320.512695,4314.102539,4243.205078,4162.436035,4038.718018,4219.743652,3067.179443,4403.589844,4449.230957,0.000000,1.000000,30.000000,,,,0.000000,0.000000,0.000000,0.000000,0.000000,0.000000,0.000000,0.000000,0.000000,0.000000,0.000000,0.000000,0.000000,0.000000,0.000000,0.000000,,,,,,,,,,,,,,,,,,,,,,,,,,,,,,,,,,,,,,,,,,,,,,,,,,,,,,,,,,,,,,,,,,,,,,,,,,,,,,,,,,,,,,,,,,,,,,,,,,,,,,,,,,,,,,,,,,,,,,,,,,,,,,,,,
1738746918.319449,20.000000,0.000000,4256.538574,4296.282227,4243.974121,4275.128418,4309.102539,4317.051270,4314.871582,4241.794922,4165.512695,4037.307617,4216.538574,3071.281982,4403.461426,4448.461426,0.000000,1.000000,30.000000,,,,0.000000,0.000000,0.000000,0.000000,0.000000,0.000000,0.000000,0.000000,0.000000,0.000000,0.000000,0.000000,0.000000,0.000000,0.000000,0.000000,,,,,,,,,,,,,,,,,5.000000,0.000000,0.798755,-0.598083,0.060547,-0.024902,-0.059578,-0.956171,0.276889,1.228366,-14.015404,21.306562,,,,,,,,,,,,,,,,,,,,,,,,,,,,,,,,,,,,,,,,,,,,,,,,,,,,,,,,,,,,,,,,,,,,,,,,,,,,,,,,,,,,,,,,,,,,,,,,,,,,,
1738746918.327257,21.000000,0.000000,4256.153809,4298.205078,4245.000000,4275.000000,4312.179688,4319.615234,4316.538574,4241.282227,4162.179688,4035.000000,4218.974121,3070.641113,4409.230957,4452.820313,0.000000,1.000000,30.000000,,,,0.000000,0.000000,0.000000,0.000000,0.000000,0.000000,0.000000,0.000000,0.000000,0.000000,0.000000,0.000000,0.000000,0.000000,0.000000,0.000000,,,,,,,,,,,,,,,,,,,,,,,,,,,,,,,,,,,,,,,,,,,,,,,,,,,,,,,,,,,,,,,,,,,,,,,,,,,,,,,,,,,,,,,,,,,,,,,,,,,,,,,,,,,,,,,,,,,,,,,,,,,,,,,,,
1738746918.334965,22.000000,0.000000,4257.820313,4297.692383,4245.000000,4272.948730,4313.589844,4323.589844,4317.563965,4244.743652,4161.025879,4034.230713,4222.563965,3066.025635,4405.641113,4449.358887,0.000000,1.000000,30.000000,,,,0.000000,0.000000,0.000000,0.000000,0.000000,0.000000,0.000000,0.000000,0.000000,0.000000,0.000000,0.000000,0.000000,0.000000,0.000000,0.000000,,,,,,,,,,,,,,,,,,,,,,,,,,,,,,,,,,,,,,,,,,,,,,,,,,,,,,,,,,,,,,,,,,,,,,,,,,,,,,,,,,,,,,,,,,,,,,,,,,,,,,,,,,,,,,,,,,,,,,,,,,,,,,,,,
1738746918.342873,23.000000,0.000000,4257.692383,4297.563965,4242.948730,4270.897461,4310.769043,4319.358887,4312.307617,4244.615234,4164.230957,4036.153809,4221.025879,3067.564209,4405.384766,4453.077148,0.000000,1.000000,30.000000,,,,0.000000,0.000000,0.000000,0.000000,0.000000,0.000000,0.000000,0.000000,0.000000,0.000000,0.000000,0.000000,0.000000,0.000000,0.000000,0.000000,,,,,,,,,,,,,,,,,,,,,,,,,,,,,,,,,,,,,,,,,,,,,,,,,,,,,,,,,,,,,,,,,,,,,,,,,,,,,,,,,,,,,,,,,,,,,,,,,,,,,,,,,,,,,,,,,,,,,,,,,,,,,,,,,
1738746918.350681,24.000000,0.000000,4255.128418,4297.307617,4243.333496,4274.230957,4308.846191,4317.179688,4314.230957,4242.179688,4163.717773,4039.102539,4217.436035,3068.333252,4405.256348,4450.641113,0.000000,1.000000,30.000000,,,,0.000000,0.000000,0.000000,0.000000,0.000000,0.000000,0.000000,0.000000,0.000000,0.000000,0.000000,0.000000,0.000000,0.000000,0.000000,0.000000,,,,,,,,,,,,,,,,,6.000000,0.000000,0.798705,-0.598145,0.060608,-0.024902,-0.061043,-0.959590,0.275913,1.072196,-13.930530,21.209240,,,,,,,,,,,,,,,,,,,,,,,,,,,,,,,,,,,,,,,,,,,,,,,,,,,,,,,,,,,,,,,,,,,,,,,,,,,,,,,,,,,,,,,,,,,,,,,,,,,,,
1738746918.358589,25.000000,0.000000,4256.025879,4297.179688,4245.897461,4277.051270,4308.974121,4319.358887,4316.666504,4242.179688,4161.538574,4037.692383,4220.256348,3067.820557,4406.666504,4447.307617,0.000000,1.000000,30.000000,,,,0.000000,0.000000,0.000000,0.000000,0.000000,0.000000,0.000000,0.000000,0.000000,0.000000,0.000000,0.000000,0.000000,0.000000,0.000000,0.000000,,,,,,,,,,,,,,,,,,,,,,,,,,,,,,,,,,,,,,,,,,,,,,,,,,,,,,,,,,,,,,,,,,,,,,,,,,,,,,,,,,,,,,,,,,,,,,,,,,,,,,,,,,,,,,,,,,,,,,,,,,,,,,,,,
1738746918.366396,26.000000,0.000000,4257.820313,4296.410156,4244.871582,4274.615234,4309.487305,4319.230957,4311.538574,4242.820313,4162.948730,4035.769287,4222.436035,3069.230713,4406.666504,4451.282227,0.000000,1.000000,30.000000,,,,0.000000,0.000000,0.000000,0.000000,0.000000,0.000000,0.000000,0.000000,0.000000,0.000000,0.000000,0.000000,0.000000,0.000000,0.000000,0.000000,1.000000,0.000000,0.000000,0.000000,0.000000,0.000000,0.000000,0.000000,0.000000,0.000000,0.000000,0.000000,0.000000,0.000000,0.000000,0.000000,,,,,,,,,,,,,,,,,,,,,,,,,,,,,,,,,,,,,,,,,,,,0.032154,0.025148,0.016772,0.023622,0.016911,0.018086,0.046742,0.015256,0.034772,0.021677,0.048587,0.027695,0.025414,0.016361,0.024428,0.131861,0.043907,0.058759,0.052872,0.083564,0.016846,0.042051,0.042946,0.015182,0.026794,0.017086,0.013671,0.018331,0.019966,0.022840,0.037649,0.028098,0.019449,0.031286,0.035076,0.018369,0.025244,0.007894,0.014963,0.021083,0.023088,0.016857,0.028982,0.022116,0.026348,0.015159,0.039824,0.102240,0.015044,0.046220,0.036508,0.033931,0.028207,0.015602,0.042213,0.029394,0.007769,0.014159,0.020274,0.020374,0.024916,0.039471,0.031650,0.032732,0.017648,0.029838,0.015239,0.033226,0.017313,0.027735
1738746918.374204,27.000000,0.000000,4258.205078,4295.769043,4244.230957,4273.974121,4310.512695,4318.589844,4312.563965,4243.205078,4165.000000,4038.076904,4216.410156,3069.230713,4402.436035,4448.461426,0.000000,1.000000,30.000000,,,,0.000000,0.000000,0.000000,0.000000,0.000000,0.000000,0.000000,0.000000,0.000000,0.000000,0.000000,0.000000,0.000000,0.000000,0.000000,0.000000,,,,,,,,,,,,,,,,,,,,,,,,,,,,,,,,,,,,,,,,,,,,,,,,,,,,,,,,,,,,,,,,,,,,,,,,,,,,,,,,,,,,,,,,,,,,,,,,,,,,,,,,,,,,,,,,,,,,,,,,,,,,,,,,,
