title:string0, start timestamp:1742197309.266646, stop timestamp:1742197380.413930, headset type:EPOCX, headset serial:E50208A5, headset firmware:720, channels:168, sampling rate:eeg_128;mot_32;pm_0.1;pow_8, samples:9113      , version:2.2, 
Timestamp,OriginalTimestamp,EEG.Counter,EEG.Interpolated,EEG.AF3,EEG.F7,EEG.F3,EEG.FC5,EEG.T7,EEG.P7,EEG.O1,EEG.O2,EEG.P8,EEG.T8,EEG.FC6,EEG.F4,EEG.F8,EEG.AF4,EEG.RawCq,EEG.Battery,EEG.BatteryPercent,MarkerIndex,MarkerType,MarkerValueInt,EEG.MarkerHardware,CQ.AF3,CQ.F7,CQ.F3,CQ.FC5,CQ.T7,CQ.P7,CQ.O1,CQ.O2,CQ.P8,CQ.T8,CQ.FC6,CQ.F4,CQ.F8,CQ.AF4,CQ.Overall,EQ.SampleRateQuality,EQ.OVERALL,EQ.AF3,EQ.F7,EQ.F3,EQ.FC5,EQ.T7,EQ.P7,EQ.O1,EQ.O2,EQ.P8,EQ.T8,EQ.FC6,EQ.F4,EQ.F8,EQ.AF4,MOT.CounterMems,MOT.InterpolatedMems,MOT.Q0,MOT.Q1,MOT.Q2,MOT.Q3,MOT.AccX,MOT.AccY,MOT.AccZ,MOT.MagX,MOT.MagY,MOT.MagZ,PM.Attention.IsActive,PM.Attention.Scaled,PM.Attention.Raw,PM.Attention.Min,PM.Attention.Max,PM.Engagement.IsActive,PM.Engagement.Scaled,PM.Engagement.Raw,PM.Engagement.Min,PM.Engagement.Max,PM.Excitement.IsActive,PM.Excitement.Scaled,PM.Excitement.Raw,PM.Excitement.Min,PM.Excitement.Max,PM.LongTermExcitement,PM.Stress.IsActive,PM.Stress.Scaled,PM.Stress.Raw,PM.Stress.Min,PM.Stress.Max,PM.Relaxation.IsActive,PM.Relaxation.Scaled,PM.Relaxation.Raw,PM.Relaxation.Min,PM.Relaxation.Max,PM.Interest.IsActive,PM.Interest.Scaled,PM.Interest.Raw,PM.Interest.Min,PM.Interest.Max,POW.AF3.Theta,POW.AF3.Alpha,POW.AF3.BetaL,POW.AF3.BetaH,POW.AF3.Gamma,POW.F7.Theta,POW.F7.Alpha,POW.F7.BetaL,POW.F7.BetaH,POW.F7.Gamma,POW.F3.Theta,POW.F3.Alpha,POW.F3.BetaL,POW.F3.BetaH,POW.F3.Gamma,POW.FC5.Theta,POW.FC5.Alpha,POW.FC5.BetaL,POW.FC5.BetaH,POW.FC5.Gamma,POW.T7.Theta,POW.T7.Alpha,POW.T7.BetaL,POW.T7.BetaH,POW.T7.Gamma,POW.P7.Theta,POW.P7.Alpha,POW.P7.BetaL,POW.P7.BetaH,POW.P7.Gamma,POW.O1.Theta,POW.O1.Alpha,POW.O1.BetaL,POW.O1.BetaH,POW.O1.Gamma,POW.O2.Theta,POW.O2.Alpha,POW.O2.BetaL,POW.O2.BetaH,POW.O2.Gamma,POW.P8.Theta,POW.P8.Alpha,POW.P8.BetaL,POW.P8.BetaH,POW.P8.Gamma,POW.T8.Theta,POW.T8.Alpha,POW.T8.BetaL,POW.T8.BetaH,POW.T8.Gamma,POW.FC6.Theta,POW.FC6.Alpha,POW.FC6.BetaL,POW.FC6.BetaH,POW.FC6.Gamma,POW.F4.Theta,POW.F4.Alpha,POW.F4.BetaL,POW.F4.BetaH,POW.F4.Gamma,POW.F8.Theta,POW.F8.Alpha,POW.F8.BetaL,POW.F8.BetaH,POW.F8.Gamma,POW.AF4.Theta,POW.AF4.Alpha,POW.AF4.BetaL,POW.AF4.BetaH,POW.AF4.Gamma
1742197309.266646,1742197309.267211,61.000000,0.000000,4288.846191,4344.743652,4222.692383,4310.897461,4352.307617,4359.743652,4362.948730,4561.538574,4554.487305,4553.589844,4497.820313,5683.205078,4312.563965,4259.615234,0.000000,0.000000,11.000000,,,,0.000000,0.000000,0.000000,0.000000,0.000000,0.000000,0.000000,0.000000,0.000000,0.000000,0.000000,0.000000,0.000000,0.000000,0.000000,0.000000,,,,,,,,,,,,,,,,,,,,,,,,,,,,,,,,,,,,,,,,,,,,,,,,,,,,,,,,,,,,,,,,,,,,,,,,,,,,,,,,,,,,,,,,,,,,,,,,,,,,,,,,,,,,,,,,,,,,,,,,,,,,,,,,,
1742197309.274454,1742197309.274920,62.000000,0.000000,4287.820313,4346.025879,4221.538574,4310.512695,4350.384766,4361.794922,4361.282227,4562.436035,4552.948730,4552.436035,4499.230957,5681.922852,4312.563965,4255.897461,0.000000,0.000000,11.000000,,,,0.000000,0.000000,0.000000,0.000000,0.000000,0.000000,0.000000,0.000000,0.000000,0.000000,0.000000,0.000000,0.000000,0.000000,0.000000,0.000000,,,,,,,,,,,,,,,,,,,,,,,,,,,,,,,,,,,,,,,,,,,,,,,,,,,,,,,,,,,,,,,,,,,,,,,,,,,,,,,,,,,,,,,,,,,,,,,,,,,,,,,,,,,,,,,,,,,,,,,,,,,,,,,,,
1742197309.282262,1742197309.282728,63.000000,0.000000,4285.897461,4344.487305,4223.974121,4308.717773,4351.922852,4360.641113,4364.358887,4561.922852,4553.461426,4552.436035,4499.487305,5682.179688,4312.692383,4252.307617,0.000000,0.000000,11.000000,,,,0.000000,0.000000,0.000000,0.000000,0.000000,0.000000,0.000000,0.000000,0.000000,0.000000,0.000000,0.000000,0.000000,0.000000,0.000000,0.000000,,,,,,,,,,,,,,,,,,,,,,,,,,,,,,,,,,,,,,,,,,,,,,,,,,,,,,,,,,,,,,,,,,,,,,,,,,,,,,,,,,,,,,,,,,,,,,,,,,,,,,,,,,,,,,,,,,,,,,,,,,,,,,,,,
1742197309.290070,1742197309.290436,64.000000,0.000000,4287.948730,4344.615234,4225.384766,4307.948730,4353.846191,4357.051270,4368.589844,4562.563965,4554.871582,4553.333496,4497.436035,5683.974121,4313.333496,4257.051270,0.000000,0.000000,11.000000,,,,0.000000,0.000000,0.000000,0.000000,0.000000,0.000000,0.000000,0.000000,0.000000,0.000000,0.000000,0.000000,0.000000,0.000000,0.000000,0.000000,,,,,,,,,,,,,,,,,16.000000,0.000000,0.738959,-0.118896,0.654785,0.105164,-0.984007,-0.041997,0.112807,24.389256,18.876240,44.764248,,,,,,,,,,,,,,,,,,,,,,,,,,,,,,,,,,,,,,,,,,,,,,,,,,,,,,,,,,,,,,,,,,,,,,,,,,,,,,,,,,,,,,,,,,,,,,,,,,,,,
1742197309.297878,1742197309.298344,65.000000,0.000000,4290.000000,4345.641113,4222.948730,4308.717773,4351.282227,4358.589844,4368.589844,4562.436035,4553.717773,4553.846191,4497.179688,5683.077148,4313.333496,4260.641113,0.000000,0.000000,11.000000,,,,0.000000,0.000000,0.000000,0.000000,0.000000,0.000000,0.000000,0.000000,0.000000,0.000000,0.000000,0.000000,0.000000,0.000000,0.000000,0.000000,,,,,,,,,,,,,,,,,,,,,,,,,,,,,,,,,,,,,,,,,,,,,,,,,,,,,,,,,,,,,,,,,,,,,,,,,,,,,,,,,,,,,,,,,,,,,,,,,,,,,,,,,,,,,,,,,,,,,,,,,,,,,,,,,
1742197309.305686,1742197309.306152,66.000000,0.000000,4288.846191,4344.871582,4223.461426,4308.974121,4350.256348,4361.666504,4366.794922,4562.051270,4551.282227,4554.102539,4500.000000,5681.153809,4313.205078,4258.333496,0.000000,0.000000,11.000000,,,,0.000000,0.000000,0.000000,0.000000,0.000000,0.000000,0.000000,0.000000,0.000000,0.000000,0.000000,0.000000,0.000000,0.000000,0.000000,0.000000,,,,,,,,,,,,,,,,,,,,,,,,,,,,,,,,,,,,,,,,,,,,,,,,,,,,,,,,,,,,,,,,,,,,,,,,,,,,,,,,,,,,,,,,,,,,,,,,,,,,,,,,,,,,,,,,,,,,,,,,,,,,,,,,,
1742197309.313495,1742197309.313960,67.000000,0.000000,4288.846191,4344.102539,4226.922852,4307.948730,4352.307617,4359.871582,4367.051270,4563.974121,4551.666504,4554.102539,4499.743652,5682.436035,4313.846191,4257.179688,0.000000,0.000000,11.000000,,,,0.000000,0.000000,0.000000,0.000000,0.000000,0.000000,0.000000,0.000000,0.000000,0.000000,0.000000,0.000000,0.000000,0.000000,0.000000,0.000000,,,,,,,,,,,,,,,,,,,,,,,,,,,,,,,,,,,,,,,,,,,,,,,,,,,,,,,,,,,,0.013966,0.016280,0.027942,0.023023,0.029073,0.022691,0.020651,0.008542,0.010543,0.015107,0.049382,0.028915,0.016094,0.020483,0.021579,0.016885,0.012361,0.022706,0.017501,0.035076,0.008149,0.014800,0.004975,0.009857,0.020584,0.014627,0.025033,0.009874,0.008287,0.021833,0.062541,0.042245,0.051877,0.039814,0.035228,0.010220,0.032504,0.021539,0.010380,0.014497,0.013357,0.012173,0.006897,0.012241,0.027605,0.005378,0.004832,0.007470,0.003856,0.006328,0.036242,0.039549,0.032710,0.058421,0.039497,0.019020,0.030921,0.031457,0.016803,0.021026,0.019353,0.015885,0.018991,0.018583,0.023958,0.069233,0.064130,0.038074,0.017764,0.026422
1742197309.321303,1742197309.321668,68.000000,0.000000,4289.743652,4344.743652,4227.051270,4307.820313,4351.282227,4358.205078,4367.436035,4563.846191,4552.820313,4553.333496,4497.307617,5683.077148,4313.974121,4259.230957,0.000000,0.000000,11.000000,,,,0.000000,0.000000,0.000000,0.000000,0.000000,0.000000,0.000000,0.000000,0.000000,0.000000,0.000000,0.000000,0.000000,0.000000,0.000000,0.000000,,,,,,,,,,,,,,,,,17.000000,0.000000,0.738959,-0.118896,0.654785,0.105164,-0.992797,-0.031254,0.120132,24.466997,18.905283,44.587826,,,,,,,,,,,,,,,,,,,,,,,,,,,,,,,,,,,,,,,,,,,,,,,,,,,,,,,,,,,,,,,,,,,,,,,,,,,,,,,,,,,,,,,,,,,,,,,,,,,,,
1742197309.329111,1742197309.329476,69.000000,0.000000,4290.128418,4346.410156,4226.794922,4311.666504,4349.615234,4360.256348,4365.769043,4560.128418,4552.179688,4552.692383,4498.974121,5681.794922,4313.846191,4256.538574,0.000000,0.000000,11.000000,,,,0.000000,0.000000,0.000000,0.000000,0.000000,0.000000,0.000000,0.000000,0.000000,0.000000,0.000000,0.000000,0.000000,0.000000,0.000000,0.000000,,,,,,,,,,,,,,,,,,,,,,,,,,,,,,,,,,,,,,,,,,,,,,,,,,,,,,,,,,,,,,,,,,,,,,,,,,,,,,,,,,,,,,,,,,,,,,,,,,,,,,,,,,,,,,,,,,,,,,,,,,,,,,,,,
1742197309.336919,1742197309.337184,70.000000,0.000000,4289.871582,4345.128418,4228.717773,4314.102539,4350.512695,4361.025879,4365.128418,4559.358887,4552.179688,4553.589844,4499.615234,5684.102539,4314.871582,4255.128418,0.000000,0.000000,11.000000,,,,0.000000,0.000000,0.000000,0.000000,0.000000,0.000000,0.000000,0.000000,0.000000,0.000000,0.000000,0.000000,0.000000,0.000000,0.000000,0.000000,,,,,,,,,,,,,,,,,,,,,,,,,,,,,,,,,,,,,,,,,,,,,,,,,,,,,,,,,,,,,,,,,,,,,,,,,,,,,,,,,,,,,,,,,,,,,,,,,,,,,,,,,,,,,,,,,,,,,,,,,,,,,,,,,
1742197309.344727,1742197309.344992,71.000000,0.000000,4288.333496,4344.487305,4226.410156,4311.153809,4350.512695,4360.384766,4366.025879,4561.922852,4554.102539,4554.615234,4496.410156,5686.410156,4314.871582,4258.717773,0.000000,0.000000,11.000000,,,,0.000000,0.000000,0.000000,0.000000,0.000000,0.000000,0.000000,0.000000,0.000000,0.000000,0.000000,0.000000,0.000000,0.000000,0.000000,0.000000,,,,,,,,,,,,,,,,,,,,,,,,,,,,,,,,,,,,,,,,,,,,,,,,,,,,,,,,,,,,,,,,,,,,,,,,,,,,,,,,,,,,,,,,,,,,,,,,,,,,,,,,,,,,,,,,,,,,,,,,,,,,,,,,,
1742197309.352535,1742197309.352700,72.000000,0.000000,4287.563965,4345.641113,4223.461426,4308.333496,4350.256348,4360.897461,4364.743652,4562.307617,4554.615234,4552.820313,4495.769043,5683.589844,4312.820313,4259.743652,0.000000,0.000000,11.000000,,,,0.000000,0.000000,0.000000,0.000000,0.000000,0.000000,0.000000,0.000000,0.000000,0.000000,0.000000,0.000000,0.000000,0.000000,0.000000,0.000000,,,,,,,,,,,,,,,,,18.000000,0.000000,0.738949,-0.118958,0.654785,0.105164,-0.982053,-0.042974,0.110853,24.503632,18.964754,44.562374,,,,,,,,,,,,,,,,,,,,,,,,,,,,,,,,,,,,,,,,,,,,,,,,,,,,,,,,,,,,,,,,,,,,,,,,,,,,,,,,,,,,,,,,,,,,,,,,,,,,,
1742197309.360343,1742197309.360508,73.000000,0.000000,4287.051270,4345.256348,4225.384766,4308.589844,4350.384766,4361.666504,4363.717773,4562.563965,4554.102539,4550.641113,4498.333496,5679.871582,4311.666504,4259.358887,0.000000,0.000000,11.000000,,,,0.000000,0.000000,0.000000,0.000000,0.000000,0.000000,0.000000,0.000000,0.000000,0.000000,0.000000,0.000000,0.000000,0.000000,0.000000,0.000000,,,,,,,,,,,,,,,,,,,,,,,,,,,,,,,,,,,,,,,,,,,,,,,,,,,,,,,,,,,,,,,,,,,,,,,,,,,,,,,,,,,,,,,,,,,,,,,,,,,,,,,,,,,,,,,,,,,,,,,,,,,,,,,,,
1742197309.368151,1742197309.368216,74.000000,0.000000,4287.436035,4343.974121,4227.179688,4307.948730,4350.128418,4361.922852,4365.769043,4565.000000,4553.077148,4552.307617,4499.871582,5681.666504,4312.948730,4259.487305,0.000000,0.000000,11.000000,,,,0.000000,0.000000,0.000000,0.000000,0.000000,0.000000,0.000000,0.000000,0.000000,0.000000,0.000000,0.000000,0.000000,0.000000,0.000000,0.000000,,,,,,,,,,,,,,,,,,,,,,,,,,,,,,,,,,,,,,,,,,,,,,,,,,,,,,,,,,,,,,,,,,,,,,,,,,,,,,,,,,,,,,,,,,,,,,,,,,,,,,,,,,,,,,,,,,,,,,,,,,,,,,,,,
1742197309.375959,1742197309.376124,75.000000,0.000000,4289.487305,4343.974121,4225.512695,4307.563965,4350.256348,4360.897461,4363.974121,4565.769043,4551.922852,4554.230957,4500.384766,5685.641113,4313.846191,4258.589844,0.000000,0.000000,11.000000,,,,0.000000,0.000000,0.000000,0.000000,0.000000,0.000000,0.000000,0.000000,0.000000,0.000000,0.000000,0.000000,0.000000,0.000000,0.000000,0.000000,,,,,,,,,,,,,,,,,,,,,,,,,,,,,,,,,,,,,,,,,,,,,,,,,,,,,,,,,,,,,,,,,,,,,,,,,,,,,,,,,,,,,,,,,,,,,,,,,,,,,,,,,,,,,,,,,,,,,,,,,,,,,,,,,
1742197309.383767,1742197309.383933,76.000000,0.000000,4289.743652,4344.487305,4224.358887,4310.256348,4351.153809,4360.256348,4361.153809,4563.333496,4552.307617,4552.820313,4500.000000,5684.615234,4313.205078,4256.025879,0.000000,0.000000,11.000000,,,,0.000000,0.000000,0.000000,0.000000,0.000000,0.000000,0.000000,0.000000,0.000000,0.000000,0.000000,0.000000,0.000000,0.000000,0.000000,0.000000,,,,,,,,,,,,,,,,,19.000000,0.000000,0.738921,-0.119080,0.654785,0.105225,-0.986937,-0.038091,0.109388,24.569935,18.934946,44.572803,,,,,,,,,,,,,,,,,,,,,,,,,,,,,,,,,,,,,,,,,,,,,,,,,,,,,,,,,,,,,,,,,,,,,,,,,,,,,,,,,,,,,,,,,,,,,,,,,,,,,
1742197309.391575,1742197309.391841,77.000000,0.000000,4286.922852,4342.820313,4225.384766,4312.563965,4349.487305,4360.512695,4365.256348,4560.256348,4552.436035,4552.436035,4499.358887,5681.794922,4313.589844,4255.000000,0.000000,0.000000,11.000000,,,,0.000000,0.000000,0.000000,0.000000,0.000000,0.000000,0.000000,0.000000,0.000000,0.000000,0.000000,0.000000,0.000000,0.000000,0.000000,0.000000,,,,,,,,,,,,,,,,,,,,,,,,,,,,,,,,,,,,,,,,,,,,,,,,,,,,,,,,,,,,,,,,,,,,,,,,,,,,,,,,,,,,,,,,,,,,,,,,,,,,,,,,,,,,,,,,,,,,,,,,,,,,,,,,,
1742197309.399383,1742197309.399649,78.000000,0.000000,4287.179688,4341.153809,4226.410156,4311.410156,4350.512695,4360.641113,4367.948730,4560.769043,4552.692383,4553.974121,4497.820313,5682.051270,4313.717773,4256.282227,0.000000,0.000000,11.000000,,,,0.000000,0.000000,0.000000,0.000000,0.000000,0.000000,0.000000,0.000000,0.000000,0.000000,0.000000,0.000000,0.000000,0.000000,0.000000,0.000000,,,,,,,,,,,,,,,,,,,,,,,,,,,,,,,,,,,,,,,,,,,,,,,,,,,,,,,,,,,,,,,,,,,,,,,,,,,,,,,,,,,,,,,,,,,,,,,,,,,,,,,,,,,,,,,,,,,,,,,,,,,,,,,,,
1742197309.407192,1742197309.407557,79.000000,0.000000,4290.769043,4341.794922,4226.410156,4309.871582,4355.128418,4360.769043,4364.615234,4562.051270,4552.563965,4553.717773,4496.282227,5683.205078,4314.358887,4256.282227,0.000000,0.000000,11.000000,,,,0.000000,0.000000,0.000000,0.000000,0.000000,0.000000,0.000000,0.000000,0.000000,0.000000,0.000000,0.000000,0.000000,0.000000,0.000000,0.000000,,,,,,,,,,,,,,,,,,,,,,,,,,,,,,,,,,,,,,,,,,,,,,,,,,,,,,,,,,,,,,,,,,,,,,,,,,,,,,,,,,,,,,,,,,,,,,,,,,,,,,,,,,,,,,,,,,,,,,,,,,,,,,,,,
1742197309.415000,1742197309.415365,80.000000,0.000000,4291.538574,4342.307617,4225.256348,4311.538574,4354.230957,4362.563965,4363.846191,4562.179688,4551.025879,4552.179688,4498.461426,5682.563965,4314.743652,4255.641113,0.000000,0.000000,11.000000,,,,0.000000,0.000000,0.000000,0.000000,0.000000,0.000000,0.000000,0.000000,0.000000,0.000000,0.000000,0.000000,0.000000,0.000000,0.000000,0.000000,,,,,,,,,,,,,,,,,20.000000,0.000000,0.738902,-0.119141,0.654785,0.105286,-0.997192,-0.037602,0.111830,24.762941,18.958118,44.632191,,,,,,,,,,,,,,,,,,,,,,,,,,,,,,,,,,,,,,,,,,,,,,,,,,,,,,,,,,,,,,,,,,,,,,,,,,,,,,,,,,,,,,,,,,,,,,,,,,,,,
1742197309.422808,1742197309.423273,81.000000,0.000000,4290.128418,4341.666504,4226.666504,4311.538574,4350.641113,4362.436035,4366.538574,4562.179688,4551.538574,4552.179688,4499.230957,5682.563965,4313.205078,4255.641113,0.000000,0.000000,11.000000,,,,0.000000,0.000000,0.000000,0.000000,0.000000,0.000000,0.000000,0.000000,0.000000,0.000000,0.000000,0.000000,0.000000,0.000000,0.000000,0.000000,,,,,,,,,,,,,,,,,,,,,,,,,,,,,,,,,,,,,,,,,,,,,,,,,,,,,,,,,,,,,,,,,,,,,,,,,,,,,,,,,,,,,,,,,,,,,,,,,,,,,,,,,,,,,,,,,,,,,,,,,,,,,,,,,
1742197309.430616,1742197309.431082,82.000000,0.000000,4289.358887,4343.077148,4227.692383,4307.692383,4351.410156,4360.256348,4367.179688,4563.333496,4554.487305,4553.461426,4497.436035,5681.794922,4312.436035,4256.410156,0.000000,0.000000,11.000000,,,,0.000000,0.000000,0.000000,0.000000,0.000000,0.000000,0.000000,0.000000,0.000000,0.000000,0.000000,0.000000,0.000000,0.000000,0.000000,0.000000,,,,,,,,,,,,,,,,,,,,,,,,,,,,,,,,,,,,,,,,,,,,,,,,,,,,,,,,,,,,,,,,,,,,,,,,,,,,,,,,,,,,,,,,,,,,,,,,,,,,,,,,,,,,,,,,,,,,,,,,,,,,,,,,,
1742197309.438424,1742197309.438990,83.000000,0.000000,4290.000000,4344.230957,4224.871582,4307.179688,4352.563965,4360.000000,4367.820313,4564.743652,4553.974121,4553.717773,4498.717773,5681.410156,4313.974121,4254.230957,0.000000,0.000000,11.000000,,,,0.000000,0.000000,0.000000,0.000000,0.000000,0.000000,0.000000,0.000000,0.000000,0.000000,0.000000,0.000000,0.000000,0.000000,0.000000,0.000000,,,,,,,,,,,,,,,,,,,,,,,,,,,,,,,,,,,,,,,,,,,,,,,,,,,,,,,,,,,,0.014807,0.014458,0.023405,0.022433,0.029439,0.019201,0.019371,0.011285,0.008942,0.015630,0.051980,0.038276,0.017384,0.018810,0.021376,0.013830,0.010526,0.019419,0.017459,0.036084,0.007885,0.016037,0.004794,0.011014,0.022932,0.015927,0.026268,0.009762,0.008904,0.025773,0.056822,0.029455,0.044744,0.034055,0.034695,0.010620,0.031242,0.017058,0.011450,0.016027,0.013705,0.012123,0.006737,0.010053,0.023793,0.004801,0.004891,0.007549,0.003987,0.006466,0.028607,0.032275,0.027792,0.058198,0.040474,0.016116,0.040456,0.029721,0.017128,0.023135,0.019817,0.018876,0.020353,0.019907,0.024034,0.081853,0.064112,0.034095,0.017578,0.027195
1742197309.446232,1742197309.446798,84.000000,0.000000,4290.641113,4341.666504,4225.256348,4308.846191,4351.025879,4361.282227,4369.102539,4563.846191,4552.307617,4553.461426,4500.641113,5684.487305,4314.743652,4255.512695,0.000000,0.000000,11.000000,,,,0.000000,0.000000,0.000000,0.000000,0.000000,0.000000,0.000000,0.000000,0.000000,0.000000,0.000000,0.000000,0.000000,0.000000,0.000000,0.000000,,,,,,,,,,,,,,,,,21.000000,0.000000,0.738921,-0.119080,0.654785,0.105225,-0.991332,-0.032719,0.113295,24.803314,18.762306,44.635639,,,,,,,,,,,,,,,,,,,,,,,,,,,,,,,,,,,,,,,,,,,,,,,,,,,,,,,,,,,,,,,,,,,,,,,,,,,,,,,,,,,,,,,,,,,,,,,,,,,,,
1742197309.454040,1742197309.454706,85.000000,0.000000,4288.589844,4342.051270,4227.051270,4307.051270,4351.666504,4361.153809,4366.153809,4563.589844,4554.615234,4553.205078,4499.487305,5684.743652,4314.230957,4260.000000,0.000000,0.000000,11.000000,,,,0.000000,0.000000,0.000000,0.000000,0.000000,0.000000,0.000000,0.000000,0.000000,0.000000,0.000000,0.000000,0.000000,0.000000,0.000000,0.000000,,,,,,,,,,,,,,,,,,,,,,,,,,,,,,,,,,,,,,,,,,,,,,,,,,,,,,,,,,,,,,,,,,,,,,,,,,,,,,,,,,,,,,,,,,,,,,,,,,,,,,,,,,,,,,,,,,,,,,,,,,,,,,,,,
1742197309.461848,1742197309.462514,86.000000,0.000000,4288.333496,4345.384766,4225.384766,4307.820313,4353.461426,4359.230957,4362.307617,4563.205078,4555.512695,4553.974121,4496.794922,5681.025879,4313.589844,4260.000000,0.000000,0.000000,11.000000,,,,0.000000,0.000000,0.000000,0.000000,0.000000,0.000000,0.000000,0.000000,0.000000,0.000000,0.000000,0.000000,0.000000,0.000000,0.000000,0.000000,,,,,,,,,,,,,,,,,,,,,,,,,,,,,,,,,,,,,,,,,,,,,,,,,,,,,,,,,,,,,,,,,,,,,,,,,,,,,,,,,,,,,,,,,,,,,,,,,,,,,,,,,,,,,,,,,,,,,,,,,,,,,,,,,
1742197309.469656,1742197309.470222,87.000000,0.000000,4290.384766,4343.717773,4225.384766,4311.282227,4352.307617,4361.410156,4360.769043,4560.512695,4553.077148,4554.358887,4496.922852,5681.025879,4313.589844,4258.974121,0.000000,0.000000,11.000000,,,,0.000000,0.000000,0.000000,0.000000,0.000000,0.000000,0.000000,0.000000,0.000000,0.000000,0.000000,0.000000,0.000000,0.000000,0.000000,0.000000,,,,,,,,,,,,,,,,,,,,,,,,,,,,,,,,,,,,,,,,,,,,,,,,,,,,,,,,,,,,,,,,,,,,,,,,,,,,,,,,,,,,,,,,,,,,,,,,,,,,,,,,,,,,,,,,,,,,,,,,,,,,,,,,,
1742197309.477464,1742197309.478030,88.000000,0.000000,4291.282227,4341.666504,4227.051270,4310.384766,4350.641113,4364.358887,4363.846191,4559.487305,4551.282227,4552.820313,4497.563965,5684.743652,4314.358887,4259.487305,0.000000,0.000000,11.000000,,,,0.000000,0.000000,0.000000,0.000000,0.000000,0.000000,0.000000,0.000000,0.000000,0.000000,0.000000,0.000000,0.000000,0.000000,0.000000,0.000000,,,,,,,,,,,,,,,,,22.000000,0.000000,0.738866,-0.119141,0.654846,0.105164,-0.995239,-0.047369,0.109388,24.739649,18.652742,44.672073,,,,,,,,,,,,,,,,,,,,,,,,,,,,,,,,,,,,,,,,,,,,,,,,,,,,,,,,,,,,,,,,,,,,,,,,,,,,,,,,,,,,,,,,,,,,,,,,,,,,,
1742197309.485273,1742197309.485738,89.000000,0.000000,4290.641113,4343.974121,4226.538574,4309.487305,4350.512695,4361.922852,4366.410156,4562.179688,4552.563965,4552.948730,4496.666504,5683.974121,4313.717773,4259.102539,0.000000,0.000000,11.000000,,,,0.000000,0.000000,0.000000,0.000000,0.000000,0.000000,0.000000,0.000000,0.000000,0.000000,0.000000,0.000000,0.000000,0.000000,0.000000,0.000000,,,,,,,,,,,,,,,,,,,,,,,,,,,,,,,,,,,,,,,,,,,,,,,,,,,,,,,,,,,,,,,,,,,,,,,,,,,,,,,,,,,,,,,,,,,,,,,,,,,,,,,,,,,,,,,,,,,,,,,,,,,,,,,,,
1742197309.493081,1742197309.493546,90.000000,0.000000,4288.974121,4345.512695,4227.692383,4309.871582,4351.025879,4360.000000,4364.871582,4562.692383,4553.717773,4553.461426,4496.538574,5681.794922,4312.307617,4259.487305,0.000000,0.000000,11.000000,,,,0.000000,0.000000,0.000000,0.000000,0.000000,0.000000,0.000000,0.000000,0.000000,0.000000,0.000000,0.000000,0.000000,0.000000,0.000000,0.000000,,,,,,,,,,,,,,,,,,,,,,,,,,,,,,,,,,,,,,,,,,,,,,,,,,,,,,,,,,,,,,,,,,,,,,,,,,,,,,,,,,,,,,,,,,,,,,,,,,,,,,,,,,,,,,,,,,,,,,,,,,,,,,,,,
1742197309.500888,1742197309.501254,91.000000,0.000000,4288.205078,4344.615234,4227.820313,4307.563965,4350.641113,4360.512695,4364.743652,4560.256348,4551.794922,4552.563965,4498.205078,5683.077148,4312.307617,4260.769043,0.000000,0.000000,11.000000,,,,0.000000,0.000000,0.000000,0.000000,0.000000,0.000000,0.000000,0.000000,0.000000,0.000000,0.000000,0.000000,0.000000,0.000000,0.000000,0.000000,,,,,,,,,,,,,,,,,,,,,,,,,,,,,,,,,,,,,,,,,,,,,,,,,,,,,,,,,,,,,,,,,,,,,,,,,,,,,,,,,,,,,,,,,,,,,,,,,,,,,,,,,,,,,,,,,,,,,,,,,,,,,,,,,
1742197309.508697,1742197309.509062,92.000000,0.000000,4291.025879,4343.974121,4223.717773,4309.743652,4352.051270,4358.589844,4365.512695,4560.256348,4551.538574,4552.436035,4498.461426,5683.717773,4312.563965,4258.974121,0.000000,0.000000,11.000000,,,,0.000000,0.000000,0.000000,0.000000,0.000000,0.000000,0.000000,0.000000,0.000000,0.000000,0.000000,0.000000,0.000000,0.000000,0.000000,0.000000,,,,,,,,,,,,,,,,,23.000000,0.000000,0.738857,-0.119141,0.654846,0.105225,-0.991820,-0.037602,0.109388,24.765684,18.670801,44.704868,,,,,,,,,,,,,,,,,,,,,,,,,,,,,,,,,,,,,,,,,,,,,,,,,,,,,,,,,,,,,,,,,,,,,,,,,,,,,,,,,,,,,,,,,,,,,,,,,,,,,
1742197309.516505,1742197309.516770,93.000000,0.000000,4290.897461,4344.230957,4225.000000,4312.436035,4352.692383,4358.717773,4364.743652,4561.794922,4553.717773,4552.692383,4497.051270,5683.077148,4312.436035,4255.256348,0.000000,0.000000,11.000000,,,,0.000000,0.000000,0.000000,0.000000,0.000000,0.000000,0.000000,0.000000,0.000000,0.000000,0.000000,0.000000,0.000000,0.000000,0.000000,0.000000,,,,,,,,,,,,,,,,,,,,,,,,,,,,,,,,,,,,,,,,,,,,,,,,,,,,,,,,,,,,,,,,,,,,,,,,,,,,,,,,,,,,,,,,,,,,,,,,,,,,,,,,,,,,,,,,,,,,,,,,,,,,,,,,,
1742197309.524313,1742197309.524578,94.000000,0.000000,4288.589844,4343.717773,4229.230957,4310.384766,4350.512695,4362.563965,4364.487305,4561.666504,4554.487305,4552.436035,4499.358887,5683.589844,4312.179688,4254.743652,0.000000,0.000000,11.000000,,,,0.000000,0.000000,0.000000,0.000000,0.000000,0.000000,0.000000,0.000000,0.000000,0.000000,0.000000,0.000000,0.000000,0.000000,0.000000,0.000000,,,,,,,,,,,,,,,,,,,,,,,,,,,,,,,,,,,,,,,,,,,,,,,,,,,,,,,,,,,,,,,,,,,,,,,,,,,,,,,,,,,,,,,,,,,,,,,,,,,,,,,,,,,,,,,,,,,,,,,,,,,,,,,,,
1742197309.532121,1742197309.532286,95.000000,0.000000,4290.641113,4343.333496,4227.436035,4310.512695,4350.128418,4360.897461,4366.025879,4560.769043,4553.589844,4552.307617,4502.051270,5684.230957,4313.205078,4256.410156,0.000000,0.000000,11.000000,,,,0.000000,0.000000,0.000000,0.000000,0.000000,0.000000,0.000000,0.000000,0.000000,0.000000,0.000000,0.000000,0.000000,0.000000,0.000000,0.000000,,,,,,,,,,,,,,,,,,,,,,,,,,,,,,,,,,,,,,,,,,,,,,,,,,,,,,,,,,,,,,,,,,,,,,,,,,,,,,,,,,,,,,,,,,,,,,,,,,,,,,,,,,,,,,,,,,,,,,,,,,,,,,,,,
1742197309.539929,1742197309.540094,96.000000,0.000000,4290.769043,4343.077148,4225.000000,4312.307617,4352.051270,4357.692383,4364.871582,4561.666504,4552.692383,4552.820313,4499.358887,5683.205078,4314.102539,4257.820313,0.000000,0.000000,11.000000,,,,0.000000,0.000000,0.000000,0.000000,0.000000,0.000000,0.000000,0.000000,0.000000,0.000000,0.000000,0.000000,0.000000,0.000000,0.000000,0.000000,,,,,,,,,,,,,,,,,24.000000,0.000000,0.738857,-0.119141,0.654846,0.105225,-0.991332,-0.044439,0.110853,24.639116,18.637054,44.667713,,,,,,,,,,,,,,,,,,,,,,,,,,,,,,,,,,,,,,,,,,,,,,,,,,,,,,,,,,,,,,,,,,,,,,,,,,,,,,,,,,,,,,,,,,,,,,,,,,,,,
1742197309.547737,1742197309.547802,97.000000,0.000000,4287.307617,4343.589844,4226.410156,4309.487305,4351.538574,4357.820313,4362.692383,4563.461426,4551.666504,4552.563965,4497.436035,5682.051270,4311.922852,4256.153809,0.000000,0.000000,11.000000,,,,0.000000,0.000000,0.000000,0.000000,0.000000,0.000000,0.000000,0.000000,0.000000,0.000000,0.000000,0.000000,0.000000,0.000000,0.000000,0.000000,,,,,,,,,,,,,,,,,,,,,,,,,,,,,,,,,,,,,,,,,,,,,,,,,,,,,,,,,,,,,,,,,,,,,,,,,,,,,,,,,,,,,,,,,,,,,,,,,,,,,,,,,,,,,,,,,,,,,,,,,,,,,,,,,
1742197309.555545,1742197309.555610,98.000000,0.000000,4288.205078,4344.230957,4226.025879,4309.102539,4350.769043,4358.461426,4363.717773,4562.563965,4550.897461,4552.692383,4499.358887,5681.794922,4311.282227,4252.692383,0.000000,0.000000,11.000000,,,,0.000000,0.000000,0.000000,0.000000,0.000000,0.000000,0.000000,0.000000,0.000000,0.000000,0.000000,0.000000,0.000000,0.000000,0.000000,0.000000,,,,,,,,,,,,,,,,,,,,,,,,,,,,,,,,,,,,,,,,,,,,,,,,,,,,,,,,,,,,,,,,,,,,,,,,,,,,,,,,,,,,,,,,,,,,,,,,,,,,,,,,,,,,,,,,,,,,,,,,,,,,,,,,,
1742197309.563353,1742197309.563318,99.000000,0.000000,4289.615234,4345.128418,4222.820313,4310.897461,4352.563965,4360.000000,4365.128418,4561.538574,4551.922852,4553.205078,4496.794922,5682.820313,4313.717773,4251.794922,0.000000,0.000000,11.000000,,,,0.000000,0.000000,0.000000,0.000000,0.000000,0.000000,0.000000,0.000000,0.000000,0.000000,0.000000,0.000000,0.000000,0.000000,0.000000,0.000000,1.000000,0.000000,0.000000,0.000000,0.000000,0.000000,0.000000,0.000000,0.000000,0.000000,0.000000,0.000000,0.000000,0.000000,0.000000,0.000000,,,,,,,,,,,,,,,,,,,,,,,,,,,,,,,,,,,,,,,,,,,,0.015163,0.012657,0.020401,0.021328,0.029532,0.016160,0.018249,0.015916,0.008146,0.016077,0.054245,0.045668,0.017762,0.017143,0.020917,0.012095,0.011204,0.017390,0.018349,0.036543,0.008467,0.016433,0.005348,0.011805,0.024123,0.017297,0.026061,0.009525,0.010480,0.029867,0.053168,0.021191,0.038690,0.029421,0.035892,0.011769,0.028520,0.012799,0.012674,0.016957,0.015210,0.011279,0.007124,0.008297,0.020030,0.004459,0.005141,0.007049,0.004073,0.006282,0.022614,0.026745,0.025464,0.054845,0.041093,0.013719,0.049037,0.028478,0.016646,0.024875,0.020594,0.021111,0.022020,0.019822,0.023799,0.097631,0.063562,0.032592,0.018402,0.028988
1742197309.571161,1742197309.571226,100.000000,0.000000,4288.589844,4345.384766,4223.717773,4306.410156,4352.820313,4360.512695,4366.794922,4562.436035,4553.589844,4552.948730,4493.846191,5683.846191,4313.846191,4253.846191,0.000000,0.000000,11.000000,,,,0.000000,0.000000,0.000000,0.000000,0.000000,0.000000,0.000000,0.000000,0.000000,0.000000,0.000000,0.000000,0.000000,0.000000,0.000000,0.000000,,,,,,,,,,,,,,,,,25.000000,0.000000,0.738782,-0.119324,0.654907,0.105164,-1.001587,-0.040044,0.116713,24.658537,18.606682,44.584274,,,,,,,,,,,,,,,,,,,,,,,,,,,,,,,,,,,,,,,,,,,,,,,,,,,,,,,,,,,,,,,,,,,,,,,,,,,,,,,,,,,,,,,,,,,,,,,,,,,,,
1742197309.578969,1742197309.579034,101.000000,0.000000,4287.436035,4344.743652,4227.051270,4306.666504,4351.666504,4358.333496,4367.563965,4563.077148,4553.461426,4552.948730,4498.589844,5682.436035,4312.820313,4256.666504,0.000000,0.000000,11.000000,,,,0.000000,0.000000,0.000000,0.000000,0.000000,0.000000,0.000000,0.000000,0.000000,0.000000,0.000000,0.000000,0.000000,0.000000,0.000000,0.000000,,,,,,,,,,,,,,,,,,,,,,,,,,,,,,,,,,,,,,,,,,,,,,,,,,,,,,,,,,,,,,,,,,,,,,,,,,,,,,,,,,,,,,,,,,,,,,,,,,,,,,,,,,,,,,,,,,,,,,,,,,,,,,,,,
1742197309.586778,1742197309.586942,102.000000,0.000000,4287.179688,4345.769043,4227.436035,4311.922852,4351.025879,4358.461426,4366.282227,4563.205078,4553.717773,4553.461426,4501.410156,5682.179688,4314.743652,4259.358887,0.000000,0.000000,11.000000,,,,0.000000,0.000000,0.000000,0.000000,0.000000,0.000000,0.000000,0.000000,0.000000,0.000000,0.000000,0.000000,0.000000,0.000000,0.000000,0.000000,,,,,,,,,,,,,,,,,,,,,,,,,,,,,,,,,,,,,,,,,,,,,,,,,,,,,,,,,,,,,,,,,,,,,,,,,,,,,,,,,,,,,,,,,,,,,,,,,,,,,,,,,,,,,,,,,,,,,,,,,,,,,,,,,
1742197309.594586,1742197309.594751,103.000000,0.000000,4289.743652,4346.025879,4226.922852,4309.615234,4351.410156,4362.179688,4367.179688,4563.205078,4554.487305,4553.205078,4497.692383,5683.589844,4314.487305,4257.692383,0.000000,0.000000,11.000000,,,,0.000000,0.000000,0.000000,0.000000,0.000000,0.000000,0.000000,0.000000,0.000000,0.000000,0.000000,0.000000,0.000000,0.000000,0.000000,0.000000,,,,,,,,,,,,,,,,,,,,,,,,,,,,,,,,,,,,,,,,,,,,,,,,,,,,,,,,,,,,,,,,,,,,,,,,,,,,,,,,,,,,,,,,,,,,,,,,,,,,,,,,,,,,,,,,,,,,,,,,,,,,,,,,,
1742197309.602394,1742197309.602659,104.000000,0.000000,4291.922852,4345.000000,4228.846191,4306.922852,4352.436035,4362.307617,4369.743652,4561.666504,4552.307617,4553.333496,4498.077148,5684.102539,4313.589844,4254.230957,0.000000,0.000000,11.000000,,,,0.000000,0.000000,0.000000,0.000000,0.000000,0.000000,0.000000,0.000000,0.000000,0.000000,0.000000,0.000000,0.000000,0.000000,0.000000,0.000000,,,,,,,,,,,,,,,,,26.000000,0.000000,0.738782,-0.119324,0.654907,0.105164,-1.004517,-0.038091,0.121597,24.709351,18.662682,44.675846,,,,,,,,,,,,,,,,,,,,,,,,,,,,,,,,,,,,,,,,,,,,,,,,,,,,,,,,,,,,,,,,,,,,,,,,,,,,,,,,,,,,,,,,,,,,,,,,,,,,,
1742197309.610202,1742197309.610467,105.000000,0.000000,4289.871582,4345.512695,4228.974121,4308.589844,4351.922852,4359.871582,4365.384766,4561.794922,4550.128418,4553.717773,4500.128418,5683.974121,4315.641113,4255.641113,0.000000,0.000000,11.000000,,,,0.000000,0.000000,0.000000,0.000000,0.000000,0.000000,0.000000,0.000000,0.000000,0.000000,0.000000,0.000000,0.000000,0.000000,0.000000,0.000000,,,,,,,,,,,,,,,,,,,,,,,,,,,,,,,,,,,,,,,,,,,,,,,,,,,,,,,,,,,,,,,,,,,,,,,,,,,,,,,,,,,,,,,,,,,,,,,,,,,,,,,,,,,,,,,,,,,,,,,,,,,,,,,,,
1742197309.618010,1742197309.618375,106.000000,0.000000,4288.974121,4345.897461,4226.153809,4309.487305,4351.410156,4359.102539,4359.871582,4563.717773,4552.307617,4553.717773,4498.974121,5683.461426,4314.230957,4260.512695,0.000000,0.000000,11.000000,,,,0.000000,0.000000,0.000000,0.000000,0.000000,0.000000,0.000000,0.000000,0.000000,0.000000,0.000000,0.000000,0.000000,0.000000,0.000000,0.000000,,,,,,,,,,,,,,,,,,,,,,,,,,,,,,,,,,,,,,,,,,,,,,,,,,,,,,,,,,,,,,,,,,,,,,,,,,,,,,,,,,,,,,,,,,,,,,,,,,,,,,,,,,,,,,,,,,,,,,,,,,,,,,,,,
1742197309.625818,1742197309.626183,107.000000,0.000000,4289.358887,4344.230957,4226.025879,4310.256348,4352.692383,4359.230957,4363.846191,4563.333496,4553.846191,4553.717773,4500.512695,5683.461426,4311.794922,4260.128418,0.000000,0.000000,11.000000,,,,0.000000,0.000000,0.000000,0.000000,0.000000,0.000000,0.000000,0.000000,0.000000,0.000000,0.000000,0.000000,0.000000,0.000000,0.000000,0.000000,,,,,,,,,,,,,,,,,,,,,,,,,,,,,,,,,,,,,,,,,,,,,,,,,,,,,,,,,,,,,,,,,,,,,,,,,,,,,,,,,,,,,,,,,,,,,,,,,,,,,,,,,,,,,,,,,,,,,,,,,,,,,,,,,
1742197309.633626,1742197309.634091,108.000000,0.000000,4289.102539,4342.948730,4227.820313,4312.307617,4351.410156,4360.769043,4365.769043,4560.512695,4552.563965,4552.820313,4502.820313,5684.743652,4313.717773,4254.871582,0.000000,0.000000,11.000000,,,,0.000000,0.000000,0.000000,0.000000,0.000000,0.000000,0.000000,0.000000,0.000000,0.000000,0.000000,0.000000,0.000000,0.000000,0.000000,0.000000,,,,,,,,,,,,,,,,,27.000000,0.000000,0.738792,-0.119263,0.654907,0.105164,-0.989379,-0.027835,0.116225,24.855082,18.496412,44.674931,,,,,,,,,,,,,,,,,,,,,,,,,,,,,,,,,,,,,,,,,,,,,,,,,,,,,,,,,,,,,,,,,,,,,,,,,,,,,,,,,,,,,,,,,,,,,,,,,,,,,
1742197309.641434,1742197309.641900,109.000000,0.000000,4291.025879,4342.307617,4226.410156,4310.384766,4349.871582,4362.179688,4361.922852,4561.282227,4552.692383,4552.563965,4501.922852,5683.077148,4317.051270,4252.820313,0.000000,0.000000,11.000000,,,,0.000000,0.000000,0.000000,0.000000,0.000000,0.000000,0.000000,0.000000,0.000000,0.000000,0.000000,0.000000,0.000000,0.000000,0.000000,0.000000,,,,,,,,,,,,,,,,,,,,,,,,,,,,,,,,,,,,,,,,,,,,,,,,,,,,,,,,,,,,,,,,,,,,,,,,,,,,,,,,,,,,,,,,,,,,,,,,,,,,,,,,,,,,,,,,,,,,,,,,,,,,,,,,,
1742197309.649242,1742197309.649708,110.000000,0.000000,4290.769043,4342.692383,4223.974121,4307.692383,4351.922852,4360.000000,4364.102539,4563.974121,4552.692383,4553.589844,4499.358887,5681.410156,4316.538574,4255.512695,0.000000,0.000000,11.000000,,,,0.000000,0.000000,0.000000,0.000000,0.000000,0.000000,0.000000,0.000000,0.000000,0.000000,0.000000,0.000000,0.000000,0.000000,0.000000,0.000000,,,,,,,,,,,,,,,,,,,,,,,,,,,,,,,,,,,,,,,,,,,,,,,,,,,,,,,,,,,,,,,,,,,,,,,,,,,,,,,,,,,,,,,,,,,,,,,,,,,,,,,,,,,,,,,,,,,,,,,,,,,,,,,,,
1742197309.657050,1742197309.657516,111.000000,0.000000,4288.205078,4345.128418,4224.230957,4308.461426,4352.820313,4358.333496,4368.333496,4561.282227,4552.948730,4553.846191,4497.692383,5684.743652,4314.230957,4255.769043,0.000000,0.000000,11.000000,,,,0.000000,0.000000,0.000000,0.000000,0.000000,0.000000,0.000000,0.000000,0.000000,0.000000,0.000000,0.000000,0.000000,0.000000,0.000000,0.000000,,,,,,,,,,,,,,,,,,,,,,,,,,,,,,,,,,,,,,,,,,,,,,,,,,,,,,,,,,,,,,,,,,,,,,,,,,,,,,,,,,,,,,,,,,,,,,,,,,,,,,,,,,,,,,,,,,,,,,,,,,,,,,,,,
1742197309.664858,1742197309.665224,112.000000,0.000000,4290.512695,4344.358887,4225.512695,4310.384766,4350.512695,4359.487305,4365.512695,4559.102539,4553.846191,4553.333496,4498.333496,5685.769043,4313.077148,4254.743652,0.000000,0.000000,11.000000,,,,0.000000,0.000000,0.000000,0.000000,0.000000,0.000000,0.000000,0.000000,0.000000,0.000000,0.000000,0.000000,0.000000,0.000000,0.000000,0.000000,,,,,,,,,,,,,,,,,28.000000,0.000000,0.738792,-0.119263,0.654907,0.105164,-0.998657,-0.049811,0.107435,24.802908,18.596771,44.640770,,,,,,,,,,,,,,,,,,,,,,,,,,,,,,,,,,,,,,,,,,,,,,,,,,,,,,,,,,,,,,,,,,,,,,,,,,,,,,,,,,,,,,,,,,,,,,,,,,,,,
1742197309.672666,1742197309.673032,113.000000,0.000000,4291.666504,4342.563965,4227.692383,4312.692383,4350.897461,4360.512695,4365.769043,4561.538574,4553.461426,4553.461426,4498.846191,5683.077148,4312.051270,4257.436035,0.000000,0.000000,11.000000,,,,0.000000,0.000000,0.000000,0.000000,0.000000,0.000000,0.000000,0.000000,0.000000,0.000000,0.000000,0.000000,0.000000,0.000000,0.000000,0.000000,,,,,,,,,,,,,,,,,,,,,,,,,,,,,,,,,,,,,,,,,,,,,,,,,,,,,,,,,,,,,,,,,,,,,,,,,,,,,,,,,,,,,,,,,,,,,,,,,,,,,,,,,,,,,,,,,,,,,,,,,,,,,,,,,
1742197309.680475,1742197309.680740,114.000000,0.000000,4289.102539,4345.256348,4228.717773,4310.256348,4352.436035,4361.153809,4372.820313,4562.307617,4552.436035,4553.717773,4497.179688,5683.077148,4312.692383,4258.717773,0.000000,0.000000,11.000000,,,,0.000000,0.000000,0.000000,0.000000,0.000000,0.000000,0.000000,0.000000,0.000000,0.000000,0.000000,0.000000,0.000000,0.000000,0.000000,0.000000,,,,,,,,,,,,,,,,,,,,,,,,,,,,,,,,,,,,,,,,,,,,,,,,,,,,,,,,,,,,,,,,,,,,,,,,,,,,,,,,,,,,,,,,,,,,,,,,,,,,,,,,,,,,,,,,,,,,,,,,,,,,,,,,,
1742197309.688283,1742197309.688548,115.000000,0.000000,4288.333496,4346.666504,4226.922852,4306.538574,4351.410156,4361.282227,4372.692383,4560.256348,4551.794922,4553.205078,4499.743652,5683.589844,4314.358887,4256.666504,0.000000,0.000000,11.000000,,,,0.000000,0.000000,0.000000,0.000000,0.000000,0.000000,0.000000,0.000000,0.000000,0.000000,0.000000,0.000000,0.000000,0.000000,0.000000,0.000000,,,,,,,,,,,,,,,,,,,,,,,,,,,,,,,,,,,,,,,,,,,,,,,,,,,,,,,,,,,,0.014979,0.011523,0.018684,0.019978,0.029665,0.015013,0.017508,0.020778,0.008272,0.016123,0.055388,0.049449,0.017136,0.015940,0.020341,0.011475,0.013388,0.017263,0.020714,0.036229,0.009648,0.016192,0.006959,0.012197,0.023756,0.018286,0.024462,0.009471,0.012756,0.033518,0.052060,0.018873,0.034188,0.025509,0.037520,0.012786,0.024922,0.010206,0.014043,0.017194,0.017383,0.010140,0.007992,0.007336,0.016781,0.004460,0.005480,0.006183,0.004174,0.005975,0.018202,0.024324,0.025527,0.049016,0.040845,0.012190,0.053890,0.027852,0.015682,0.025459,0.020665,0.021824,0.023274,0.018300,0.022861,0.108815,0.061124,0.034055,0.020500,0.031259
1742197309.696091,1742197309.696256,116.000000,0.000000,4288.077148,4343.974121,4226.538574,4305.897461,4350.769043,4360.897461,4366.410156,4560.128418,4552.436035,4552.948730,4500.256348,5681.794922,4315.000000,4260.000000,0.000000,0.000000,11.000000,,,,0.000000,0.000000,0.000000,0.000000,0.000000,0.000000,0.000000,0.000000,0.000000,0.000000,0.000000,0.000000,0.000000,0.000000,0.000000,0.000000,,,,,,,,,,,,,,,,,29.000000,0.000000,0.738728,-0.119324,0.654968,0.105164,-0.991820,-0.036626,0.110853,24.705950,18.937094,44.693359,,,,,,,,,,,,,,,,,,,,,,,,,,,,,,,,,,,,,,,,,,,,,,,,,,,,,,,,,,,,,,,,,,,,,,,,,,,,,,,,,,,,,,,,,,,,,,,,,,,,,
1742197309.703899,1742197309.704064,117.000000,0.000000,4286.282227,4343.846191,4227.820313,4308.846191,4352.051270,4360.641113,4362.820313,4561.922852,4552.307617,4553.589844,4491.538574,5683.333496,4313.461426,4263.846191,0.000000,0.000000,11.000000,,,,0.000000,0.000000,0.000000,0.000000,0.000000,0.000000,0.000000,0.000000,0.000000,0.000000,0.000000,0.000000,0.000000,0.000000,0.000000,0.000000,,,,,,,,,,,,,,,,,,,,,,,,,,,,,,,,,,,,,,,,,,,,,,,,,,,,,,,,,,,,,,,,,,,,,,,,,,,,,,,,,,,,,,,,,,,,,,,,,,,,,,,,,,,,,,,,,,,,,,,,,,,,,,,,,
1742197309.711707,1742197309.711772,118.000000,0.000000,4288.077148,4343.717773,4227.179688,4312.692383,4352.051270,4360.384766,4362.692383,4561.666504,4551.410156,4553.846191,4491.538574,5685.000000,4311.282227,4258.974121,0.000000,0.000000,11.000000,,,,0.000000,0.000000,0.000000,0.000000,0.000000,0.000000,0.000000,0.000000,0.000000,0.000000,0.000000,0.000000,0.000000,0.000000,0.000000,0.000000,,,,,,,,,,,,,,,,,,,,,,,,,,,,,,,,,,,,,,,,,,,,,,,,,,,,,,,,,,,,,,,,,,,,,,,,,,,,,,,,,,,,,,,,,,,,,,,,,,,,,,,,,,,,,,,,,,,,,,,,,,,,,,,,,
1742197309.719515,1742197309.719580,119.000000,0.000000,4291.538574,4342.948730,4225.769043,4311.666504,4350.384766,4359.871582,4364.358887,4561.794922,4552.948730,4553.717773,4502.307617,5682.051270,4310.769043,4255.897461,0.000000,0.000000,11.000000,,,,0.000000,0.000000,0.000000,0.000000,0.000000,0.000000,0.000000,0.000000,0.000000,0.000000,0.000000,0.000000,0.000000,0.000000,0.000000,0.000000,,,,,,,,,,,,,,,,,,,,,,,,,,,,,,,,,,,,,,,,,,,,,,,,,,,,,,,,,,,,,,,,,,,,,,,,,,,,,,,,,,,,,,,,,,,,,,,,,,,,,,,,,,,,,,,,,,,,,,,,,,,,,,,,,
1742197309.727323,1742197309.727288,120.000000,0.000000,4290.641113,4345.897461,4224.615234,4310.384766,4350.641113,4360.384766,4366.282227,4563.205078,4556.282227,4553.717773,4502.307617,5681.538574,4313.461426,4257.948730,0.000000,0.000000,11.000000,,,,0.000000,0.000000,0.000000,0.000000,0.000000,0.000000,0.000000,0.000000,0.000000,0.000000,0.000000,0.000000,0.000000,0.000000,0.000000,0.000000,,,,,,,,,,,,,,,,,30.000000,0.000000,0.738729,-0.119263,0.654968,0.105225,-0.994750,-0.040044,0.121109,24.685354,18.976719,44.757359,,,,,,,,,,,,,,,,,,,,,,,,,,,,,,,,,,,,,,,,,,,,,,,,,,,,,,,,,,,,,,,,,,,,,,,,,,,,,,,,,,,,,,,,,,,,,,,,,,,,,
1742197309.735131,1742197309.735196,121.000000,0.000000,4289.102539,4346.794922,4225.897461,4312.307617,4352.692383,4361.794922,4364.871582,4562.692383,4555.000000,4553.717773,4497.051270,5685.384766,4313.846191,4257.307617,0.000000,0.000000,11.000000,,,,0.000000,0.000000,0.000000,0.000000,0.000000,0.000000,0.000000,0.000000,0.000000,0.000000,0.000000,0.000000,0.000000,0.000000,0.000000,0.000000,,,,,,,,,,,,,,,,,,,,,,,,,,,,,,,,,,,,,,,,,,,,,,,,,,,,,,,,,,,,,,,,,,,,,,,,,,,,,,,,,,,,,,,,,,,,,,,,,,,,,,,,,,,,,,,,,,,,,,,,,,,,,,,,,
1742197309.742939,1742197309.743004,122.000000,0.000000,4291.666504,4344.102539,4227.307617,4311.666504,4351.538574,4361.025879,4361.922852,4560.256348,4552.051270,4553.717773,4500.000000,5685.512695,4311.282227,4258.974121,0.000000,0.000000,11.000000,,,,0.000000,0.000000,0.000000,0.000000,0.000000,0.000000,0.000000,0.000000,0.000000,0.000000,0.000000,0.000000,0.000000,0.000000,0.000000,0.000000,,,,,,,,,,,,,,,,,,,,,,,,,,,,,,,,,,,,,,,,,,,,,,,,,,,,,,,,,,,,,,,,,,,,,,,,,,,,,,,,,,,,,,,,,,,,,,,,,,,,,,,,,,,,,,,,,,,,,,,,,,,,,,,,,
1742197309.750747,1742197309.750912,123.000000,0.000000,4292.563965,4343.846191,4226.794922,4307.948730,4349.230957,4359.230957,4362.563965,4560.384766,4552.179688,4554.230957,4500.512695,5683.205078,4312.436035,4260.512695,0.000000,0.000000,11.000000,,,,0.000000,0.000000,0.000000,0.000000,0.000000,0.000000,0.000000,0.000000,0.000000,0.000000,0.000000,0.000000,0.000000,0.000000,0.000000,0.000000,,,,,,,,,,,,,,,,,,,,,,,,,,,,,,,,,,,,,,,,,,,,,,,,,,,,,,,,,,,,,,,,,,,,,,,,,,,,,,,,,,,,,,,,,,,,,,,,,,,,,,,,,,,,,,,,,,,,,,,,,,,,,,,,,
1742197309.758556,1742197309.758720,124.000000,0.000000,4287.563965,4345.256348,4225.769043,4308.077148,4351.666504,4358.974121,4364.487305,4562.307617,4552.051270,4554.358887,4495.000000,5685.128418,4313.846191,4257.051270,0.000000,0.000000,11.000000,,,,0.000000,0.000000,0.000000,0.000000,0.000000,0.000000,0.000000,0.000000,0.000000,0.000000,0.000000,0.000000,0.000000,0.000000,0.000000,0.000000,,,,,,,,,,,,,,,,,31.000000,0.000000,0.738719,-0.119324,0.654968,0.105225,-0.991332,-0.048346,0.115737,24.583487,19.012381,44.948288,,,,,,,,,,,,,,,,,,,,,,,,,,,,,,,,,,,,,,,,,,,,,,,,,,,,,,,,,,,,,,,,,,,,,,,,,,,,,,,,,,,,,,,,,,,,,,,,,,,,,
1742197309.766364,1742197309.766629,125.000000,0.000000,4285.641113,4345.128418,4224.743652,4309.102539,4354.230957,4360.897461,4366.153809,4561.153809,4553.077148,4553.589844,4495.897461,5684.487305,4313.461426,4255.256348,0.000000,0.000000,11.000000,,,,0.000000,0.000000,0.000000,0.000000,0.000000,0.000000,0.000000,0.000000,0.000000,0.000000,0.000000,0.000000,0.000000,0.000000,0.000000,0.000000,,,,,,,,,,,,,,,,,,,,,,,,,,,,,,,,,,,,,,,,,,,,,,,,,,,,,,,,,,,,,,,,,,,,,,,,,,,,,,,,,,,,,,,,,,,,,,,,,,,,,,,,,,,,,,,,,,,,,,,,,,,,,,,,,
1742197309.774172,1742197309.774437,126.000000,0.000000,4289.230957,4345.512695,4225.769043,4309.615234,4352.692383,4360.128418,4366.538574,4561.025879,4553.974121,4552.820313,4499.230957,5680.384766,4313.717773,4255.769043,0.000000,0.000000,11.000000,,,,0.000000,0.000000,0.000000,0.000000,0.000000,0.000000,0.000000,0.000000,0.000000,0.000000,0.000000,0.000000,0.000000,0.000000,0.000000,0.000000,,,,,,,,,,,,,,,,,,,,,,,,,,,,,,,,,,,,,,,,,,,,,,,,,,,,,,,,,,,,,,,,,,,,,,,,,,,,,,,,,,,,,,,,,,,,,,,,,,,,,,,,,,,,,,,,,,,,,,,,,,,,,,,,,
1742197309.781980,1742197309.782345,127.000000,0.000000,4290.897461,4346.410156,4228.077148,4310.897461,4350.769043,4359.487305,4365.384766,4562.692383,4552.692383,4552.563965,4495.897461,5680.641113,4314.487305,4255.384766,11.000000,0.000000,11.000000,,,,0.000000,0.000000,0.000000,0.000000,0.000000,0.000000,0.000000,0.000000,0.000000,0.000000,0.000000,0.000000,0.000000,0.000000,0.000000,0.000000,,,,,,,,,,,,,,,,,,,,,,,,,,,,,,,,,,,,,,,,,,,,,,,,,,,,,,,,,,,,,,,,,,,,,,,,,,,,,,,,,,,,,,,,,,,,,,,,,,,,,,,,,,,,,,,,,,,,,,,,,,,,,,,,,
1742197309.789788,1742197309.790153,0.000000,0.000000,4288.717773,4345.769043,4227.692383,4312.179688,4350.512695,4360.769043,4365.000000,4563.333496,4553.717773,4552.563965,4495.128418,5682.179688,4313.205078,4255.256348,0.000000,0.000000,11.000000,,,,0.000000,0.000000,0.000000,0.000000,0.000000,0.000000,0.000000,0.000000,0.000000,0.000000,0.000000,0.000000,0.000000,0.000000,0.000000,0.000000,,,,,,,,,,,,,,,,,0.000000,0.000000,0.738773,-0.119324,0.654907,0.105225,-0.988890,-0.042974,0.117202,24.641804,18.861141,44.920124,,,,,,,,,,,,,,,,,,,,,,,,,,,,,,,,,,,,,,,,,,,,,,,,,,,,,,,,,,,,,,,,,,,,,,,,,,,,,,,,,,,,,,,,,,,,,,,,,,,,,
1742197309.797596,1742197309.798061,1.000000,0.000000,4287.948730,4344.743652,4226.538574,4311.922852,4350.769043,4362.436035,4367.948730,4563.077148,4553.333496,4552.563965,4497.948730,5682.179688,4312.307617,4257.948730,0.000000,0.000000,11.000000,,,,0.000000,0.000000,0.000000,0.000000,0.000000,0.000000,0.000000,0.000000,0.000000,0.000000,0.000000,0.000000,0.000000,0.000000,0.000000,0.000000,,,,,,,,,,,,,,,,,,,,,,,,,,,,,,,,,,,,,,,,,,,,,,,,,,,,,,,,,,,,,,,,,,,,,,,,,,,,,,,,,,,,,,,,,,,,,,,,,,,,,,,,,,,,,,,,,,,,,,,,,,,,,,,,,
1742197309.805404,1742197309.805869,2.000000,0.000000,4290.000000,4345.256348,4226.410156,4310.000000,4351.025879,4363.974121,4367.563965,4562.179688,4549.871582,4552.820313,4496.282227,5681.922852,4311.794922,4258.333496,0.000000,0.000000,11.000000,,,,0.000000,0.000000,0.000000,0.000000,0.000000,0.000000,0.000000,0.000000,0.000000,0.000000,0.000000,0.000000,0.000000,0.000000,0.000000,0.000000,,,,,,,,,,,,,,,,,,,,,,,,,,,,,,,,,,,,,,,,,,,,,,,,,,,,,,,,,,,,,,,,,,,,,,,,,,,,,,,,,,,,,,,,,,,,,,,,,,,,,,,,,,,,,,,,,,,,,,,,,,,,,,,,,
1742197309.813212,1742197309.813777,3.000000,0.000000,4290.769043,4347.179688,4226.153809,4310.000000,4351.538574,4363.717773,4362.692383,4561.538574,4550.512695,4553.846191,4495.000000,5680.128418,4312.563965,4256.922852,0.000000,0.000000,11.000000,,,,0.000000,0.000000,0.000000,0.000000,0.000000,0.000000,0.000000,0.000000,0.000000,0.000000,0.000000,0.000000,0.000000,0.000000,0.000000,0.000000,,,,,,,,,,,,,,,,,,,,,,,,,,,,,,,,,,,,,,,,,,,,,,,,,,,,,,,,,,,,0.014334,0.011703,0.017281,0.018560,0.029944,0.016625,0.017077,0.024351,0.009031,0.015676,0.054499,0.049355,0.015758,0.015345,0.019916,0.012010,0.016051,0.019637,0.024333,0.034912,0.011155,0.015492,0.009435,0.012336,0.021953,0.018594,0.021881,0.009610,0.015228,0.036147,0.053041,0.022505,0.031376,0.022283,0.038309,0.013137,0.021552,0.010173,0.015524,0.016850,0.019570,0.009249,0.009222,0.007135,0.014283,0.004820,0.005773,0.005281,0.004311,0.005764,0.015386,0.024698,0.027412,0.042083,0.039357,0.011421,0.053131,0.027638,0.014681,0.024770,0.019577,0.020666,0.023332,0.015712,0.021090,0.109960,0.056780,0.037305,0.024177,0.033158
1742197309.821020,1742197309.821586,4.000000,0.000000,4288.205078,4346.153809,4226.282227,4310.769043,4351.922852,4361.153809,4363.333496,4560.769043,4554.743652,4553.333496,4496.922852,5681.666504,4313.589844,4258.589844,0.000000,0.000000,11.000000,,,,0.000000,0.000000,0.000000,0.000000,0.000000,0.000000,0.000000,0.000000,0.000000,0.000000,0.000000,0.000000,0.000000,0.000000,0.000000,0.000000,,,,,,,,,,,,,,,,,1.000000,0.000000,0.738773,-0.119324,0.654907,0.105225,-0.987914,-0.038091,0.104505,24.427624,18.925028,44.811447,,,,,,,,,,,,,,,,,,,,,,,,,,,,,,,,,,,,,,,,,,,,,,,,,,,,,,,,,,,,,,,,,,,,,,,,,,,,,,,,,,,,,,,,,,,,,,,,,,,,,
1742197309.828828,1742197309.829494,5.000000,0.000000,4288.077148,4343.077148,4227.436035,4307.563965,4352.179688,4361.538574,4368.077148,4560.641113,4553.589844,4553.077148,4496.282227,5685.897461,4311.922852,4258.077148,0.000000,0.000000,11.000000,,,,0.000000,0.000000,0.000000,0.000000,0.000000,0.000000,0.000000,0.000000,0.000000,0.000000,0.000000,0.000000,0.000000,0.000000,0.000000,0.000000,,,,,,,,,,,,,,,,,,,,,,,,,,,,,,,,,,,,,,,,,,,,,,,,,,,,,,,,,,,,,,,,,,,,,,,,,,,,,,,,,,,,,,,,,,,,,,,,,,,,,,,,,,,,,,,,,,,,,,,,,,,,,,,,,
1742197309.836636,1742197309.837302,6.000000,0.000000,4290.128418,4343.589844,4226.410156,4306.922852,4351.666504,4364.871582,4365.384766,4561.922852,4551.153809,4554.358887,4493.205078,5682.820313,4311.282227,4257.307617,0.000000,0.000000,11.000000,,,,0.000000,0.000000,0.000000,0.000000,0.000000,0.000000,0.000000,0.000000,0.000000,0.000000,0.000000,0.000000,0.000000,0.000000,0.000000,0.000000,,,,,,,,,,,,,,,,,,,,,,,,,,,,,,,,,,,,,,,,,,,,,,,,,,,,,,,,,,,,,,,,,,,,,,,,,,,,,,,,,,,,,,,,,,,,,,,,,,,,,,,,,,,,,,,,,,,,,,,,,,,,,,,,,
1742197309.844444,1742197309.845010,7.000000,0.000000,4288.077148,4345.256348,4224.487305,4309.230957,4351.025879,4363.077148,4362.563965,4563.974121,4552.307617,4554.487305,4496.153809,5680.641113,4312.820313,4258.333496,0.000000,0.000000,11.000000,,,,0.000000,0.000000,0.000000,0.000000,0.000000,0.000000,0.000000,0.000000,0.000000,0.000000,0.000000,0.000000,0.000000,0.000000,0.000000,0.000000,,,,,,,,,,,,,,,,,,,,,,,,,,,,,,,,,,,,,,,,,,,,,,,,,,,,,,,,,,,,,,,,,,,,,,,,,,,,,,,,,,,,,,,,,,,,,,,,,,,,,,,,,,,,,,,,,,,,,,,,,,,,,,,,,
1742197309.852252,1742197309.852818,8.000000,0.000000,4286.794922,4345.384766,4226.794922,4308.461426,4351.538574,4359.102539,4368.717773,4564.102539,4552.820313,4552.563965,4498.461426,5686.025879,4313.077148,4258.461426,0.000000,0.000000,11.000000,,,,0.000000,0.000000,0.000000,0.000000,0.000000,0.000000,0.000000,0.000000,0.000000,0.000000,0.000000,0.000000,0.000000,0.000000,0.000000,0.000000,,,,,,,,,,,,,,,,,2.000000,0.000000,0.738729,-0.119263,0.654968,0.105225,-0.989867,-0.037602,0.120620,24.351528,18.915857,44.913635,,,,,,,,,,,,,,,,,,,,,,,,,,,,,,,,,,,,,,,,,,,,,,,,,,,,,,,,,,,,,,,,,,,,,,,,,,,,,,,,,,,,,,,,,,,,,,,,,,,,,
1742197309.860061,1742197309.860526,9.000000,0.000000,4289.615234,4345.641113,4230.256348,4309.487305,4351.666504,4358.974121,4369.871582,4563.205078,4552.948730,4552.563965,4495.641113,5683.846191,4311.922852,4256.410156,0.000000,0.000000,11.000000,,,,0.000000,0.000000,0.000000,0.000000,0.000000,0.000000,0.000000,0.000000,0.000000,0.000000,0.000000,0.000000,0.000000,0.000000,0.000000,0.000000,,,,,,,,,,,,,,,,,,,,,,,,,,,,,,,,,,,,,,,,,,,,,,,,,,,,,,,,,,,,,,,,,,,,,,,,,,,,,,,,,,,,,,,,,,,,,,,,,,,,,,,,,,,,,,,,,,,,,,,,,,,,,,,,,
1742197309.867869,1742197309.868334,10.000000,0.000000,4291.410156,4346.538574,4228.717773,4311.282227,4351.538574,4358.205078,4366.538574,4563.205078,4553.077148,4554.230957,4494.358887,5679.743652,4311.666504,4257.307617,0.000000,0.000000,11.000000,,,,0.000000,0.000000,0.000000,0.000000,0.000000,0.000000,0.000000,0.000000,0.000000,0.000000,0.000000,0.000000,0.000000,0.000000,0.000000,0.000000,,,,,,,,,,,,,,,,,,,,,,,,,,,,,,,,,,,,,,,,,,,,,,,,,,,,,,,,,,,,,,,,,,,,,,,,,,,,,,,,,,,,,,,,,,,,,,,,,,,,,,,,,,,,,,,,,,,,,,,,,,,,,,,,,
1742197309.875677,1742197309.876042,11.000000,0.000000,4289.743652,4346.794922,4225.769043,4310.897461,4351.282227,4357.820313,4367.179688,4561.153809,4554.102539,4554.743652,4494.743652,5683.205078,4311.538574,4259.743652,0.000000,0.000000,11.000000,,,,0.000000,0.000000,0.000000,0.000000,0.000000,0.000000,0.000000,0.000000,0.000000,0.000000,0.000000,0.000000,0.000000,0.000000,0.000000,0.000000,,,,,,,,,,,,,,,,,,,,,,,,,,,,,,,,,,,,,,,,,,,,,,,,,,,,,,,,,,,,,,,,,,,,,,,,,,,,,,,,,,,,,,,,,,,,,,,,,,,,,,,,,,,,,,,,,,,,,,,,,,,,,,,,,
1742197309.883485,1742197309.883950,12.000000,0.000000,4288.589844,4346.538574,4227.563965,4309.871582,4350.897461,4360.256348,4365.769043,4559.615234,4553.846191,4553.333496,4496.282227,5684.615234,4311.538574,4258.846191,0.000000,0.000000,11.000000,,,,0.000000,0.000000,0.000000,0.000000,0.000000,0.000000,0.000000,0.000000,0.000000,0.000000,0.000000,0.000000,0.000000,0.000000,0.000000,0.000000,,,,,,,,,,,,,,,,,3.000000,0.000000,0.738773,-0.119324,0.654907,0.105225,-0.993285,-0.044927,0.113295,24.349709,19.057606,44.972271,,,,,,,,,,,,,,,,,,,,,,,,,,,,,,,,,,,,,,,,,,,,,,,,,,,,,,,,,,,,,,,,,,,,,,,,,,,,,,,,,,,,,,,,,,,,,,,,,,,,,
1742197309.891293,1742197309.891758,13.000000,0.000000,4289.358887,4346.666504,4228.333496,4307.307617,4351.025879,4361.922852,4363.974121,4560.769043,4552.307617,4552.307617,4498.205078,5683.717773,4313.333496,4259.615234,0.000000,0.000000,11.000000,,,,0.000000,0.000000,0.000000,0.000000,0.000000,0.000000,0.000000,0.000000,0.000000,0.000000,0.000000,0.000000,0.000000,0.000000,0.000000,0.000000,,,,,,,,,,,,,,,,,,,,,,,,,,,,,,,,,,,,,,,,,,,,,,,,,,,,,,,,,,,,,,,,,,,,,,,,,,,,,,,,,,,,,,,,,,,,,,,,,,,,,,,,,,,,,,,,,,,,,,,,,,,,,,,,,
1742197309.899101,1742197309.899567,14.000000,0.000000,4289.102539,4345.769043,4224.871582,4307.307617,4351.922852,4361.538574,4366.282227,4562.436035,4552.692383,4553.461426,4500.384766,5684.230957,4315.000000,4261.666504,0.000000,0.000000,11.000000,,,,0.000000,0.000000,0.000000,0.000000,0.000000,0.000000,0.000000,0.000000,0.000000,0.000000,0.000000,0.000000,0.000000,0.000000,0.000000,0.000000,,,,,,,,,,,,,,,,,,,,,,,,,,,,,,,,,,,,,,,,,,,,,,,,,,,,,,,,,,,,,,,,,,,,,,,,,,,,,,,,,,,,,,,,,,,,,,,,,,,,,,,,,,,,,,,,,,,,,,,,,,,,,,,,,
1742197309.906909,1742197309.907275,15.000000,0.000000,4288.717773,4344.358887,4224.871582,4310.897461,4352.179688,4360.769043,4366.282227,4563.461426,4553.717773,4554.358887,4499.230957,5682.820313,4315.384766,4260.384766,0.000000,0.000000,11.000000,,,,0.000000,0.000000,0.000000,0.000000,0.000000,0.000000,0.000000,0.000000,0.000000,0.000000,0.000000,0.000000,0.000000,0.000000,0.000000,0.000000,,,,,,,,,,,,,,,,,,,,,,,,,,,,,,,,,,,,,,,,,,,,,,,,,,,,,,,,,,,,,,,,,,,,,,,,,,,,,,,,,,,,,,,,,,,,,,,,,,,,,,,,,,,,,,,,,,,,,,,,,,,,,,,,,
1742197309.914717,1742197309.915083,16.000000,0.000000,4289.743652,4346.282227,4225.769043,4309.871582,4351.282227,4359.358887,4360.384766,4562.307617,4553.589844,4553.205078,4498.461426,5683.461426,4314.102539,4256.922852,0.000000,0.000000,11.000000,,,,0.000000,0.000000,0.000000,0.000000,0.000000,0.000000,0.000000,0.000000,0.000000,0.000000,0.000000,0.000000,0.000000,0.000000,0.000000,0.000000,,,,,,,,,,,,,,,,,4.000000,0.000000,0.738764,-0.119385,0.654907,0.105225,-0.997680,-0.041509,0.117202,24.364738,19.035179,44.891712,,,,,,,,,,,,,,,,,,,,,,,,,,,,,,,,,,,,,,,,,,,,,,,,,,,,,,,,,,,,,,,,,,,,,,,,,,,,,,,,,,,,,,,,,,,,,,,,,,,,,
1742197309.922525,1742197309.922791,17.000000,0.000000,4289.615234,4348.077148,4223.846191,4303.077148,4350.769043,4360.000000,4361.025879,4560.769043,4553.461426,4552.179688,4501.282227,5686.410156,4313.717773,4258.461426,0.000000,0.000000,11.000000,,,,0.000000,0.000000,0.000000,0.000000,0.000000,0.000000,0.000000,0.000000,0.000000,0.000000,0.000000,0.000000,0.000000,0.000000,0.000000,0.000000,,,,,,,,,,,,,,,,,,,,,,,,,,,,,,,,,,,,,,,,,,,,,,,,,,,,,,,,,,,,,,,,,,,,,,,,,,,,,,,,,,,,,,,,,,,,,,,,,,,,,,,,,,,,,,,,,,,,,,,,,,,,,,,,,
1742197309.930333,1742197309.930599,18.000000,0.000000,4286.025879,4342.051270,4223.846191,4303.589844,4352.307617,4360.000000,4368.205078,4564.871582,4553.589844,4552.692383,4501.282227,5683.589844,4313.846191,4262.179688,0.000000,0.000000,11.000000,,,,0.000000,0.000000,0.000000,0.000000,0.000000,0.000000,0.000000,0.000000,0.000000,0.000000,0.000000,0.000000,0.000000,0.000000,0.000000,0.000000,,,,,,,,,,,,,,,,,,,,,,,,,,,,,,,,,,,,,,,,,,,,,,,,,,,,,,,,,,,,,,,,,,,,,,,,,,,,,,,,,,,,,,,,,,,,,,,,,,,,,,,,,,,,,,,,,,,,,,,,,,,,,,,,,
1742197309.938141,1742197309.938307,19.000000,0.000000,4285.512695,4339.615234,4226.794922,4310.128418,4353.333496,4358.461426,4368.589844,4567.692383,4552.692383,4553.589844,4498.717773,5680.641113,4313.205078,4260.769043,0.000000,0.000000,11.000000,,,,0.000000,0.000000,0.000000,0.000000,0.000000,0.000000,0.000000,0.000000,0.000000,0.000000,0.000000,0.000000,0.000000,0.000000,0.000000,0.000000,,,,,,,,,,,,,,,,,,,,,,,,,,,,,,,,,,,,,,,,,,,,,,,,,,,,,,,,,,,,0.013505,0.013633,0.015680,0.017148,0.030180,0.020783,0.016855,0.025608,0.009878,0.014866,0.050755,0.046517,0.014229,0.015077,0.019898,0.013397,0.018701,0.024990,0.028322,0.032672,0.012757,0.014390,0.012053,0.012374,0.019341,0.018069,0.018951,0.009826,0.017419,0.037294,0.054624,0.031547,0.030461,0.020311,0.037750,0.012951,0.019532,0.012556,0.016966,0.016173,0.021116,0.008893,0.010924,0.007444,0.012593,0.005438,0.005873,0.004574,0.004430,0.005747,0.014024,0.026863,0.030020,0.035551,0.036936,0.011121,0.046825,0.027423,0.013915,0.023357,0.017557,0.017821,0.021765,0.012986,0.018782,0.101904,0.052484,0.040476,0.029493,0.034071
1742197309.945949,1742197309.946215,20.000000,0.000000,4288.717773,4346.538574,4227.563965,4311.922852,4352.692383,4359.743652,4364.358887,4563.846191,4553.589844,4553.077148,4495.384766,5683.461426,4314.230957,4257.051270,0.000000,0.000000,11.000000,,,,0.000000,0.000000,0.000000,0.000000,0.000000,0.000000,0.000000,0.000000,0.000000,0.000000,0.000000,0.000000,0.000000,0.000000,0.000000,0.000000,,,,,,,,,,,,,,,,,5.000000,0.000000,0.738728,-0.119324,0.654968,0.105164,-1.002564,-0.044927,0.115248,24.244930,18.981661,44.902538,,,,,,,,,,,,,,,,,,,,,,,,,,,,,,,,,,,,,,,,,,,,,,,,,,,,,,,,,,,,,,,,,,,,,,,,,,,,,,,,,,,,,,,,,,,,,,,,,,,,,
1742197309.953758,1742197309.954023,21.000000,0.000000,4289.615234,4346.922852,4225.128418,4310.000000,4351.538574,4362.307617,4365.256348,4563.333496,4552.436035,4553.461426,4495.256348,5684.615234,4315.128418,4257.563965,0.000000,0.000000,11.000000,,,,0.000000,0.000000,0.000000,0.000000,0.000000,0.000000,0.000000,0.000000,0.000000,0.000000,0.000000,0.000000,0.000000,0.000000,0.000000,0.000000,,,,,,,,,,,,,,,,,,,,,,,,,,,,,,,,,,,,,,,,,,,,,,,,,,,,,,,,,,,,,,,,,,,,,,,,,,,,,,,,,,,,,,,,,,,,,,,,,,,,,,,,,,,,,,,,,,,,,,,,,,,,,,,,,
1742197309.961566,1742197309.961831,22.000000,0.000000,4289.230957,4340.769043,4225.384766,4309.487305,4351.282227,4361.025879,4367.820313,4565.769043,4549.358887,4553.205078,4496.025879,5682.692383,4313.846191,4259.487305,0.000000,0.000000,11.000000,,,,0.000000,0.000000,0.000000,0.000000,0.000000,0.000000,0.000000,0.000000,0.000000,0.000000,0.000000,0.000000,0.000000,0.000000,0.000000,0.000000,,,,,,,,,,,,,,,,,,,,,,,,,,,,,,,,,,,,,,,,,,,,,,,,,,,,,,,,,,,,,,,,,,,,,,,,,,,,,,,,,,,,,,,,,,,,,,,,,,,,,,,,,,,,,,,,,,,,,,,,,,,,,,,,,
1742197309.969374,1742197309.969539,23.000000,0.000000,4290.000000,4342.692383,4227.179688,4309.871582,4351.666504,4360.000000,4363.974121,4563.589844,4551.153809,4552.307617,4496.410156,5680.641113,4313.077148,4257.692383,0.000000,0.000000,11.000000,,,,0.000000,0.000000,0.000000,0.000000,0.000000,0.000000,0.000000,0.000000,0.000000,0.000000,0.000000,0.000000,0.000000,0.000000,0.000000,0.000000,,,,,,,,,,,,,,,,,,,,,,,,,,,,,,,,,,,,,,,,,,,,,,,,,,,,,,,,,,,,,,,,,,,,,,,,,,,,,,,,,,,,,,,,,,,,,,,,,,,,,,,,,,,,,,,,,,,,,,,,,,,,,,,,,
1742197309.977182,1742197309.977448,24.000000,0.000000,4289.230957,4346.922852,4227.307617,4309.487305,4351.410156,4361.282227,4362.307617,4561.410156,4553.589844,4553.846191,4498.461426,5679.871582,4313.205078,4255.000000,0.000000,0.000000,11.000000,,,,0.000000,0.000000,0.000000,0.000000,0.000000,0.000000,0.000000,0.000000,0.000000,0.000000,0.000000,0.000000,0.000000,0.000000,0.000000,0.000000,,,,,,,,,,,,,,,,,6.000000,0.000000,0.738727,-0.119385,0.654968,0.105103,-1.004029,-0.044927,0.128922,24.270437,19.050161,44.828953,,,,,,,,,,,,,,,,,,,,,,,,,,,,,,,,,,,,,,,,,,,,,,,,,,,,,,,,,,,,,,,,,,,,,,,,,,,,,,,,,,,,,,,,,,,,,,,,,,,,,
1742197309.984990,1742197309.985256,25.000000,0.000000,4287.051270,4344.743652,4226.538574,4309.102539,4350.384766,4360.512695,4364.743652,4563.589844,4552.179688,4553.974121,4499.230957,5680.769043,4315.000000,4255.384766,0.000000,0.000000,11.000000,,,,0.000000,0.000000,0.000000,0.000000,0.000000,0.000000,0.000000,0.000000,0.000000,0.000000,0.000000,0.000000,0.000000,0.000000,0.000000,0.000000,,,,,,,,,,,,,,,,,,,,,,,,,,,,,,,,,,,,,,,,,,,,,,,,,,,,,,,,,,,,,,,,,,,,,,,,,,,,,,,,,,,,,,,,,,,,,,,,,,,,,,,,,,,,,,,,,,,,,,,,,,,,,,,,,
1742197309.992798,1742197309.993164,26.000000,0.000000,4287.051270,4344.358887,4226.025879,4308.205078,4349.871582,4360.256348,4365.000000,4562.948730,4550.897461,4552.051270,4499.487305,5685.000000,4316.410156,4257.307617,0.000000,0.000000,11.000000,,,,0.000000,0.000000,0.000000,0.000000,0.000000,0.000000,0.000000,0.000000,0.000000,0.000000,0.000000,0.000000,0.000000,0.000000,0.000000,0.000000,,,,,,,,,,,,,,,,,,,,,,,,,,,,,,,,,,,,,,,,,,,,,,,,,,,,,,,,,,,,,,,,,,,,,,,,,,,,,,,,,,,,,,,,,,,,,,,,,,,,,,,,,,,,,,,,,,,,,,,,,,,,,,,,,
1742197310.000606,1742197310.001072,27.000000,0.000000,4290.256348,4346.025879,4226.025879,4310.128418,4350.512695,4361.922852,4364.358887,4560.384766,4553.333496,4553.333496,4499.743652,5686.538574,4314.102539,4258.205078,0.000000,0.000000,11.000000,,,,0.000000,0.000000,0.000000,0.000000,0.000000,0.000000,0.000000,0.000000,0.000000,0.000000,0.000000,0.000000,0.000000,0.000000,0.000000,0.000000,,,,,,,,,,,,,,,,,,,,,,,,,,,,,,,,,,,,,,,,,,,,,,,,,,,,,,,,,,,,,,,,,,,,,,,,,,,,,,,,,,,,,,,,,,,,,,,,,,,,,,,,,,,,,,,,,,,,,,,,,,,,,,,,,
1742197310.008414,1742197310.008880,28.000000,0.000000,4292.307617,4345.512695,4226.282227,4310.128418,4350.769043,4360.384766,4364.743652,4563.205078,4555.641113,4554.871582,4500.256348,5683.589844,4312.051270,4259.615234,0.000000,0.000000,11.000000,,,,0.000000,0.000000,0.000000,0.000000,0.000000,0.000000,0.000000,0.000000,0.000000,0.000000,0.000000,0.000000,0.000000,0.000000,0.000000,0.000000,,,,,,,,,,,,,,,,,7.000000,0.000000,0.738727,-0.119385,0.654968,0.105103,-0.979123,-0.037602,0.124039,24.293394,19.028479,44.762726,,,,,,,,,,,,,,,,,,,,,,,,,,,,,,,,,,,,,,,,,,,,,,,,,,,,,,,,,,,,,,,,,,,,,,,,,,,,,,,,,,,,,,,,,,,,,,,,,,,,,
1742197310.016222,1742197310.016688,29.000000,0.000000,4288.974121,4345.128418,4227.436035,4306.025879,4350.897461,4357.436035,4364.230957,4567.051270,4554.358887,4552.563965,4501.153809,5682.948730,4315.256348,4259.615234,0.000000,0.000000,11.000000,,,,0.000000,0.000000,0.000000,0.000000,0.000000,0.000000,0.000000,0.000000,0.000000,0.000000,0.000000,0.000000,0.000000,0.000000,0.000000,0.000000,,,,,,,,,,,,,,,,,,,,,,,,,,,,,,,,,,,,,,,,,,,,,,,,,,,,,,,,,,,,,,,,,,,,,,,,,,,,,,,,,,,,,,,,,,,,,,,,,,,,,,,,,,,,,,,,,,,,,,,,,,,,,,,,,
1742197310.024030,1742197310.024596,30.000000,0.000000,4286.794922,4343.717773,4226.025879,4307.051270,4350.897461,4358.974121,4364.487305,4564.230957,4553.461426,4551.538574,4499.358887,5683.077148,4316.410156,4257.692383,0.000000,0.000000,11.000000,,,,0.000000,0.000000,0.000000,0.000000,0.000000,0.000000,0.000000,0.000000,0.000000,0.000000,0.000000,0.000000,0.000000,0.000000,0.000000,0.000000,,,,,,,,,,,,,,,,,,,,,,,,,,,,,,,,,,,,,,,,,,,,,,,,,,,,,,,,,,,,,,,,,,,,,,,,,,,,,,,,,,,,,,,,,,,,,,,,,,,,,,,,,,,,,,,,,,,,,,,,,,,,,,,,,
1742197310.031839,1742197310.032404,31.000000,0.000000,4290.000000,4343.077148,4224.487305,4310.384766,4350.769043,4362.948730,4366.410156,4559.358887,4554.358887,4553.205078,4499.358887,5683.717773,4311.794922,4259.743652,0.000000,0.000000,11.000000,,,,0.000000,0.000000,0.000000,0.000000,0.000000,0.000000,0.000000,0.000000,0.000000,0.000000,0.000000,0.000000,0.000000,0.000000,0.000000,0.000000,,,,,,,,,,,,,,,,,,,,,,,,,,,,,,,,,,,,,,,,,,,,,,,,,,,,,,,,,,,,,,,,,,,,,,,,,,,,,,,,,,,,,,,,,,,,,,,,,,,,,,,,,,,,,,,,,,,,,,,,,,,,,,,,,
1742197310.039647,1742197310.040312,32.000000,0.000000,4291.025879,4344.230957,4225.256348,4309.743652,4350.769043,4363.333496,4366.282227,4560.769043,4552.820313,4553.589844,4501.153809,5686.153809,4310.512695,4261.922852,0.000000,0.000000,11.000000,,,,0.000000,0.000000,0.000000,0.000000,0.000000,0.000000,0.000000,0.000000,0.000000,0.000000,0.000000,0.000000,0.000000,0.000000,0.000000,0.000000,,,,,,,,,,,,,,,,,8.000000,0.000000,0.738727,-0.119385,0.654968,0.105103,-0.985472,-0.041021,0.109877,24.364054,19.008965,44.819786,,,,,,,,,,,,,,,,,,,,,,,,,,,,,,,,,,,,,,,,,,,,,,,,,,,,,,,,,,,,,,,,,,,,,,,,,,,,,,,,,,,,,,,,,,,,,,,,,,,,,
1742197310.047455,1742197310.048121,33.000000,0.000000,4287.051270,4344.871582,4225.641113,4307.436035,4352.307617,4361.538574,4365.897461,4562.179688,4551.282227,4553.589844,4498.333496,5685.384766,4314.487305,4259.743652,0.000000,0.000000,11.000000,,,,0.000000,0.000000,0.000000,0.000000,0.000000,0.000000,0.000000,0.000000,0.000000,0.000000,0.000000,0.000000,0.000000,0.000000,0.000000,0.000000,,,,,,,,,,,,,,,,,,,,,,,,,,,,,,,,,,,,,,,,,,,,,,,,,,,,,,,,,,,,,,,,,,,,,,,,,,,,,,,,,,,,,,,,,,,,,,,,,,,,,,,,,,,,,,,,,,,,,,,,,,,,,,,,,
1742197310.055263,1742197310.055829,34.000000,0.000000,4285.769043,4345.512695,4226.922852,4307.692383,4352.436035,4361.282227,4365.769043,4561.025879,4554.230957,4553.589844,4494.743652,5681.666504,4316.153809,4257.563965,0.000000,0.000000,11.000000,,,,0.000000,0.000000,0.000000,0.000000,0.000000,0.000000,0.000000,0.000000,0.000000,0.000000,0.000000,0.000000,0.000000,0.000000,0.000000,0.000000,,,,,,,,,,,,,,,,,,,,,,,,,,,,,,,,,,,,,,,,,,,,,,,,,,,,,,,,,,,,,,,,,,,,,,,,,,,,,,,,,,,,,,,,,,,,,,,,,,,,,,,,,,,,,,,,,,,,,,,,,,,,,,,,,
1742197310.063071,1742197310.063637,35.000000,0.000000,4288.974121,4346.666504,4227.436035,4307.820313,4351.025879,4361.282227,4363.717773,4561.025879,4554.358887,4553.846191,4498.589844,5681.538574,4314.615234,4258.974121,0.000000,0.000000,11.000000,,,,0.000000,0.000000,0.000000,0.000000,0.000000,0.000000,0.000000,0.000000,0.000000,0.000000,0.000000,0.000000,0.000000,0.000000,0.000000,0.000000,1.000000,0.000000,0.000000,0.000000,0.000000,0.000000,0.000000,0.000000,0.000000,0.000000,0.000000,0.000000,0.000000,0.000000,0.000000,0.000000,,,,,,,,,,,,,,,,,,,,,,,,,,,,,,,,,,,,,,,,,,,,0.012793,0.016867,0.014382,0.015627,0.030054,0.026086,0.016640,0.024267,0.010317,0.013931,0.044235,0.042926,0.013178,0.014708,0.020302,0.014973,0.020951,0.033281,0.031712,0.030004,0.014257,0.012824,0.013855,0.012373,0.016735,0.016765,0.016391,0.010001,0.019114,0.036739,0.055927,0.045874,0.031673,0.020529,0.036315,0.012783,0.019114,0.016512,0.018040,0.015403,0.021388,0.008941,0.013238,0.008093,0.011683,0.006119,0.005700,0.004149,0.004441,0.005843,0.013801,0.029932,0.032107,0.030859,0.034667,0.011035,0.037116,0.026732,0.013471,0.022027,0.015371,0.014048,0.018835,0.011170,0.016433,0.090334,0.050985,0.041724,0.036156,0.033890
1742197310.070879,1742197310.071345,36.000000,0.000000,4290.897461,4347.051270,4225.897461,4307.692383,4350.897461,4360.128418,4362.948730,4560.000000,4551.538574,4553.717773,4502.179688,5684.230957,4313.974121,4260.000000,0.000000,0.000000,11.000000,,,,0.000000,0.000000,0.000000,0.000000,0.000000,0.000000,0.000000,0.000000,0.000000,0.000000,0.000000,0.000000,0.000000,0.000000,0.000000,0.000000,,,,,,,,,,,,,,,,,9.000000,0.000000,0.738718,-0.119385,0.654968,0.105164,-0.990844,-0.037114,0.114272,24.444315,18.974733,45.054474,,,,,,,,,,,,,,,,,,,,,,,,,,,,,,,,,,,,,,,,,,,,,,,,,,,,,,,,,,,,,,,,,,,,,,,,,,,,,,,,,,,,,,,,,,,,,,,,,,,,,
1742197310.078687,1742197310.079153,37.000000,0.000000,4290.641113,4346.538574,4224.743652,4308.846191,4351.794922,4359.487305,4363.846191,4559.743652,4553.333496,4553.205078,4497.820313,5684.615234,4315.256348,4258.846191,0.000000,0.000000,11.000000,,,,0.000000,0.000000,0.000000,0.000000,0.000000,0.000000,0.000000,0.000000,0.000000,0.000000,0.000000,0.000000,0.000000,0.000000,0.000000,0.000000,,,,,,,,,,,,,,,,,,,,,,,,,,,,,,,,,,,,,,,,,,,,,,,,,,,,,,,,,,,,,,,,,,,,,,,,,,,,,,,,,,,,,,,,,,,,,,,,,,,,,,,,,,,,,,,,,,,,,,,,,,,,,,,,,
1742197310.086495,1742197310.086861,38.000000,0.000000,4288.461426,4345.128418,4225.897461,4310.256348,4352.179688,4359.487305,4362.179688,4562.051270,4555.641113,4553.846191,4494.743652,5683.077148,4315.000000,4259.230957,0.000000,0.000000,11.000000,,,,0.000000,0.000000,0.000000,0.000000,0.000000,0.000000,0.000000,0.000000,0.000000,0.000000,0.000000,0.000000,0.000000,0.000000,0.000000,0.000000,,,,,,,,,,,,,,,,,,,,,,,,,,,,,,,,,,,,,,,,,,,,,,,,,,,,,,,,,,,,,,,,,,,,,,,,,,,,,,,,,,,,,,,,,,,,,,,,,,,,,,,,,,,,,,,,,,,,,,,,,,,,,,,,,
1742197310.094303,1742197310.094669,39.000000,0.000000,4288.333496,4345.256348,4225.641113,4310.000000,4352.436035,4357.948730,4361.025879,4562.692383,4552.948730,4553.974121,4498.846191,5681.538574,4313.333496,4258.333496,0.000000,0.000000,11.000000,,,,0.000000,0.000000,0.000000,0.000000,0.000000,0.000000,0.000000,0.000000,0.000000,0.000000,0.000000,0.000000,0.000000,0.000000,0.000000,0.000000,,,,,,,,,,,,,,,,,,,,,,,,,,,,,,,,,,,,,,,,,,,,,,,,,,,,,,,,,,,,,,,,,,,,,,,,,,,,,,,,,,,,,,,,,,,,,,,,,,,,,,,,,,,,,,,,,,,,,,,,,,,,,,,,,
1742197310.102111,1742197310.102377,40.000000,0.000000,4290.256348,4346.538574,4224.871582,4307.948730,4352.051270,4356.666504,4364.358887,4561.025879,4550.512695,4553.333496,4501.922852,5682.692383,4312.692383,4254.487305,0.000000,0.000000,11.000000,,,,0.000000,0.000000,0.000000,0.000000,0.000000,0.000000,0.000000,0.000000,0.000000,0.000000,0.000000,0.000000,0.000000,0.000000,0.000000,0.000000,,,,,,,,,,,,,,,,,10.000000,0.000000,0.738709,-0.119385,0.654968,0.105225,-1.001099,-0.033207,0.123062,24.549885,19.010593,45.082359,,,,,,,,,,,,,,,,,,,,,,,,,,,,,,,,,,,,,,,,,,,,,,,,,,,,,,,,,,,,,,,,,,,,,,,,,,,,,,,,,,,,,,,,,,,,,,,,,,,,,
1742197310.109919,1742197310.110185,41.000000,0.000000,4289.102539,4345.128418,4227.051270,4309.230957,4351.153809,4357.179688,4366.153809,4560.641113,4553.077148,4553.717773,4499.743652,5681.922852,4312.948730,4256.282227,0.000000,0.000000,11.000000,,,,0.000000,0.000000,0.000000,0.000000,0.000000,0.000000,0.000000,0.000000,0.000000,0.000000,0.000000,0.000000,0.000000,0.000000,0.000000,0.000000,,,,,,,,,,,,,,,,,,,,,,,,,,,,,,,,,,,,,,,,,,,,,,,,,,,,,,,,,,,,,,,,,,,,,,,,,,,,,,,,,,,,,,,,,,,,,,,,,,,,,,,,,,,,,,,,,,,,,,,,,,,,,,,,,
1742197310.117727,1742197310.117893,42.000000,0.000000,4288.461426,4342.948730,4227.307617,4309.230957,4351.153809,4357.948730,4362.820313,4560.641113,4555.128418,4553.846191,4497.820313,5678.974121,4313.333496,4260.512695,0.000000,0.000000,11.000000,,,,0.000000,0.000000,0.000000,0.000000,0.000000,0.000000,0.000000,0.000000,0.000000,0.000000,0.000000,0.000000,0.000000,0.000000,0.000000,0.000000,,,,,,,,,,,,,,,,,,,,,,,,,,,,,,,,,,,,,,,,,,,,,,,,,,,,,,,,,,,,,,,,,,,,,,,,,,,,,,,,,,,,,,,,,,,,,,,,,,,,,,,,,,,,,,,,,,,,,,,,,,,,,,,,,
1742197310.125536,1742197310.125801,43.000000,0.000000,4291.153809,4344.230957,4225.384766,4306.410156,4351.922852,4359.358887,4360.769043,4560.769043,4551.794922,4553.333496,4499.871582,5681.410156,4312.948730,4259.358887,0.000000,0.000000,11.000000,,,,0.000000,0.000000,0.000000,0.000000,0.000000,0.000000,0.000000,0.000000,0.000000,0.000000,0.000000,0.000000,0.000000,0.000000,0.000000,0.000000,,,,,,,,,,,,,,,,,,,,,,,,,,,,,,,,,,,,,,,,,,,,,,,,,,,,,,,,,,,,,,,,,,,,,,,,,,,,,,,,,,,,,,,,,,,,,,,,,,,,,,,,,,,,,,,,,,,,,,,,,,,,,,,,,
1742197310.133344,1742197310.133609,44.000000,0.000000,4291.666504,4345.128418,4226.922852,4308.717773,4352.051270,4360.128418,4363.205078,4561.538574,4550.897461,4552.948730,4500.512695,5683.077148,4311.153809,4258.333496,0.000000,0.000000,11.000000,,,,0.000000,0.000000,0.000000,0.000000,0.000000,0.000000,0.000000,0.000000,0.000000,0.000000,0.000000,0.000000,0.000000,0.000000,0.000000,0.000000,,,,,,,,,,,,,,,,,11.000000,0.000000,0.738708,-0.119446,0.654968,0.105164,-0.996215,-0.032719,0.110853,24.578228,19.059534,45.174122,,,,,,,,,,,,,,,,,,,,,,,,,,,,,,,,,,,,,,,,,,,,,,,,,,,,,,,,,,,,,,,,,,,,,,,,,,,,,,,,,,,,,,,,,,,,,,,,,,,,,
1742197310.141152,1742197310.141517,45.000000,0.000000,4288.077148,4344.102539,4227.692383,4309.230957,4351.282227,4360.000000,4364.615234,4561.410156,4553.846191,4553.589844,4500.256348,5680.128418,4310.512695,4258.333496,0.000000,0.000000,11.000000,,,,0.000000,0.000000,0.000000,0.000000,0.000000,0.000000,0.000000,0.000000,0.000000,0.000000,0.000000,0.000000,0.000000,0.000000,0.000000,0.000000,,,,,,,,,,,,,,,,,,,,,,,,,,,,,,,,,,,,,,,,,,,,,,,,,,,,,,,,,,,,,,,,,,,,,,,,,,,,,,,,,,,,,,,,,,,,,,,,,,,,,,,,,,,,,,,,,,,,,,,,,,,,,,,,,
1742197310.148960,1742197310.149325,46.000000,0.000000,4288.077148,4344.487305,4225.384766,4307.948730,4350.128418,4359.871582,4364.487305,4560.000000,4554.102539,4554.358887,4499.230957,5680.000000,4312.692383,4257.563965,0.000000,0.000000,11.000000,,,,0.000000,0.000000,0.000000,0.000000,0.000000,0.000000,0.000000,0.000000,0.000000,0.000000,0.000000,0.000000,0.000000,0.000000,0.000000,0.000000,,,,,,,,,,,,,,,,,,,,,,,,,,,,,,,,,,,,,,,,,,,,,,,,,,,,,,,,,,,,,,,,,,,,,,,,,,,,,,,,,,,,,,,,,,,,,,,,,,,,,,,,,,,,,,,,,,,,,,,,,,,,,,,,,
1742197310.156768,1742197310.157234,47.000000,0.000000,4289.871582,4346.153809,4226.666504,4311.666504,4350.384766,4359.615234,4367.179688,4560.769043,4553.333496,4554.487305,4496.794922,5684.102539,4315.000000,4258.846191,0.000000,0.000000,11.000000,,,,0.000000,0.000000,0.000000,0.000000,0.000000,0.000000,0.000000,0.000000,0.000000,0.000000,0.000000,0.000000,0.000000,0.000000,0.000000,0.000000,,,,,,,,,,,,,,,,,,,,,,,,,,,,,,,,,,,,,,,,,,,,,,,,,,,,,,,,,,,,,,,,,,,,,,,,,,,,,,,,,,,,,,,,,,,,,,,,,,,,,,,,,,,,,,,,,,,,,,,,,,,,,,,,,
1742197310.164576,1742197310.165042,48.000000,0.000000,4289.230957,4345.384766,4229.102539,4312.820313,4351.410156,4358.974121,4368.077148,4561.794922,4554.358887,4553.974121,4497.436035,5686.025879,4313.846191,4260.641113,0.000000,0.000000,11.000000,,,,0.000000,0.000000,0.000000,0.000000,0.000000,0.000000,0.000000,0.000000,0.000000,0.000000,0.000000,0.000000,0.000000,0.000000,0.000000,0.000000,,,,,,,,,,,,,,,,,12.000000,0.000000,0.738708,-0.119446,0.654968,0.105164,-0.999634,-0.032230,0.123550,24.620405,19.086914,45.106712,,,,,,,,,,,,,,,,,,,,,,,,,,,,,,,,,,,,,,,,,,,,,,,,,,,,,,,,,,,,,,,,,,,,,,,,,,,,,,,,,,,,,,,,,,,,,,,,,,,,,
1742197310.172384,1742197310.172950,49.000000,0.000000,4287.820313,4344.230957,4226.922852,4308.974121,4351.538574,4359.102539,4363.333496,4560.384766,4552.692383,4554.102539,4498.974121,5684.615234,4313.205078,4258.846191,0.000000,0.000000,11.000000,,,,0.000000,0.000000,0.000000,0.000000,0.000000,0.000000,0.000000,0.000000,0.000000,0.000000,0.000000,0.000000,0.000000,0.000000,0.000000,0.000000,,,,,,,,,,,,,,,,,,,,,,,,,,,,,,,,,,,,,,,,,,,,,,,,,,,,,,,,,,,,,,,,,,,,,,,,,,,,,,,,,,,,,,,,,,,,,,,,,,,,,,,,,,,,,,,,,,,,,,,,,,,,,,,,,
1742197310.180192,1742197310.180758,50.000000,0.000000,4287.563965,4344.871582,4224.487305,4307.051270,4351.410156,4359.102539,4361.153809,4560.384766,4550.128418,4553.717773,4499.487305,5682.948730,4314.102539,4259.358887,0.000000,0.000000,11.000000,,,,0.000000,0.000000,0.000000,0.000000,0.000000,0.000000,0.000000,0.000000,0.000000,0.000000,0.000000,0.000000,0.000000,0.000000,0.000000,0.000000,,,,,,,,,,,,,,,,,,,,,,,,,,,,,,,,,,,,,,,,,,,,,,,,,,,,,,,,,,,,,,,,,,,,,,,,,,,,,,,,,,,,,,,,,,,,,,,,,,,,,,,,,,,,,,,,,,,,,,,,,,,,,,,,,
1742197310.188000,1742197310.188666,51.000000,0.000000,4289.743652,4345.128418,4224.487305,4308.461426,4351.666504,4359.743652,4366.153809,4561.922852,4550.641113,4552.820313,4500.641113,5683.077148,4312.820313,4259.487305,0.000000,0.000000,11.000000,,,,0.000000,0.000000,0.000000,0.000000,0.000000,0.000000,0.000000,0.000000,0.000000,0.000000,0.000000,0.000000,0.000000,0.000000,0.000000,0.000000,,,,,,,,,,,,,,,,,,,,,,,,,,,,,,,,,,,,,,,,,,,,,,,,,,,,,,,,,,,,0.012316,0.020218,0.014213,0.014073,0.029392,0.030532,0.016392,0.020968,0.010153,0.013282,0.036144,0.040432,0.012942,0.013919,0.020896,0.016041,0.022714,0.043411,0.033939,0.027693,0.015319,0.010797,0.014116,0.012269,0.014685,0.015265,0.015012,0.010220,0.020296,0.034606,0.056280,0.064698,0.034867,0.023296,0.035228,0.013221,0.019731,0.021144,0.018386,0.014736,0.020147,0.009018,0.015995,0.009015,0.011463,0.006663,0.005257,0.003964,0.004263,0.005879,0.014914,0.033658,0.032888,0.028719,0.033651,0.011051,0.027196,0.025177,0.013229,0.021494,0.013852,0.010338,0.015321,0.010948,0.014397,0.081133,0.053366,0.040021,0.043029,0.032918
1742197310.195808,1742197310.196474,52.000000,0.000000,4292.820313,4343.717773,4225.128418,4308.974121,4352.179688,4361.410156,4369.230957,4561.538574,4551.410156,4553.974121,4498.589844,5683.589844,4312.179688,4256.282227,0.000000,0.000000,11.000000,,,,0.000000,0.000000,0.000000,0.000000,0.000000,0.000000,0.000000,0.000000,0.000000,0.000000,0.000000,0.000000,0.000000,0.000000,0.000000,0.000000,,,,,,,,,,,,,,,,,13.000000,0.000000,0.738709,-0.119385,0.654968,0.105225,-0.991820,-0.030277,0.121597,24.725033,19.044889,45.112705,,,,,,,,,,,,,,,,,,,,,,,,,,,,,,,,,,,,,,,,,,,,,,,,,,,,,,,,,,,,,,,,,,,,,,,,,,,,,,,,,,,,,,,,,,,,,,,,,,,,,
1742197310.203616,1742197310.204382,53.000000,0.000000,4292.692383,4343.589844,4226.538574,4308.461426,4352.692383,4361.410156,4364.615234,4560.512695,4552.051270,4554.615234,4497.051270,5681.794922,4313.717773,4258.077148,0.000000,0.000000,11.000000,,,,0.000000,0.000000,0.000000,0.000000,0.000000,0.000000,0.000000,0.000000,0.000000,0.000000,0.000000,0.000000,0.000000,0.000000,0.000000,0.000000,,,,,,,,,,,,,,,,,,,,,,,,,,,,,,,,,,,,,,,,,,,,,,,,,,,,,,,,,,,,,,,,,,,,,,,,,,,,,,,,,,,,,,,,,,,,,,,,,,,,,,,,,,,,,,,,,,,,,,,,,,,,,,,,,
1742197310.211424,1742197310.212191,54.000000,0.000000,4288.589844,4346.025879,4226.922852,4309.487305,4351.410156,4360.512695,4362.051270,4561.794922,4553.077148,4553.333496,4498.974121,5683.077148,4312.692383,4259.615234,0.000000,0.000000,11.000000,,,,0.000000,0.000000,0.000000,0.000000,0.000000,0.000000,0.000000,0.000000,0.000000,0.000000,0.000000,0.000000,0.000000,0.000000,0.000000,0.000000,,,,,,,,,,,,,,,,,,,,,,,,,,,,,,,,,,,,,,,,,,,,,,,,,,,,,,,,,,,,,,,,,,,,,,,,,,,,,,,,,,,,,,,,,,,,,,,,,,,,,,,,,,,,,,,,,,,,,,,,,,,,,,,,,
1742197310.219232,1742197310.219899,55.000000,0.000000,4287.307617,4346.666504,4225.000000,4310.769043,4349.358887,4361.282227,4365.641113,4563.333496,4553.461426,4552.436035,4500.256348,5685.641113,4310.128418,4255.897461,0.000000,0.000000,11.000000,,,,0.000000,0.000000,0.000000,0.000000,0.000000,0.000000,0.000000,0.000000,0.000000,0.000000,0.000000,0.000000,0.000000,0.000000,0.000000,0.000000,,,,,,,,,,,,,,,,,,,,,,,,,,,,,,,,,,,,,,,,,,,,,,,,,,,,,,,,,,,,,,,,,,,,,,,,,,,,,,,,,,,,,,,,,,,,,,,,,,,,,,,,,,,,,,,,,,,,,,,,,,,,,,,,,
1742197310.227041,1742197310.227707,56.000000,0.000000,4289.615234,4345.256348,4225.128418,4308.846191,4350.128418,4360.897461,4366.282227,4561.794922,4552.436035,4552.692383,4500.128418,5683.333496,4312.692383,4257.948730,0.000000,0.000000,11.000000,,,,0.000000,0.000000,0.000000,0.000000,0.000000,0.000000,0.000000,0.000000,0.000000,0.000000,0.000000,0.000000,0.000000,0.000000,0.000000,0.000000,,,,,,,,,,,,,,,,,14.000000,0.000000,0.738709,-0.119385,0.654968,0.105225,-0.985960,-0.039556,0.116713,24.635862,19.090401,45.034771,,,,,,,,,,,,,,,,,,,,,,,,,,,,,,,,,,,,,,,,,,,,,,,,,,,,,,,,,,,,,,,,,,,,,,,,,,,,,,,,,,,,,,,,,,,,,,,,,,,,,
1742197310.234849,1742197310.235415,57.000000,0.000000,4290.128418,4344.743652,4227.563965,4305.512695,4352.820313,4359.230957,4364.871582,4559.487305,4550.897461,4552.948730,4499.487305,5681.922852,4314.615234,4264.230957,0.000000,0.000000,11.000000,,,,0.000000,0.000000,0.000000,0.000000,0.000000,0.000000,0.000000,0.000000,0.000000,0.000000,0.000000,0.000000,0.000000,0.000000,0.000000,0.000000,,,,,,,,,,,,,,,,,,,,,,,,,,,,,,,,,,,,,,,,,,,,,,,,,,,,,,,,,,,,,,,,,,,,,,,,,,,,,,,,,,,,,,,,,,,,,,,,,,,,,,,,,,,,,,,,,,,,,,,,,,,,,,,,,
1742197310.242657,1742197310.243223,58.000000,0.000000,4290.000000,4345.384766,4227.820313,4307.948730,4352.692383,4359.871582,4366.282227,4560.128418,4552.307617,4552.436035,4498.717773,5683.589844,4313.077148,4262.436035,0.000000,0.000000,11.000000,,,,0.000000,0.000000,0.000000,0.000000,0.000000,0.000000,0.000000,0.000000,0.000000,0.000000,0.000000,0.000000,0.000000,0.000000,0.000000,0.000000,,,,,,,,,,,,,,,,,,,,,,,,,,,,,,,,,,,,,,,,,,,,,,,,,,,,,,,,,,,,,,,,,,,,,,,,,,,,,,,,,,,,,,,,,,,,,,,,,,,,,,,,,,,,,,,,,,,,,,,,,,,,,,,,,
1742197310.250465,1742197310.250931,59.000000,0.000000,4291.153809,4346.153809,4226.153809,4310.512695,4351.025879,4361.282227,4366.922852,4561.538574,4553.717773,4552.436035,4498.717773,5684.743652,4312.436035,4259.230957,0.000000,0.000000,11.000000,,,,0.000000,0.000000,0.000000,0.000000,0.000000,0.000000,0.000000,0.000000,0.000000,0.000000,0.000000,0.000000,0.000000,0.000000,0.000000,0.000000,,,,,,,,,,,,,,,,,,,,,,,,,,,,,,,,,,,,,,,,,,,,,,,,,,,,,,,,,,,,,,,,,,,,,,,,,,,,,,,,,,,,,,,,,,,,,,,,,,,,,,,,,,,,,,,,,,,,,,,,,,,,,,,,,
1742197310.258273,1742197310.258739,60.000000,0.000000,4292.179688,4347.051270,4225.641113,4308.717773,4350.897461,4359.230957,4366.666504,4560.769043,4552.820313,4552.436035,4497.820313,5684.871582,4311.538574,4257.436035,0.000000,0.000000,11.000000,,,,0.000000,0.000000,0.000000,0.000000,0.000000,0.000000,0.000000,0.000000,0.000000,0.000000,0.000000,0.000000,0.000000,0.000000,0.000000,0.000000,,,,,,,,,,,,,,,,,15.000000,0.000000,0.738709,-0.119385,0.654968,0.105225,-0.987425,-0.035649,0.106947,24.522276,19.098028,44.914627,,,,,,,,,,,,,,,,,,,,,,,,,,,,,,,,,,,,,,,,,,,,,,,,,,,,,,,,,,,,,,,,,,,,,,,,,,,,,,,,,,,,,,,,,,,,,,,,,,,,,
1742197310.266081,1742197310.266447,61.000000,0.000000,4291.025879,4346.794922,4226.153809,4309.102539,4351.666504,4359.358887,4366.282227,4561.410156,4551.794922,4553.461426,4496.282227,5685.000000,4311.153809,4255.641113,0.000000,0.000000,11.000000,,,,0.000000,0.000000,0.000000,0.000000,0.000000,0.000000,0.000000,0.000000,0.000000,0.000000,0.000000,0.000000,0.000000,0.000000,0.000000,0.000000,,,,,,,,,,,,,,,,,,,,,,,,,,,,,,,,,,,,,,,,,,,,,,,,,,,,,,,,,,,,,,,,,,,,,,,,,,,,,,,,,,,,,,,,,,,,,,,,,,,,,,,,,,,,,,,,,,,,,,,,,,,,,,,,,
1742197310.273889,1742197310.274255,62.000000,0.000000,4288.846191,4344.358887,4225.128418,4308.974121,4352.051270,4362.307617,4365.641113,4561.538574,4551.922852,4554.615234,4498.077148,5683.077148,4312.948730,4258.077148,0.000000,0.000000,11.000000,,,,0.000000,0.000000,0.000000,0.000000,0.000000,0.000000,0.000000,0.000000,0.000000,0.000000,0.000000,0.000000,0.000000,0.000000,0.000000,0.000000,,,,,,,,,,,,,,,,,,,,,,,,,,,,,,,,,,,,,,,,,,,,,,,,,,,,,,,,,,,,,,,,,,,,,,,,,,,,,,,,,,,,,,,,,,,,,,,,,,,,,,,,,,,,,,,,,,,,,,,,,,,,,,,,,
1742197310.281697,1742197310.281963,63.000000,0.000000,4287.563965,4343.717773,4224.358887,4306.025879,4351.153809,4360.256348,4366.538574,4561.025879,4551.922852,4553.846191,4496.538574,5682.820313,4312.436035,4258.974121,0.000000,0.000000,11.000000,,,,0.000000,0.000000,0.000000,0.000000,0.000000,0.000000,0.000000,0.000000,0.000000,0.000000,0.000000,0.000000,0.000000,0.000000,0.000000,0.000000,,,,,,,,,,,,,,,,,,,,,,,,,,,,,,,,,,,,,,,,,,,,,,,,,,,,,,,,,,,,,,,,,,,,,,,,,,,,,,,,,,,,,,,,,,,,,,,,,,,,,,,,,,,,,,,,,,,,,,,,,,,,,,,,,
1742197310.289505,1742197310.289771,64.000000,0.000000,4288.333496,4345.256348,4224.871582,4306.538574,4349.871582,4356.922852,4365.000000,4562.563965,4551.794922,4552.563965,4494.871582,5685.128418,4309.871582,4256.153809,0.000000,0.000000,11.000000,,,,0.000000,0.000000,0.000000,0.000000,0.000000,0.000000,0.000000,0.000000,0.000000,0.000000,0.000000,0.000000,0.000000,0.000000,0.000000,0.000000,,,,,,,,,,,,,,,,,16.000000,0.000000,0.738645,-0.119446,0.655029,0.105225,-0.997192,-0.043951,0.108412,24.486715,18.954891,44.923164,,,,,,,,,,,,,,,,,,,,,,,,,,,,,,,,,,,,,,,,,,,,,,,,,,,,,,,,,,,,,,,,,,,,,,,,,,,,,,,,,,,,,,,,,,,,,,,,,,,,,
1742197310.297313,1742197310.297479,65.000000,0.000000,4290.128418,4346.282227,4225.641113,4310.384766,4350.512695,4358.846191,4361.794922,4563.205078,4551.025879,4552.692383,4500.384766,5683.846191,4310.897461,4259.230957,0.000000,0.000000,11.000000,,,,0.000000,0.000000,0.000000,0.000000,0.000000,0.000000,0.000000,0.000000,0.000000,0.000000,0.000000,0.000000,0.000000,0.000000,0.000000,0.000000,,,,,,,,,,,,,,,,,,,,,,,,,,,,,,,,,,,,,,,,,,,,,,,,,,,,,,,,,,,,,,,,,,,,,,,,,,,,,,,,,,,,,,,,,,,,,,,,,,,,,,,,,,,,,,,,,,,,,,,,,,,,,,,,,
1742197310.305122,1742197310.305387,66.000000,0.000000,4290.256348,4345.512695,4226.666504,4309.743652,4352.179688,4363.461426,4363.333496,4560.256348,4551.538574,4553.846191,4503.077148,5680.128418,4312.948730,4263.077148,0.000000,0.000000,11.000000,,,,0.000000,0.000000,0.000000,0.000000,0.000000,0.000000,0.000000,0.000000,0.000000,0.000000,0.000000,0.000000,0.000000,0.000000,0.000000,0.000000,,,,,,,,,,,,,,,,,,,,,,,,,,,,,,,,,,,,,,,,,,,,,,,,,,,,,,,,,,,,,,,,,,,,,,,,,,,,,,,,,,,,,,,,,,,,,,,,,,,,,,,,,,,,,,,,,,,,,,,,,,,,,,,,,
1742197310.312930,1742197310.313195,67.000000,0.000000,4287.692383,4344.871582,4227.179688,4307.179688,4351.794922,4364.358887,4366.538574,4558.846191,4554.102539,4553.461426,4498.717773,5681.282227,4314.487305,4258.461426,0.000000,0.000000,11.000000,,,,0.000000,0.000000,0.000000,0.000000,0.000000,0.000000,0.000000,0.000000,0.000000,0.000000,0.000000,0.000000,0.000000,0.000000,0.000000,0.000000,,,,,,,,,,,,,,,,,,,,,,,,,,,,,,,,,,,,,,,,,,,,,,,,,,,,,,,,,,,,0.011942,0.022438,0.015349,0.012928,0.028320,0.032760,0.016513,0.016985,0.009561,0.013468,0.028165,0.039557,0.013303,0.012706,0.021358,0.016295,0.024218,0.053385,0.035009,0.026403,0.015581,0.008547,0.012691,0.011939,0.013277,0.014288,0.015324,0.010928,0.021050,0.031289,0.055051,0.085591,0.038642,0.027721,0.035672,0.014501,0.020487,0.025561,0.017890,0.014430,0.017766,0.008807,0.018677,0.010145,0.011791,0.006896,0.004651,0.003853,0.003870,0.005733,0.017839,0.038931,0.032373,0.029157,0.034378,0.011429,0.019609,0.022750,0.013183,0.022072,0.013665,0.007533,0.012297,0.012250,0.012870,0.076964,0.058600,0.035958,0.048376,0.031614
1742197310.320738,1742197310.321103,68.000000,0.000000,4286.153809,4345.641113,4226.922852,4309.102539,4350.512695,4361.410156,4366.794922,4560.897461,4554.487305,4552.179688,4496.282227,5684.230957,4315.256348,4254.871582,0.000000,0.000000,11.000000,,,,0.000000,0.000000,0.000000,0.000000,0.000000,0.000000,0.000000,0.000000,0.000000,0.000000,0.000000,0.000000,0.000000,0.000000,0.000000,0.000000,,,,,,,,,,,,,,,,,17.000000,0.000000,0.738663,-0.119446,0.655029,0.105103,-0.987425,-0.036626,0.128434,24.454710,18.942736,44.797512,,,,,,,,,,,,,,,,,,,,,,,,,,,,,,,,,,,,,,,,,,,,,,,,,,,,,,,,,,,,,,,,,,,,,,,,,,,,,,,,,,,,,,,,,,,,,,,,,,,,,
1742197310.328546,1742197310.328912,69.000000,0.000000,4287.948730,4345.512695,4227.692383,4311.794922,4351.153809,4359.230957,4365.512695,4561.794922,4553.461426,4552.179688,4498.205078,5682.051270,4312.820313,4257.051270,0.000000,0.000000,11.000000,,,,0.000000,0.000000,0.000000,0.000000,0.000000,0.000000,0.000000,0.000000,0.000000,0.000000,0.000000,0.000000,0.000000,0.000000,0.000000,0.000000,,,,,,,,,,,,,,,,,,,,,,,,,,,,,,,,,,,,,,,,,,,,,,,,,,,,,,,,,,,,,,,,,,,,,,,,,,,,,,,,,,,,,,,,,,,,,,,,,,,,,,,,,,,,,,,,,,,,,,,,,,,,,,,,,
1742197310.336354,1742197310.336820,70.000000,0.000000,4289.102539,4344.871582,4228.077148,4311.153809,4352.692383,4359.358887,4366.410156,4560.897461,4553.205078,4552.563965,4500.128418,5681.666504,4312.820313,4257.307617,0.000000,0.000000,11.000000,,,,0.000000,0.000000,0.000000,0.000000,0.000000,0.000000,0.000000,0.000000,0.000000,0.000000,0.000000,0.000000,0.000000,0.000000,0.000000,0.000000,,,,,,,,,,,,,,,,,,,,,,,,,,,,,,,,,,,,,,,,,,,,,,,,,,,,,,,,,,,,,,,,,,,,,,,,,,,,,,,,,,,,,,,,,,,,,,,,,,,,,,,,,,,,,,,,,,,,,,,,,,,,,,,,,
1742197310.344162,1742197310.344628,71.000000,0.000000,4286.794922,4345.512695,4225.384766,4308.077148,4353.205078,4360.000000,4369.102539,4560.512695,4551.410156,4552.307617,4500.384766,5683.717773,4315.769043,4255.256348,0.000000,0.000000,11.000000,,,,0.000000,0.000000,0.000000,0.000000,0.000000,0.000000,0.000000,0.000000,0.000000,0.000000,0.000000,0.000000,0.000000,0.000000,0.000000,0.000000,,,,,,,,,,,,,,,,,,,,,,,,,,,,,,,,,,,,,,,,,,,,,,,,,,,,,,,,,,,,,,,,,,,,,,,,,,,,,,,,,,,,,,,,,,,,,,,,,,,,,,,,,,,,,,,,,,,,,,,,,,,,,,,,,
1742197310.351970,1742197310.352536,72.000000,0.000000,4285.128418,4346.153809,4225.256348,4306.153809,4352.051270,4361.410156,4369.615234,4561.666504,4549.487305,4552.307617,4500.512695,5682.179688,4315.128418,4256.538574,0.000000,0.000000,11.000000,,,,0.000000,0.000000,0.000000,0.000000,0.000000,0.000000,0.000000,0.000000,0.000000,0.000000,0.000000,0.000000,0.000000,0.000000,0.000000,0.000000,,,,,,,,,,,,,,,,,18.000000,0.000000,0.738718,-0.119385,0.654968,0.105164,-0.999634,-0.035161,0.114272,24.592573,19.015129,44.684429,,,,,,,,,,,,,,,,,,,,,,,,,,,,,,,,,,,,,,,,,,,,,,,,,,,,,,,,,,,,,,,,,,,,,,,,,,,,,,,,,,,,,,,,,,,,,,,,,,,,,
1742197310.359778,1742197310.360344,73.000000,0.000000,4286.922852,4347.179688,4228.589844,4308.333496,4350.641113,4361.282227,4367.692383,4562.436035,4551.282227,4553.077148,4500.128418,5682.051270,4313.077148,4260.897461,0.000000,0.000000,11.000000,,,,0.000000,0.000000,0.000000,0.000000,0.000000,0.000000,0.000000,0.000000,0.000000,0.000000,0.000000,0.000000,0.000000,0.000000,0.000000,0.000000,,,,,,,,,,,,,,,,,,,,,,,,,,,,,,,,,,,,,,,,,,,,,,,,,,,,,,,,,,,,,,,,,,,,,,,,,,,,,,,,,,,,,,,,,,,,,,,,,,,,,,,,,,,,,,,,,,,,,,,,,,,,,,,,,
1742197310.367586,1742197310.368252,74.000000,0.000000,4289.102539,4345.897461,4226.794922,4309.871582,4350.897461,4358.974121,4366.410156,4561.666504,4553.717773,4553.461426,4499.230957,5683.333496,4313.717773,4259.871582,0.000000,0.000000,11.000000,,,,0.000000,0.000000,0.000000,0.000000,0.000000,0.000000,0.000000,0.000000,0.000000,0.000000,0.000000,0.000000,0.000000,0.000000,0.000000,0.000000,,,,,,,,,,,,,,,,,,,,,,,,,,,,,,,,,,,,,,,,,,,,,,,,,,,,,,,,,,,,,,,,,,,,,,,,,,,,,,,,,,,,,,,,,,,,,,,,,,,,,,,,,,,,,,,,,,,,,,,,,,,,,,,,,
1742197310.375394,1742197310.376061,75.000000,0.000000,4290.384766,4341.410156,4224.358887,4307.948730,4350.641113,4360.128418,4363.589844,4561.410156,4553.589844,4553.205078,4497.692383,5681.666504,4313.461426,4255.769043,0.000000,0.000000,11.000000,,,,0.000000,0.000000,0.000000,0.000000,0.000000,0.000000,0.000000,0.000000,0.000000,0.000000,0.000000,0.000000,0.000000,0.000000,0.000000,0.000000,,,,,,,,,,,,,,,,,,,,,,,,,,,,,,,,,,,,,,,,,,,,,,,,,,,,,,,,,,,,,,,,,,,,,,,,,,,,,,,,,,,,,,,,,,,,,,,,,,,,,,,,,,,,,,,,,,,,,,,,,,,,,,,,,
1742197310.383202,1742197310.383969,76.000000,0.000000,4289.743652,4343.589844,4225.897461,4308.333496,4349.743652,4361.282227,4362.051270,4560.512695,4555.000000,4553.717773,4498.589844,5680.000000,4312.948730,4256.538574,0.000000,0.000000,11.000000,,,,0.000000,0.000000,0.000000,0.000000,0.000000,0.000000,0.000000,0.000000,0.000000,0.000000,0.000000,0.000000,0.000000,0.000000,0.000000,0.000000,,,,,,,,,,,,,,,,,19.000000,0.000000,0.738708,-0.119446,0.654968,0.105164,-1.004029,-0.038091,0.118667,24.699982,19.030283,44.682652,,,,,,,,,,,,,,,,,,,,,,,,,,,,,,,,,,,,,,,,,,,,,,,,,,,,,,,,,,,,,,,,,,,,,,,,,,,,,,,,,,,,,,,,,,,,,,,,,,,,,
1742197310.391010,1742197310.391777,77.000000,0.000000,4287.051270,4348.077148,4227.436035,4311.153809,4351.025879,4358.333496,4368.077148,4562.436035,4554.358887,4554.102539,4500.512695,5681.153809,4311.666504,4261.794922,0.000000,0.000000,11.000000,,,,0.000000,0.000000,0.000000,0.000000,0.000000,0.000000,0.000000,0.000000,0.000000,0.000000,0.000000,0.000000,0.000000,0.000000,0.000000,0.000000,,,,,,,,,,,,,,,,,,,,,,,,,,,,,,,,,,,,,,,,,,,,,,,,,,,,,,,,,,,,,,,,,,,,,,,,,,,,,,,,,,,,,,,,,,,,,,,,,,,,,,,,,,,,,,,,,,,,,,,,,,,,,,,,,
1742197310.398819,1742197310.399685,78.000000,0.000000,4286.666504,4345.384766,4226.922852,4311.666504,4352.436035,4357.820313,4370.769043,4565.384766,4550.769043,4553.717773,4501.025879,5683.461426,4311.025879,4263.205078,0.000000,0.000000,11.000000,,,,0.000000,0.000000,0.000000,0.000000,0.000000,0.000000,0.000000,0.000000,0.000000,0.000000,0.000000,0.000000,0.000000,0.000000,0.000000,0.000000,,,,,,,,,,,,,,,,,,,,,,,,,,,,,,,,,,,,,,,,,,,,,,,,,,,,,,,,,,,,,,,,,,,,,,,,,,,,,,,,,,,,,,,,,,,,,,,,,,,,,,,,,,,,,,,,,,,,,,,,,,,,,,,,,
1742197310.406627,1742197310.407493,79.000000,0.000000,4288.461426,4344.230957,4225.897461,4307.692383,4350.769043,4359.615234,4365.769043,4562.948730,4551.025879,4552.692383,4500.128418,5683.846191,4313.333496,4257.820313,0.000000,0.000000,11.000000,,,,0.000000,0.000000,0.000000,0.000000,0.000000,0.000000,0.000000,0.000000,0.000000,0.000000,0.000000,0.000000,0.000000,0.000000,0.000000,0.000000,,,,,,,,,,,,,,,,,,,,,,,,,,,,,,,,,,,,,,,,,,,,,,,,,,,,,,,,,,,,,,,,,,,,,,,,,,,,,,,,,,,,,,,,,,,,,,,,,,,,,,,,,,,,,,,,,,,,,,,,,,,,,,,,,
1742197310.414435,1742197310.415301,80.000000,0.000000,4289.871582,4347.436035,4226.153809,4306.538574,4349.102539,4360.128418,4362.820313,4559.102539,4553.461426,4553.589844,4497.948730,5680.641113,4313.205078,4255.769043,0.000000,0.000000,11.000000,,,,0.000000,0.000000,0.000000,0.000000,0.000000,0.000000,0.000000,0.000000,0.000000,0.000000,0.000000,0.000000,0.000000,0.000000,0.000000,0.000000,,,,,,,,,,,,,,,,,20.000000,0.000000,0.738717,-0.119446,0.654968,0.105103,-0.987425,-0.038091,0.109877,24.863317,19.093922,44.747719,,,,,,,,,,,,,,,,,,,,,,,,,,,,,,,,,,,,,,,,,,,,,,,,,,,,,,,,,,,,,,,,,,,,,,,,,,,,,,,,,,,,,,,,,,,,,,,,,,,,,
1742197310.422243,1742197310.423110,81.000000,0.000000,4290.769043,4346.922852,4227.179688,4310.256348,4350.512695,4359.871582,4365.512695,4559.358887,4551.410156,4554.615234,4497.179688,5679.487305,4311.410156,4260.641113,0.000000,0.000000,11.000000,,,,0.000000,0.000000,0.000000,0.000000,0.000000,0.000000,0.000000,0.000000,0.000000,0.000000,0.000000,0.000000,0.000000,0.000000,0.000000,0.000000,,,,,,,,,,,,,,,,,,,,,,,,,,,,,,,,,,,,,,,,,,,,,,,,,,,,,,,,,,,,,,,,,,,,,,,,,,,,,,,,,,,,,,,,,,,,,,,,,,,,,,,,,,,,,,,,,,,,,,,,,,,,,,,,,
1742197310.430051,1742197310.430818,82.000000,0.000000,4291.538574,4345.384766,4228.461426,4308.974121,4352.051270,4360.128418,4371.410156,4563.461426,4551.025879,4553.846191,4498.846191,5684.358887,4311.794922,4257.692383,0.000000,0.000000,11.000000,,,,0.000000,0.000000,0.000000,0.000000,0.000000,0.000000,0.000000,0.000000,0.000000,0.000000,0.000000,0.000000,0.000000,0.000000,0.000000,0.000000,,,,,,,,,,,,,,,,,,,,,,,,,,,,,,,,,,,,,,,,,,,,,,,,,,,,,,,,,,,,,,,,,,,,,,,,,,,,,,,,,,,,,,,,,,,,,,,,,,,,,,,,,,,,,,,,,,,,,,,,,,,,,,,,,
1742197310.437859,1742197310.438726,83.000000,0.000000,4289.230957,4347.179688,4228.589844,4306.025879,4351.025879,4360.128418,4370.641113,4565.897461,4554.102539,4553.333496,4499.487305,5685.384766,4312.307617,4251.666504,0.000000,0.000000,11.000000,,,,0.000000,0.000000,0.000000,0.000000,0.000000,0.000000,0.000000,0.000000,0.000000,0.000000,0.000000,0.000000,0.000000,0.000000,0.000000,0.000000,,,,,,,,,,,,,,,,,,,,,,,,,,,,,,,,,,,,,,,,,,,,,,,,,,,,,,,,,,,,0.011461,0.022768,0.017409,0.012793,0.027180,0.032387,0.017427,0.013474,0.008885,0.014819,0.021956,0.039492,0.013729,0.011271,0.021428,0.015657,0.025730,0.060873,0.035387,0.026275,0.014926,0.006515,0.010068,0.011259,0.012256,0.014812,0.017546,0.012768,0.021404,0.027348,0.051966,0.104110,0.041198,0.032257,0.037990,0.016312,0.020669,0.029058,0.016783,0.014749,0.014995,0.008265,0.020697,0.011353,0.012515,0.006749,0.004052,0.003655,0.003347,0.005422,0.022267,0.046269,0.030800,0.031459,0.036477,0.012926,0.015661,0.019976,0.013576,0.023545,0.014707,0.006135,0.010453,0.014353,0.011964,0.076390,0.064191,0.031180,0.050574,0.030381
1742197310.445667,1742197310.446534,84.000000,0.000000,4288.205078,4347.692383,4226.922852,4308.333496,4351.410156,4360.512695,4364.871582,4564.871582,4553.717773,4553.589844,4498.846191,5681.794922,4312.692383,4257.820313,0.000000,0.000000,11.000000,,,,0.000000,0.000000,0.000000,0.000000,0.000000,0.000000,0.000000,0.000000,0.000000,0.000000,0.000000,0.000000,0.000000,0.000000,0.000000,0.000000,,,,,,,,,,,,,,,,,21.000000,0.000000,0.738717,-0.119446,0.654968,0.105103,-0.996215,-0.045416,0.116225,24.926985,19.117863,44.639614,,,,,,,,,,,,,,,,,,,,,,,,,,,,,,,,,,,,,,,,,,,,,,,,,,,,,,,,,,,,,,,,,,,,,,,,,,,,,,,,,,,,,,,,,,,,,,,,,,,,,
1742197310.453475,1742197310.454442,85.000000,0.000000,4288.205078,4345.128418,4226.025879,4308.461426,4352.820313,4361.282227,4365.512695,4562.948730,4553.974121,4553.846191,4497.307617,5683.205078,4312.563965,4263.974121,0.000000,0.000000,11.000000,,,,0.000000,0.000000,0.000000,0.000000,0.000000,0.000000,0.000000,0.000000,0.000000,0.000000,0.000000,0.000000,0.000000,0.000000,0.000000,0.000000,,,,,,,,,,,,,,,,,,,,,,,,,,,,,,,,,,,,,,,,,,,,,,,,,,,,,,,,,,,,,,,,,,,,,,,,,,,,,,,,,,,,,,,,,,,,,,,,,,,,,,,,,,,,,,,,,,,,,,,,,,,,,,,,,
1742197310.461283,1742197310.462250,86.000000,0.000000,4286.153809,4344.358887,4226.153809,4306.794922,4351.153809,4361.538574,4371.025879,4563.461426,4553.846191,4552.948730,4497.307617,5684.743652,4310.897461,4259.230957,0.000000,0.000000,11.000000,,,,0.000000,0.000000,0.000000,0.000000,0.000000,0.000000,0.000000,0.000000,0.000000,0.000000,0.000000,0.000000,0.000000,0.000000,0.000000,0.000000,,,,,,,,,,,,,,,,,,,,,,,,,,,,,,,,,,,,,,,,,,,,,,,,,,,,,,,,,,,,,,,,,,,,,,,,,,,,,,,,,,,,,,,,,,,,,,,,,,,,,,,,,,,,,,,,,,,,,,,,,,,,,,,,,
1742197310.469091,1742197310.470058,87.000000,0.000000,4286.538574,4346.153809,4223.974121,4310.256348,4350.000000,4360.384766,4368.333496,4564.358887,4551.282227,4552.436035,4503.077148,5681.666504,4312.179688,4256.410156,0.000000,0.000000,11.000000,,,,0.000000,0.000000,0.000000,0.000000,0.000000,0.000000,0.000000,0.000000,0.000000,0.000000,0.000000,0.000000,0.000000,0.000000,0.000000,0.000000,,,,,,,,,,,,,,,,,,,,,,,,,,,,,,,,,,,,,,,,,,,,,,,,,,,,,,,,,,,,,,,,,,,,,,,,,,,,,,,,,,,,,,,,,,,,,,,,,,,,,,,,,,,,,,,,,,,,,,,,,,,,,,,,,
1742197310.476900,1742197310.477767,88.000000,0.000000,4290.384766,4346.538574,4223.333496,4309.871582,4351.538574,4358.589844,4363.077148,4562.820313,4553.589844,4553.205078,4508.077148,5681.153809,4314.871582,4259.615234,0.000000,0.000000,11.000000,,,,0.000000,0.000000,0.000000,0.000000,0.000000,0.000000,0.000000,0.000000,0.000000,0.000000,0.000000,0.000000,0.000000,0.000000,0.000000,0.000000,,,,,,,,,,,,,,,,,22.000000,0.000000,0.738771,-0.119446,0.654907,0.105103,-0.993774,-0.045416,0.110365,24.817619,19.156076,44.642319,,,,,,,,,,,,,,,,,,,,,,,,,,,,,,,,,,,,,,,,,,,,,,,,,,,,,,,,,,,,,,,,,,,,,,,,,,,,,,,,,,,,,,,,,,,,,,,,,,,,,
1742197310.484707,1742197310.485575,89.000000,0.000000,4290.641113,4344.743652,4227.051270,4304.487305,4351.666504,4359.230957,4364.487305,4563.974121,4557.051270,4553.974121,4503.461426,5683.589844,4311.282227,4260.000000,0.000000,0.000000,11.000000,,,,0.000000,0.000000,0.000000,0.000000,0.000000,0.000000,0.000000,0.000000,0.000000,0.000000,0.000000,0.000000,0.000000,0.000000,0.000000,0.000000,,,,,,,,,,,,,,,,,,,,,,,,,,,,,,,,,,,,,,,,,,,,,,,,,,,,,,,,,,,,,,,,,,,,,,,,,,,,,,,,,,,,,,,,,,,,,,,,,,,,,,,,,,,,,,,,,,,,,,,,,,,,,,,,,
1742197310.492515,1742197310.493283,90.000000,0.000000,4288.333496,4344.743652,4227.436035,4305.256348,4351.153809,4361.282227,4364.615234,4563.333496,4553.974121,4553.717773,4498.589844,5682.692383,4309.871582,4258.717773,0.000000,0.000000,11.000000,,,,0.000000,0.000000,0.000000,0.000000,0.000000,0.000000,0.000000,0.000000,0.000000,0.000000,0.000000,0.000000,0.000000,0.000000,0.000000,0.000000,,,,,,,,,,,,,,,,,,,,,,,,,,,,,,,,,,,,,,,,,,,,,,,,,,,,,,,,,,,,,,,,,,,,,,,,,,,,,,,,,,,,,,,,,,,,,,,,,,,,,,,,,,,,,,,,,,,,,,,,,,,,,,,,,
1742197310.500324,1742197310.501191,91.000000,0.000000,4288.205078,4345.769043,4225.000000,4308.974121,4351.410156,4361.666504,4363.589844,4560.128418,4550.000000,4552.692383,4500.512695,5681.922852,4313.461426,4259.102539,0.000000,0.000000,11.000000,,,,0.000000,0.000000,0.000000,0.000000,0.000000,0.000000,0.000000,0.000000,0.000000,0.000000,0.000000,0.000000,0.000000,0.000000,0.000000,0.000000,,,,,,,,,,,,,,,,,,,,,,,,,,,,,,,,,,,,,,,,,,,,,,,,,,,,,,,,,,,,,,,,,,,,,,,,,,,,,,,,,,,,,,,,,,,,,,,,,,,,,,,,,,,,,,,,,,,,,,,,,,,,,,,,,
1742197310.508132,1742197310.508999,92.000000,0.000000,4289.615234,4345.256348,4226.410156,4309.743652,4351.538574,4360.769043,4365.128418,4560.641113,4550.769043,4552.948730,4500.512695,5684.230957,4311.794922,4260.769043,0.000000,0.000000,11.000000,,,,0.000000,0.000000,0.000000,0.000000,0.000000,0.000000,0.000000,0.000000,0.000000,0.000000,0.000000,0.000000,0.000000,0.000000,0.000000,0.000000,,,,,,,,,,,,,,,,,23.000000,0.000000,0.738771,-0.119446,0.654907,0.105103,-0.996215,-0.042486,0.104993,24.702524,19.207134,44.844753,,,,,,,,,,,,,,,,,,,,,,,,,,,,,,,,,,,,,,,,,,,,,,,,,,,,,,,,,,,,,,,,,,,,,,,,,,,,,,,,,,,,,,,,,,,,,,,,,,,,,
1742197310.515940,1742197310.516807,93.000000,0.000000,4289.871582,4345.128418,4227.948730,4308.846191,4351.410156,4360.256348,4366.282227,4560.384766,4551.410156,4553.333496,4496.282227,5683.205078,4309.615234,4258.846191,0.000000,0.000000,11.000000,,,,0.000000,0.000000,0.000000,0.000000,0.000000,0.000000,0.000000,0.000000,0.000000,0.000000,0.000000,0.000000,0.000000,0.000000,0.000000,0.000000,,,,,,,,,,,,,,,,,,,,,,,,,,,,,,,,,,,,,,,,,,,,,,,,,,,,,,,,,,,,,,,,,,,,,,,,,,,,,,,,,,,,,,,,,,,,,,,,,,,,,,,,,,,,,,,,,,,,,,,,,,,,,,,,,
1742197310.523748,1742197310.524515,94.000000,0.000000,4287.820313,4346.153809,4225.897461,4309.487305,4351.410156,4360.641113,4367.307617,4559.743652,4551.153809,4554.102539,4496.538574,5681.025879,4312.692383,4254.358887,0.000000,0.000000,11.000000,,,,0.000000,0.000000,0.000000,0.000000,0.000000,0.000000,0.000000,0.000000,0.000000,0.000000,0.000000,0.000000,0.000000,0.000000,0.000000,0.000000,,,,,,,,,,,,,,,,,,,,,,,,,,,,,,,,,,,,,,,,,,,,,,,,,,,,,,,,,,,,,,,,,,,,,,,,,,,,,,,,,,,,,,,,,,,,,,,,,,,,,,,,,,,,,,,,,,,,,,,,,,,,,,,,,
1742197310.531556,1742197310.532423,95.000000,0.000000,4287.051270,4346.153809,4224.102539,4311.794922,4351.410156,4360.128418,4368.077148,4563.077148,4552.948730,4553.846191,4499.358887,5683.461426,4313.846191,4253.974121,0.000000,0.000000,11.000000,,,,0.000000,0.000000,0.000000,0.000000,0.000000,0.000000,0.000000,0.000000,0.000000,0.000000,0.000000,0.000000,0.000000,0.000000,0.000000,0.000000,,,,,,,,,,,,,,,,,,,,,,,,,,,,,,,,,,,,,,,,,,,,,,,,,,,,,,,,,,,,,,,,,,,,,,,,,,,,,,,,,,,,,,,,,,,,,,,,,,,,,,,,,,,,,,,,,,,,,,,,,,,,,,,,,
1742197310.539364,1742197310.540232,96.000000,0.000000,4289.743652,4346.538574,4223.717773,4312.179688,4351.538574,4359.743652,4366.153809,4564.230957,4552.820313,4552.563965,4500.512695,5684.615234,4311.410156,4254.743652,0.000000,0.000000,11.000000,,,,0.000000,0.000000,0.000000,0.000000,0.000000,0.000000,0.000000,0.000000,0.000000,0.000000,0.000000,0.000000,0.000000,0.000000,0.000000,0.000000,,,,,,,,,,,,,,,,,24.000000,0.000000,0.738717,-0.119446,0.654968,0.105103,-0.992309,-0.042486,0.119155,24.665606,19.236422,44.910278,,,,,,,,,,,,,,,,,,,,,,,,,,,,,,,,,,,,,,,,,,,,,,,,,,,,,,,,,,,,,,,,,,,,,,,,,,,,,,,,,,,,,,,,,,,,,,,,,,,,,
1742197310.547172,1742197310.548140,97.000000,0.000000,4287.948730,4345.769043,4226.666504,4311.538574,4351.410156,4359.743652,4362.692383,4561.794922,4551.794922,4553.589844,4498.717773,5682.948730,4311.410156,4255.128418,0.000000,0.000000,11.000000,,,,0.000000,0.000000,0.000000,0.000000,0.000000,0.000000,0.000000,0.000000,0.000000,0.000000,0.000000,0.000000,0.000000,0.000000,0.000000,0.000000,,,,,,,,,,,,,,,,,,,,,,,,,,,,,,,,,,,,,,,,,,,,,,,,,,,,,,,,,,,,,,,,,,,,,,,,,,,,,,,,,,,,,,,,,,,,,,,,,,,,,,,,,,,,,,,,,,,,,,,,,,,,,,,,,
1742197310.554980,1742197310.555948,98.000000,0.000000,4284.871582,4344.358887,4228.717773,4312.307617,4351.153809,4360.512695,4364.358887,4563.077148,4552.563965,4554.230957,4496.794922,5684.487305,4312.436035,4255.641113,0.000000,0.000000,11.000000,,,,0.000000,0.000000,0.000000,0.000000,0.000000,0.000000,0.000000,0.000000,0.000000,0.000000,0.000000,0.000000,0.000000,0.000000,0.000000,0.000000,,,,,,,,,,,,,,,,,,,,,,,,,,,,,,,,,,,,,,,,,,,,,,,,,,,,,,,,,,,,,,,,,,,,,,,,,,,,,,,,,,,,,,,,,,,,,,,,,,,,,,,,,,,,,,,,,,,,,,,,,,,,,,,,,
1742197310.562788,1742197310.563856,99.000000,0.000000,4288.461426,4345.000000,4224.102539,4311.282227,4351.666504,4361.794922,4365.897461,4563.461426,4553.589844,4552.948730,4498.589844,5685.512695,4313.205078,4255.641113,0.000000,0.000000,11.000000,,,,0.000000,0.000000,0.000000,0.000000,0.000000,0.000000,0.000000,0.000000,0.000000,0.000000,0.000000,0.000000,0.000000,0.000000,0.000000,0.000000,1.000000,0.000000,0.000000,0.000000,0.000000,0.000000,0.000000,0.000000,0.000000,0.000000,0.000000,0.000000,0.000000,0.000000,0.000000,0.000000,,,,,,,,,,,,,,,,,,,,,,,,,,,,,,,,,,,,,,,,,,,,0.010999,0.021161,0.019596,0.014147,0.026341,0.029891,0.019247,0.011138,0.008418,0.017161,0.017954,0.038953,0.013696,0.009866,0.021003,0.014378,0.027251,0.063872,0.035611,0.027002,0.013548,0.005123,0.007233,0.010177,0.011304,0.017363,0.021363,0.015979,0.021364,0.023411,0.047517,0.115541,0.041388,0.035514,0.041452,0.018018,0.020229,0.031134,0.015470,0.015786,0.012616,0.007539,0.021679,0.012519,0.013487,0.006227,0.003610,0.003281,0.002838,0.005089,0.027003,0.055030,0.028463,0.034379,0.038946,0.016076,0.015239,0.017564,0.014752,0.025348,0.016403,0.006209,0.009953,0.016323,0.011761,0.075412,0.066957,0.027407,0.049005,0.029613
1742197310.570596,1742197310.571664,100.000000,0.000000,4292.436035,4343.589844,4221.794922,4307.051270,4351.025879,4361.922852,4362.051270,4560.000000,4552.692383,4552.307617,4500.897461,5682.179688,4314.230957,4256.282227,0.000000,0.000000,11.000000,,,,0.000000,0.000000,0.000000,0.000000,0.000000,0.000000,0.000000,0.000000,0.000000,0.000000,0.000000,0.000000,0.000000,0.000000,0.000000,0.000000,,,,,,,,,,,,,,,,,25.000000,0.000000,0.738708,-0.119446,0.654968,0.105164,-1.002075,-0.039067,0.101087,24.565712,19.329447,45.002586,,,,,,,,,,,,,,,,,,,,,,,,,,,,,,,,,,,,,,,,,,,,,,,,,,,,,,,,,,,,,,,,,,,,,,,,,,,,,,,,,,,,,,,,,,,,,,,,,,,,,
1742197310.578405,1742197310.579572,101.000000,0.000000,4289.487305,4339.871582,4225.000000,4306.538574,4350.384766,4360.897461,4362.563965,4561.153809,4550.384766,4552.948730,4497.436035,5681.666504,4313.077148,4257.436035,0.000000,0.000000,11.000000,,,,0.000000,0.000000,0.000000,0.000000,0.000000,0.000000,0.000000,0.000000,0.000000,0.000000,0.000000,0.000000,0.000000,0.000000,0.000000,0.000000,,,,,,,,,,,,,,,,,,,,,,,,,,,,,,,,,,,,,,,,,,,,,,,,,,,,,,,,,,,,,,,,,,,,,,,,,,,,,,,,,,,,,,,,,,,,,,,,,,,,,,,,,,,,,,,,,,,,,,,,,,,,,,,,,
1742197310.586213,1742197310.587380,102.000000,0.000000,4286.666504,4340.769043,4226.025879,4308.717773,4351.666504,4360.256348,4368.205078,4563.077148,4550.769043,4553.205078,4493.333496,5682.179688,4312.692383,4256.666504,0.000000,0.000000,11.000000,,,,0.000000,0.000000,0.000000,0.000000,0.000000,0.000000,0.000000,0.000000,0.000000,0.000000,0.000000,0.000000,0.000000,0.000000,0.000000,0.000000,,,,,,,,,,,,,,,,,,,,,,,,,,,,,,,,,,,,,,,,,,,,,,,,,,,,,,,,,,,,,,,,,,,,,,,,,,,,,,,,,,,,,,,,,,,,,,,,,,,,,,,,,,,,,,,,,,,,,,,,,,,,,,,,,
1742197310.594021,1742197310.595089,103.000000,0.000000,4287.051270,4343.461426,4226.025879,4308.846191,4352.051270,4359.102539,4370.256348,4561.282227,4552.820313,4552.820313,4498.333496,5681.922852,4313.717773,4254.615234,0.000000,0.000000,11.000000,,,,0.000000,0.000000,0.000000,0.000000,0.000000,0.000000,0.000000,0.000000,0.000000,0.000000,0.000000,0.000000,0.000000,0.000000,0.000000,0.000000,,,,,,,,,,,,,,,,,,,,,,,,,,,,,,,,,,,,,,,,,,,,,,,,,,,,,,,,,,,,,,,,,,,,,,,,,,,,,,,,,,,,,,,,,,,,,,,,,,,,,,,,,,,,,,,,,,,,,,,,,,,,,,,,,
1742197310.601829,1742197310.602897,104.000000,0.000000,4288.077148,4343.077148,4226.153809,4307.692383,4353.846191,4359.487305,4367.563965,4561.666504,4554.358887,4553.461426,4501.922852,5683.077148,4313.846191,4254.487305,0.000000,0.000000,11.000000,,,,0.000000,0.000000,0.000000,0.000000,0.000000,0.000000,0.000000,0.000000,0.000000,0.000000,0.000000,0.000000,0.000000,0.000000,0.000000,0.000000,,,,,,,,,,,,,,,,,26.000000,0.000000,0.738718,-0.119385,0.654968,0.105164,-0.978147,-0.038091,0.116225,24.409142,19.229836,44.968994,,,,,,,,,,,,,,,,,,,,,,,,,,,,,,,,,,,,,,,,,,,,,,,,,,,,,,,,,,,,,,,,,,,,,,,,,,,,,,,,,,,,,,,,,,,,,,,,,,,,,
1742197310.609637,1742197310.610605,105.000000,0.000000,4288.205078,4344.230957,4225.128418,4309.102539,4355.256348,4361.410156,4365.641113,4562.692383,4555.000000,4553.846191,4498.077148,5682.692383,4311.922852,4257.307617,0.000000,0.000000,11.000000,,,,0.000000,0.000000,0.000000,0.000000,0.000000,0.000000,0.000000,0.000000,0.000000,0.000000,0.000000,0.000000,0.000000,0.000000,0.000000,0.000000,,,,,,,,,,,,,,,,,,,,,,,,,,,,,,,,,,,,,,,,,,,,,,,,,,,,,,,,,,,,,,,,,,,,,,,,,,,,,,,,,,,,,,,,,,,,,,,,,,,,,,,,,,,,,,,,,,,,,,,,,,,,,,,,,
1742197310.617445,1742197310.618413,106.000000,0.000000,4287.692383,4346.794922,4225.128418,4311.410156,4351.794922,4360.512695,4364.871582,4560.897461,4554.743652,4553.974121,4495.128418,5680.128418,4311.025879,4259.358887,0.000000,0.000000,11.000000,,,,0.000000,0.000000,0.000000,0.000000,0.000000,0.000000,0.000000,0.000000,0.000000,0.000000,0.000000,0.000000,0.000000,0.000000,0.000000,0.000000,,,,,,,,,,,,,,,,,,,,,,,,,,,,,,,,,,,,,,,,,,,,,,,,,,,,,,,,,,,,,,,,,,,,,,,,,,,,,,,,,,,,,,,,,,,,,,,,,,,,,,,,,,,,,,,,,,,,,,,,,,,,,,,,,
1742197310.625253,1742197310.626121,107.000000,0.000000,4288.077148,4346.922852,4226.282227,4310.000000,4349.230957,4359.102539,4364.230957,4561.153809,4553.205078,4553.589844,4495.512695,5681.025879,4312.179688,4257.051270,0.000000,0.000000,11.000000,,,,0.000000,0.000000,0.000000,0.000000,0.000000,0.000000,0.000000,0.000000,0.000000,0.000000,0.000000,0.000000,0.000000,0.000000,0.000000,0.000000,,,,,,,,,,,,,,,,,,,,,,,,,,,,,,,,,,,,,,,,,,,,,,,,,,,,,,,,,,,,,,,,,,,,,,,,,,,,,,,,,,,,,,,,,,,,,,,,,,,,,,,,,,,,,,,,,,,,,,,,,,,,,,,,,
1742197310.633061,1742197310.633929,108.000000,0.000000,4289.102539,4346.410156,4224.615234,4308.589844,4351.025879,4360.000000,4363.205078,4562.820313,4551.538574,4552.948730,4495.897461,5685.000000,4310.512695,4254.487305,0.000000,0.000000,11.000000,,,,0.000000,0.000000,0.000000,0.000000,0.000000,0.000000,0.000000,0.000000,0.000000,0.000000,0.000000,0.000000,0.000000,0.000000,0.000000,0.000000,,,,,,,,,,,,,,,,,27.000000,0.000000,0.738674,-0.119324,0.655029,0.105164,-1.012331,-0.050787,0.121597,24.451559,19.173517,44.938759,,,,,,,,,,,,,,,,,,,,,,,,,,,,,,,,,,,,,,,,,,,,,,,,,,,,,,,,,,,,,,,,,,,,,,,,,,,,,,,,,,,,,,,,,,,,,,,,,,,,,
1742197310.640869,1742197310.641637,109.000000,0.000000,4289.230957,4344.487305,4221.282227,4311.025879,4351.153809,4361.410156,4364.230957,4560.641113,4552.051270,4553.077148,4497.051270,5685.769043,4309.102539,4256.666504,0.000000,0.000000,11.000000,,,,0.000000,0.000000,0.000000,0.000000,0.000000,0.000000,0.000000,0.000000,0.000000,0.000000,0.000000,0.000000,0.000000,0.000000,0.000000,0.000000,,,,,,,,,,,,,,,,,,,,,,,,,,,,,,,,,,,,,,,,,,,,,,,,,,,,,,,,,,,,,,,,,,,,,,,,,,,,,,,,,,,,,,,,,,,,,,,,,,,,,,,,,,,,,,,,,,,,,,,,,,,,,,,,,
1742197310.648677,1742197310.649445,110.000000,0.000000,4289.487305,4343.461426,4222.179688,4312.179688,4349.615234,4361.025879,4367.692383,4561.922852,4552.051270,4553.461426,4498.461426,5682.051270,4311.538574,4258.589844,0.000000,0.000000,11.000000,,,,0.000000,0.000000,0.000000,0.000000,0.000000,0.000000,0.000000,0.000000,0.000000,0.000000,0.000000,0.000000,0.000000,0.000000,0.000000,0.000000,,,,,,,,,,,,,,,,,,,,,,,,,,,,,,,,,,,,,,,,,,,,,,,,,,,,,,,,,,,,,,,,,,,,,,,,,,,,,,,,,,,,,,,,,,,,,,,,,,,,,,,,,,,,,,,,,,,,,,,,,,,,,,,,,
1742197310.656485,1742197310.657153,111.000000,0.000000,4288.077148,4346.025879,4226.666504,4308.846191,4351.153809,4359.743652,4368.461426,4565.512695,4551.282227,4553.717773,4497.179688,5680.384766,4313.205078,4256.666504,0.000000,0.000000,11.000000,,,,0.000000,0.000000,0.000000,0.000000,0.000000,0.000000,0.000000,0.000000,0.000000,0.000000,0.000000,0.000000,0.000000,0.000000,0.000000,0.000000,,,,,,,,,,,,,,,,,,,,,,,,,,,,,,,,,,,,,,,,,,,,,,,,,,,,,,,,,,,,,,,,,,,,,,,,,,,,,,,,,,,,,,,,,,,,,,,,,,,,,,,,,,,,,,,,,,,,,,,,,,,,,,,,,
1742197310.664293,1742197310.664961,112.000000,0.000000,4287.307617,4346.282227,4226.922852,4305.769043,4351.794922,4358.717773,4368.205078,4562.948730,4551.922852,4554.871582,4497.692383,5682.051270,4311.025879,4254.871582,0.000000,0.000000,11.000000,,,,0.000000,0.000000,0.000000,0.000000,0.000000,0.000000,0.000000,0.000000,0.000000,0.000000,0.000000,0.000000,0.000000,0.000000,0.000000,0.000000,,,,,,,,,,,,,,,,,28.000000,0.000000,0.738728,-0.119324,0.654968,0.105164,-0.980100,-0.039067,0.114760,24.523071,19.256166,44.994884,,,,,,,,,,,,,,,,,,,,,,,,,,,,,,,,,,,,,,,,,,,,,,,,,,,,,,,,,,,,,,,,,,,,,,,,,,,,,,,,,,,,,,,,,,,,,,,,,,,,,
1742197310.672102,1742197310.672669,113.000000,0.000000,4288.846191,4344.743652,4224.487305,4306.794922,4351.410156,4358.974121,4367.563965,4562.563965,4553.589844,4555.641113,4499.230957,5682.948730,4312.436035,4254.615234,0.000000,0.000000,11.000000,,,,0.000000,0.000000,0.000000,0.000000,0.000000,0.000000,0.000000,0.000000,0.000000,0.000000,0.000000,0.000000,0.000000,0.000000,0.000000,0.000000,,,,,,,,,,,,,,,,,,,,,,,,,,,,,,,,,,,,,,,,,,,,,,,,,,,,,,,,,,,,,,,,,,,,,,,,,,,,,,,,,,,,,,,,,,,,,,,,,,,,,,,,,,,,,,,,,,,,,,,,,,,,,,,,,
1742197310.679910,1742197310.680477,114.000000,0.000000,4288.974121,4344.743652,4226.538574,4308.846191,4351.410156,4360.256348,4363.205078,4566.153809,4555.256348,4554.102539,4493.589844,5681.922852,4315.512695,4257.820313,0.000000,0.000000,11.000000,,,,0.000000,0.000000,0.000000,0.000000,0.000000,0.000000,0.000000,0.000000,0.000000,0.000000,0.000000,0.000000,0.000000,0.000000,0.000000,0.000000,,,,,,,,,,,,,,,,,,,,,,,,,,,,,,,,,,,,,,,,,,,,,,,,,,,,,,,,,,,,,,,,,,,,,,,,,,,,,,,,,,,,,,,,,,,,,,,,,,,,,,,,,,,,,,,,,,,,,,,,,,,,,,,,,
1742197310.687718,1742197310.688185,115.000000,0.000000,4287.820313,4345.384766,4227.692383,4309.743652,4350.512695,4360.128418,4361.922852,4562.307617,4553.974121,4553.717773,4489.871582,5683.077148,4312.948730,4258.974121,0.000000,0.000000,11.000000,,,,0.000000,0.000000,0.000000,0.000000,0.000000,0.000000,0.000000,0.000000,0.000000,0.000000,0.000000,0.000000,0.000000,0.000000,0.000000,0.000000,,,,,,,,,,,,,,,,,,,,,,,,,,,,,,,,,,,,,,,,,,,,,,,,,,,,,,,,,,,,0.011126,0.018277,0.020936,0.017213,0.025983,0.025779,0.021349,0.009948,0.008336,0.019850,0.015513,0.037202,0.013000,0.008689,0.020129,0.012952,0.028330,0.061940,0.035961,0.028069,0.011894,0.004523,0.005192,0.008811,0.010307,0.021714,0.025618,0.020111,0.020967,0.020072,0.042673,0.117670,0.039335,0.037026,0.044920,0.019173,0.019704,0.031347,0.014357,0.017354,0.011014,0.006936,0.021808,0.013625,0.014557,0.005437,0.003424,0.002767,0.002457,0.004870,0.030534,0.063366,0.026070,0.036777,0.040570,0.020658,0.017033,0.015787,0.016742,0.026945,0.017991,0.007526,0.010409,0.017316,0.012320,0.070867,0.065352,0.025791,0.044729,0.029900
1742197310.695526,1742197310.695993,116.000000,0.000000,4288.461426,4345.128418,4225.128418,4310.512695,4350.512695,4358.461426,4366.794922,4558.461426,4550.256348,4555.128418,4496.922852,5684.743652,4311.538574,4257.307617,0.000000,0.000000,11.000000,,,,0.000000,0.000000,0.000000,0.000000,0.000000,0.000000,0.000000,0.000000,0.000000,0.000000,0.000000,0.000000,0.000000,0.000000,0.000000,0.000000,,,,,,,,,,,,,,,,,29.000000,0.000000,0.738674,-0.119324,0.655029,0.105164,-0.996704,-0.038579,0.114760,24.487431,19.180550,44.945396,,,,,,,,,,,,,,,,,,,,,,,,,,,,,,,,,,,,,,,,,,,,,,,,,,,,,,,,,,,,,,,,,,,,,,,,,,,,,,,,,,,,,,,,,,,,,,,,,,,,,
1742197310.703334,1742197310.703701,117.000000,0.000000,4288.974121,4345.512695,4223.589844,4310.512695,4350.512695,4358.589844,4368.077148,4563.717773,4551.282227,4554.358887,4501.794922,5683.717773,4315.000000,4258.333496,0.000000,0.000000,11.000000,,,,0.000000,0.000000,0.000000,0.000000,0.000000,0.000000,0.000000,0.000000,0.000000,0.000000,0.000000,0.000000,0.000000,0.000000,0.000000,0.000000,,,,,,,,,,,,,,,,,,,,,,,,,,,,,,,,,,,,,,,,,,,,,,,,,,,,,,,,,,,,,,,,,,,,,,,,,,,,,,,,,,,,,,,,,,,,,,,,,,,,,,,,,,,,,,,,,,,,,,,,,,,,,,,,,
1742197310.711142,1742197310.711509,118.000000,0.000000,4289.615234,4345.641113,4223.077148,4309.743652,4350.000000,4361.666504,4364.358887,4565.641113,4553.461426,4553.589844,4496.666504,5683.589844,4314.871582,4260.256348,0.000000,0.000000,11.000000,,,,0.000000,0.000000,0.000000,0.000000,0.000000,0.000000,0.000000,0.000000,0.000000,0.000000,0.000000,0.000000,0.000000,0.000000,0.000000,0.000000,,,,,,,,,,,,,,,,,,,,,,,,,,,,,,,,,,,,,,,,,,,,,,,,,,,,,,,,,,,,,,,,,,,,,,,,,,,,,,,,,,,,,,,,,,,,,,,,,,,,,,,,,,,,,,,,,,,,,,,,,,,,,,,,,
1742197310.718950,1742197310.719217,119.000000,0.000000,4289.102539,4345.897461,4225.641113,4309.743652,4350.256348,4362.436035,4364.487305,4560.512695,4551.282227,4554.230957,4496.025879,5686.410156,4311.794922,4261.282227,0.000000,0.000000,11.000000,,,,0.000000,0.000000,0.000000,0.000000,0.000000,0.000000,0.000000,0.000000,0.000000,0.000000,0.000000,0.000000,0.000000,0.000000,0.000000,0.000000,,,,,,,,,,,,,,,,,,,,,,,,,,,,,,,,,,,,,,,,,,,,,,,,,,,,,,,,,,,,,,,,,,,,,,,,,,,,,,,,,,,,,,,,,,,,,,,,,,,,,,,,,,,,,,,,,,,,,,,,,,,,,,,,,
1742197310.726758,1742197310.727025,120.000000,0.000000,4286.922852,4346.282227,4229.102539,4309.743652,4351.153809,4359.615234,4366.282227,4561.153809,4551.025879,4553.846191,4501.794922,5685.000000,4312.692383,4259.615234,0.000000,0.000000,11.000000,,,,0.000000,0.000000,0.000000,0.000000,0.000000,0.000000,0.000000,0.000000,0.000000,0.000000,0.000000,0.000000,0.000000,0.000000,0.000000,0.000000,,,,,,,,,,,,,,,,,30.000000,0.000000,0.738709,-0.119385,0.654968,0.105225,-0.995239,-0.033207,0.115737,24.472021,19.129162,45.134190,,,,,,,,,,,,,,,,,,,,,,,,,,,,,,,,,,,,,,,,,,,,,,,,,,,,,,,,,,,,,,,,,,,,,,,,,,,,,,,,,,,,,,,,,,,,,,,,,,,,,
1742197310.734566,1742197310.734733,121.000000,0.000000,4287.436035,4345.256348,4227.948730,4311.153809,4351.666504,4358.974121,4364.358887,4565.384766,4553.461426,4553.589844,4501.410156,5681.410156,4312.820313,4258.589844,0.000000,0.000000,11.000000,,,,0.000000,0.000000,0.000000,0.000000,0.000000,0.000000,0.000000,0.000000,0.000000,0.000000,0.000000,0.000000,0.000000,0.000000,0.000000,0.000000,,,,,,,,,,,,,,,,,,,,,,,,,,,,,,,,,,,,,,,,,,,,,,,,,,,,,,,,,,,,,,,,,,,,,,,,,,,,,,,,,,,,,,,,,,,,,,,,,,,,,,,,,,,,,,,,,,,,,,,,,,,,,,,,,
1742197310.742374,1742197310.742641,122.000000,0.000000,4288.589844,4345.256348,4225.384766,4311.282227,4351.410156,4359.615234,4363.461426,4563.974121,4552.563965,4553.589844,4497.692383,5682.179688,4309.743652,4259.487305,0.000000,0.000000,11.000000,,,,0.000000,0.000000,0.000000,0.000000,0.000000,0.000000,0.000000,0.000000,0.000000,0.000000,0.000000,0.000000,0.000000,0.000000,0.000000,0.000000,,,,,,,,,,,,,,,,,,,,,,,,,,,,,,,,,,,,,,,,,,,,,,,,,,,,,,,,,,,,,,,,,,,,,,,,,,,,,,,,,,,,,,,,,,,,,,,,,,,,,,,,,,,,,,,,,,,,,,,,,,,,,,,,,
1742197310.750183,1742197310.750450,123.000000,0.000000,4288.333496,4345.512695,4226.666504,4307.179688,4351.025879,4360.641113,4366.922852,4560.384766,4548.333496,4553.205078,4497.051270,5683.589844,4310.897461,4258.974121,0.000000,0.000000,11.000000,,,,0.000000,0.000000,0.000000,0.000000,0.000000,0.000000,0.000000,0.000000,0.000000,0.000000,0.000000,0.000000,0.000000,0.000000,0.000000,0.000000,,,,,,,,,,,,,,,,,,,,,,,,,,,,,,,,,,,,,,,,,,,,,,,,,,,,,,,,,,,,,,,,,,,,,,,,,,,,,,,,,,,,,,,,,,,,,,,,,,,,,,,,,,,,,,,,,,,,,,,,,,,,,,,,,
1742197310.757990,1742197310.758358,124.000000,0.000000,4289.487305,4344.615234,4227.179688,4306.794922,4351.922852,4362.563965,4366.922852,4560.128418,4547.948730,4553.333496,4499.615234,5683.974121,4313.461426,4256.794922,0.000000,0.000000,11.000000,,,,0.000000,0.000000,0.000000,0.000000,0.000000,0.000000,0.000000,0.000000,0.000000,0.000000,0.000000,0.000000,0.000000,0.000000,0.000000,0.000000,,,,,,,,,,,,,,,,,31.000000,0.000000,0.738681,-0.119507,0.654968,0.105286,-0.997680,-0.032230,0.104505,24.441484,18.982912,45.120770,,,,,,,,,,,,,,,,,,,,,,,,,,,,,,,,,,,,,,,,,,,,,,,,,,,,,,,,,,,,,,,,,,,,,,,,,,,,,,,,,,,,,,,,,,,,,,,,,,,,,
1742197310.765799,1742197310.766166,125.000000,0.000000,4290.128418,4344.487305,4225.000000,4309.230957,4352.179688,4361.922852,4362.051270,4561.410156,4551.666504,4553.589844,4500.512695,5684.102539,4312.436035,4258.589844,0.000000,0.000000,11.000000,,,,0.000000,0.000000,0.000000,0.000000,0.000000,0.000000,0.000000,0.000000,0.000000,0.000000,0.000000,0.000000,0.000000,0.000000,0.000000,0.000000,,,,,,,,,,,,,,,,,,,,,,,,,,,,,,,,,,,,,,,,,,,,,,,,,,,,,,,,,,,,,,,,,,,,,,,,,,,,,,,,,,,,,,,,,,,,,,,,,,,,,,,,,,,,,,,,,,,,,,,,,,,,,,,,,
1742197310.773607,1742197310.774074,126.000000,0.000000,4288.077148,4345.384766,4224.487305,4307.051270,4350.641113,4357.563965,4362.307617,4563.461426,4554.230957,4553.717773,4500.769043,5682.563965,4310.384766,4261.153809,0.000000,0.000000,11.000000,,,,0.000000,0.000000,0.000000,0.000000,0.000000,0.000000,0.000000,0.000000,0.000000,0.000000,0.000000,0.000000,0.000000,0.000000,0.000000,0.000000,,,,,,,,,,,,,,,,,,,,,,,,,,,,,,,,,,,,,,,,,,,,,,,,,,,,,,,,,,,,,,,,,,,,,,,,,,,,,,,,,,,,,,,,,,,,,,,,,,,,,,,,,,,,,,,,,,,,,,,,,,,,,,,,,
1742197310.781415,1742197310.781882,127.000000,0.000000,4288.461426,4345.384766,4226.794922,4307.179688,4350.641113,4357.563965,4365.641113,4565.384766,4552.948730,4553.846191,4500.000000,5681.666504,4311.794922,4257.563965,11.000000,0.000000,11.000000,,,,0.000000,0.000000,0.000000,0.000000,0.000000,0.000000,0.000000,0.000000,0.000000,0.000000,0.000000,0.000000,0.000000,0.000000,0.000000,0.000000,,,,,,,,,,,,,,,,,,,,,,,,,,,,,,,,,,,,,,,,,,,,,,,,,,,,,,,,,,,,,,,,,,,,,,,,,,,,,,,,,,,,,,,,,,,,,,,,,,,,,,,,,,,,,,,,,,,,,,,,,,,,,,,,,
1742197310.789223,1742197310.789790,0.000000,0.000000,4290.256348,4345.384766,4226.025879,4310.256348,4351.025879,4360.512695,4364.230957,4563.589844,4551.025879,4553.846191,4497.692383,5682.563965,4313.461426,4255.000000,0.000000,0.000000,11.000000,,,,0.000000,0.000000,0.000000,0.000000,0.000000,0.000000,0.000000,0.000000,0.000000,0.000000,0.000000,0.000000,0.000000,0.000000,0.000000,0.000000,,,,,,,,,,,,,,,,,0.000000,0.000000,0.738681,-0.119507,0.654968,0.105286,-0.984007,-0.034184,0.122085,24.514004,19.117954,45.125359,,,,,,,,,,,,,,,,,,,,,,,,,,,,,,,,,,,,,,,,,,,,,,,,,,,,,,,,,,,,,,,,,,,,,,,,,,,,,,,,,,,,,,,,,,,,,,,,,,,,,
1742197310.797031,1742197310.797598,1.000000,0.000000,4288.077148,4346.794922,4223.077148,4309.102539,4350.769043,4359.230957,4364.230957,4561.025879,4551.666504,4553.333496,4499.358887,5681.922852,4312.179688,4258.205078,0.000000,0.000000,11.000000,,,,0.000000,0.000000,0.000000,0.000000,0.000000,0.000000,0.000000,0.000000,0.000000,0.000000,0.000000,0.000000,0.000000,0.000000,0.000000,0.000000,,,,,,,,,,,,,,,,,,,,,,,,,,,,,,,,,,,,,,,,,,,,,,,,,,,,,,,,,,,,,,,,,,,,,,,,,,,,,,,,,,,,,,,,,,,,,,,,,,,,,,,,,,,,,,,,,,,,,,,,,,,,,,,,,
1742197310.804839,1742197310.805306,2.000000,0.000000,4287.051270,4347.179688,4225.128418,4306.794922,4351.025879,4358.846191,4366.282227,4562.820313,4551.794922,4553.205078,4499.871582,5681.410156,4311.666504,4260.512695,0.000000,0.000000,11.000000,,,,0.000000,0.000000,0.000000,0.000000,0.000000,0.000000,0.000000,0.000000,0.000000,0.000000,0.000000,0.000000,0.000000,0.000000,0.000000,0.000000,,,,,,,,,,,,,,,,,,,,,,,,,,,,,,,,,,,,,,,,,,,,,,,,,,,,,,,,,,,,,,,,,,,,,,,,,,,,,,,,,,,,,,,,,,,,,,,,,,,,,,,,,,,,,,,,,,,,,,,,,,,,,,,,,
1742197310.812647,1742197310.813114,3.000000,0.000000,4287.563965,4347.307617,4227.307617,4307.948730,4351.153809,4362.948730,4365.641113,4563.333496,4552.436035,4553.077148,4495.897461,5683.077148,4314.102539,4257.051270,0.000000,0.000000,11.000000,,,,0.000000,0.000000,0.000000,0.000000,0.000000,0.000000,0.000000,0.000000,0.000000,0.000000,0.000000,0.000000,0.000000,0.000000,0.000000,0.000000,,,,,,,,,,,,,,,,,,,,,,,,,,,,,,,,,,,,,,,,,,,,,,,,,,,,,,,,,,,,0.012377,0.014990,0.020975,0.021625,0.025922,0.021189,0.023136,0.009398,0.008637,0.022052,0.013741,0.034426,0.011650,0.007931,0.019063,0.012153,0.028543,0.056530,0.036078,0.028969,0.010453,0.004591,0.004438,0.007436,0.009339,0.026644,0.028730,0.024162,0.020399,0.017746,0.037732,0.111025,0.036902,0.037202,0.047631,0.019693,0.019693,0.029685,0.013756,0.019031,0.010114,0.006797,0.021678,0.014849,0.015643,0.004593,0.003537,0.002256,0.002255,0.004799,0.031796,0.069114,0.024621,0.038350,0.040642,0.025673,0.019331,0.014498,0.019123,0.028074,0.019186,0.009916,0.011158,0.016954,0.013531,0.062640,0.060234,0.026309,0.039809,0.031803
