Timestamp,OriginalTimestamp,EEG.Counter,EEG.Interpolated,EEG.AF3,EEG.F7,EEG.F3,EEG.FC5,EEG.T7,EEG.P7,EEG.O1,EEG.O2,EEG.P8,EEG.T8,EEG.FC6,EEG.F4,EEG.F8,EEG.AF4,EEG.RawCq,EEG.Battery,EEG.BatteryPercent,MarkerIndex,MarkerType,MarkerValueInt,EEG.MarkerHardware,CQ.AF3,CQ.F7,CQ.F3,CQ.FC5,CQ.T7,CQ.P7,CQ.O1,CQ.O2,CQ.P8,CQ.T8,CQ.FC6,CQ.F4,CQ.F8,CQ.AF4,CQ.Overall,EQ.SampleRateQuality,EQ.OVERALL,EQ.AF3,EQ.F7,EQ.F3,EQ.FC5,EQ.T7,EQ.P7,EQ.O1,EQ.O2,EQ.P8,EQ.T8,EQ.FC6,EQ.F4,EQ.F8,EQ.AF4,MOT.CounterMems,MOT.InterpolatedMems,MOT.Q0,MOT.Q1,MOT.Q2,MOT.Q3,MOT.AccX,MOT.AccY,MOT.AccZ,MOT.MagX,MOT.MagY,MOT.MagZ,PM.Attention.IsActive,PM.Attention.Scaled,PM.Attention.Raw,PM.Attention.Min,PM.Attention.Max,PM.Engagement.IsActive,PM.Engagement.Scaled,PM.Engagement.Raw,PM.Engagement.Min,PM.Engagement.Max,PM.Excitement.IsActive,PM.Excitement.Scaled,PM.Excitement.Raw,PM.Excitement.Min,PM.Excitement.Max,PM.LongTermExcitement,PM.Stress.IsActive,PM.Stress.Scaled,PM.Stress.Raw,PM.Stress.Min,PM.Stress.Max,PM.Relaxation.IsActive,PM.Relaxation.Scaled,PM.Relaxation.Raw,PM.Relaxation.Min,PM.Relaxation.Max,PM.Interest.IsActive,PM.Interest.Scaled,PM.Interest.Raw,PM.Interest.Min,PM.Interest.Max,POW.AF3.Theta,POW.AF3.Alpha,POW.AF3.BetaL,POW.AF3.BetaH,POW.AF3.Gamma,POW.F7.Theta,POW.F7.Alpha,POW.F7.BetaL,POW.F7.BetaH,POW.F7.Gamma,POW.F3.Theta,POW.F3.Alpha,POW.F3.BetaL,POW.F3.BetaH,POW.F3.Gamma,POW.FC5.Theta,POW.FC5.Alpha,POW.FC5.BetaL,POW.FC5.BetaH,POW.FC5.Gamma,POW.T7.Theta,POW.T7.Alpha,POW.T7.BetaL,POW.T7.BetaH,POW.T7.Gamma,POW.P7.Theta,POW.P7.Alpha,POW.P7.BetaL,POW.P7.BetaH,POW.P7.Gamma,POW.O1.Theta,POW.O1.Alpha,POW.O1.BetaL,POW.O1.BetaH,POW.O1.Gamma,POW.O2.Theta,POW.O2.Alpha,POW.O2.BetaL,POW.O2.BetaH,POW.O2.Gamma,POW.P8.Theta,POW.P8.Alpha,POW.P8.BetaL,POW.P8.BetaH,POW.P8.Gamma,POW.T8.Theta,POW.T8.Alpha,POW.T8.BetaL,POW.T8.BetaH,POW.T8.Gamma,POW.FC6.Theta,POW.FC6.Alpha,POW.FC6.BetaL,POW.FC6.BetaH,POW.FC6.Gamma,POW.F4.Theta,POW.F4.Alpha,POW.F4.BetaL,POW.F4.BetaH,POW.F4.Gamma,POW.F8.Theta,POW.F8.Alpha,POW.F8.BetaL,POW.F8.BetaH,POW.F8.Gamma,POW.AF4.Theta,POW.AF4.Alpha,POW.AF4.BetaL,POW.AF4.BetaH,POW.AF4.Gamma
1739355751.898930,1739355751.899493,47.000000,0.000000,4602.307617,4387.563965,4341.538574,6083.846191,4277.563965,4095.512939,4244.871582,4266.666504,4303.077148,4275.512695,5626.922852,4751.282227,4496.153809,4624.230957,0.000000,0.000000,13.000000,,,,0.000000,4.000000,4.000000,4.000000,4.000000,4.000000,4.000000,4.000000,4.000000,4.000000,4.000000,4.000000,4.000000,4.000000,4.000000,100.000000,,,,,,,,,,,,,,,,,,,,,,,,,,,,,,,,,,,,,,,,,,,,,,,,,,,,,,,,,,,,,,,,,,,,,,,,,,,,,,,,,,,,,,,,,,,,,,,,,,,,,,,,,,,,,,,,,,,,,,,,,,,,,,,,,
1739355751.906738,1739355751.907201,48.000000,0.000000,4589.871582,4361.538574,4322.179688,6081.282227,4273.333496,4085.128174,4233.717773,4258.846191,4298.846191,4267.692383,5584.487305,4714.358887,4493.589844,4602.948730,0.000000,0.000000,13.000000,,,,0.000000,4.000000,4.000000,4.000000,4.000000,4.000000,4.000000,4.000000,4.000000,4.000000,4.000000,4.000000,4.000000,4.000000,4.000000,100.000000,,,,,,,,,,,,,,,,,12.000000,0.000000,0.671279,0.057983,-0.698181,0.242004,0.933708,-0.258332,0.015627,-41.497780,-30.122688,44.727886,,,,,,,,,,,,,,,,,,,,,,,,,,,,,,,,,,,,,,,,,,,,,,,,,,,,,,,,,,,,,,,,,,,,,,,,,,,,,,,,,,,,,,,,,,,,,,,,,,,,,
1739355751.914546,1739355751.915009,49.000000,0.000000,4630.256348,4388.974121,4354.487305,6133.589844,4311.410156,4113.717773,4267.820313,4270.256348,4316.922852,4292.307617,5608.717773,4748.846191,4524.487305,4641.153809,0.000000,0.000000,13.000000,,,,0.000000,4.000000,4.000000,4.000000,4.000000,4.000000,4.000000,4.000000,4.000000,4.000000,4.000000,4.000000,4.000000,4.000000,4.000000,100.000000,,,,,,,,,,,,,,,,,,,,,,,,,,,,,,,,,,,,,,,,,,,,,,,,,,,,,,,,,,,,,,,,,,,,,,,,,,,,,,,,,,,,,,,,,,,,,,,,,,,,,,,,,,,,,,,,,,,,,,,,,,,,,,,,,
1739355751.922354,1739355751.922717,50.000000,0.000000,4648.717773,4410.128418,4362.820313,6167.179688,4318.077148,4124.487305,4265.512695,4272.820313,4316.666504,4302.820313,5609.230957,4762.948730,4525.769043,4655.641113,0.000000,0.000000,13.000000,,,,0.000000,4.000000,4.000000,4.000000,4.000000,4.000000,4.000000,4.000000,4.000000,4.000000,4.000000,4.000000,4.000000,4.000000,4.000000,100.000000,,,,,,,,,,,,,,,,,,,,,,,,,,,,,,,,,,,,,,,,,,,,,,,,,,,,,,,,,,,,,,,,,,,,,,,,,,,,,,,,,,,,,,,,,,,,,,,,,,,,,,,,,,,,,,,,,,,,,,,,,,,,,,,,,
1739355751.930162,1739355751.930525,51.000000,0.000000,4605.256348,4367.820313,4321.666504,6121.025879,4255.512695,4079.871826,4223.974121,4258.974121,4295.897461,4271.410156,5551.410156,4709.743652,4489.871582,4611.153809,0.000000,0.000000,13.000000,,,,0.000000,4.000000,4.000000,4.000000,4.000000,4.000000,4.000000,4.000000,4.000000,4.000000,4.000000,4.000000,4.000000,4.000000,4.000000,100.000000,,,,,,,,,,,,,,,,,,,,,,,,,,,,,,,,,,,,,,,,,,,,,,,,,,,,,,,,,,,,,,,,,,,,,,,,,,,,,,,,,,,,,,,,,,,,,,,,,,,,,,,,,,,,,,,,,,,,,,,,,,,,,,,,,
1739355751.937970,1739355751.938233,52.000000,0.000000,4584.230957,4346.153809,4306.538574,6101.666504,4244.615234,4072.051270,4214.743652,4256.153809,4289.102539,4233.077148,5521.794922,4686.666504,4476.794922,4594.615234,0.000000,0.000000,13.000000,,,,0.000000,4.000000,4.000000,4.000000,4.000000,4.000000,4.000000,4.000000,4.000000,4.000000,4.000000,4.000000,4.000000,4.000000,4.000000,100.000000,,,,,,,,,,,,,,,,,13.000000,0.000000,0.670683,0.057495,-0.698730,0.242188,0.971798,-0.240752,0.021975,-41.648003,-30.310419,44.671764,,,,,,,,,,,,,,,,,,,,,,,,,,,,,,,,,,,,,,,,,,,,,,,,,,,,,,,,,,,,,,,,,,,,,,,,,,,,,,,,,,,,,,,,,,,,,,,,,,,,,
1739355751.945778,1739355751.946041,53.000000,0.000000,4611.666504,4368.333496,4329.871582,6152.179688,4300.000000,4103.974121,4243.077148,4264.358887,4300.512695,4263.205078,5531.410156,4711.410156,4499.230957,4624.487305,0.000000,0.000000,13.000000,,,,0.000000,4.000000,4.000000,4.000000,4.000000,4.000000,4.000000,4.000000,4.000000,4.000000,4.000000,4.000000,4.000000,4.000000,4.000000,100.000000,,,,,,,,,,,,,,,,,,,,,,,,,,,,,,,,,,,,,,,,,,,,,,,,,,,,,,,,,,,,,,,,,,,,,,,,,,,,,,,,,,,,,,,,,,,,,,,,,,,,,,,,,,,,,,,,,,,,,,,,,,,,,,,,,
1739355751.953586,1739355751.953749,54.000000,0.000000,4639.487305,4381.922852,4350.256348,6189.230957,4302.563965,4119.487305,4275.897461,4271.922852,4321.922852,4317.820313,5534.871582,4732.436035,4521.282227,4649.871582,0.000000,0.000000,13.000000,,,,0.000000,4.000000,4.000000,4.000000,4.000000,4.000000,4.000000,4.000000,4.000000,4.000000,4.000000,4.000000,4.000000,4.000000,4.000000,100.000000,,,,,,,,,,,,,,,,,,,,,,,,,,,,,,,,,,,,,,,,,,,,,,,,,,,,,,,,,,,,,,,,,,,,,,,,,,,,,,,,,,,,,,,,,,,,,,,,,,,,,,,,,,,,,,,,,,,,,,,,,,,,,,,,,
1739355751.961395,1739355751.961557,55.000000,0.000000,4634.230957,4370.769043,4343.333496,6171.794922,4269.871582,4117.563965,4272.948730,4272.051270,4334.615234,4297.051270,5512.948730,4722.948730,4512.436035,4643.589844,0.000000,0.000000,13.000000,,,,0.000000,4.000000,4.000000,4.000000,4.000000,4.000000,4.000000,4.000000,4.000000,4.000000,4.000000,4.000000,4.000000,4.000000,4.000000,100.000000,,,,,,,,,,,,,,,,,,,,,,,,,,,,,,,,,,,,,,,,,,,,,,,,,,,,,,,,,,,,,,,,,,,,,,,,,,,,,,,,,,,,,,,,,,,,,,,,,,,,,,,,,,,,,,,,,,,,,,,,,,,,,,,,,
1739355751.969203,1739355751.969265,56.000000,0.000000,4608.589844,4351.922852,4323.974121,6146.025879,4283.717773,4106.538574,4238.974121,4267.051270,4325.256348,4240.769043,5465.897461,4694.871582,4484.487305,4617.692383,0.000000,0.000000,13.000000,,,,0.000000,4.000000,4.000000,4.000000,4.000000,4.000000,4.000000,4.000000,4.000000,4.000000,4.000000,4.000000,4.000000,4.000000,4.000000,100.000000,,,,,,,,,,,,,,,,,14.000000,0.000000,0.669914,0.057373,-0.699646,0.241699,0.979612,-0.279331,0.027347,-41.349869,-30.479378,44.487923,,,,,,,,,,,,,,,,,,,,,,,,,,,,,,,,5.115966,7.822400,1.805408,0.535711,0.760291,3.375453,4.663933,1.076602,0.568438,0.893792,7.113519,7.115533,1.950164,0.580162,0.671358,20.824001,13.284621,2.608595,1.034405,1.042573,2.863309,2.551828,0.937938,0.729628,0.777602,2.720532,1.145545,0.650845,0.379180,0.512445,3.550689,1.852467,1.414538,0.852175,0.696081,6.143008,2.162570,0.855754,0.379929,0.138944,4.039978,5.786286,1.245723,0.677254,0.728376,5.507820,9.418701,1.270124,0.747112,0.850470,18.728294,7.742381,1.925974,0.608524,0.708075,15.903536,10.865212,2.875498,0.981968,1.104712,2.391049,5.778107,1.492572,0.561244,0.691510,7.088237,7.842383,1.812925,0.631496,0.720040
1739355751.977011,1739355751.977073,57.000000,0.000000,4615.769043,4361.666504,4331.794922,6166.025879,4302.051270,4105.000000,4243.461426,4269.743652,4317.692383,4250.512695,5441.922852,4698.717773,4487.179688,4622.820313,0.000000,0.000000,13.000000,,,,0.000000,4.000000,4.000000,4.000000,4.000000,4.000000,4.000000,4.000000,4.000000,4.000000,4.000000,4.000000,4.000000,4.000000,4.000000,100.000000,,,,,,,,,,,,,,,,,,,,,,,,,,,,,,,,,,,,,,,,,,,,,,,,,,,,,,,,,,,,,,,,,,,,,,,,,,,,,,,,,,,,,,,,,,,,,,,,,,,,,,,,,,,,,,,,,,,,,,,,,,,,,,,,,
1739355751.984819,1739355751.984781,58.000000,0.000000,4629.743652,4362.948730,4339.230957,6176.538574,4264.871582,4099.102539,4262.307617,4266.282227,4308.077148,4271.922852,5432.179688,4704.743652,4501.025879,4633.589844,0.000000,0.000000,13.000000,,,,0.000000,4.000000,4.000000,4.000000,4.000000,4.000000,4.000000,4.000000,4.000000,4.000000,4.000000,4.000000,4.000000,4.000000,4.000000,100.000000,,,,,,,,,,,,,,,,,,,,,,,,,,,,,,,,,,,,,,,,,,,,,,,,,,,,,,,,,,,,,,,,,,,,,,,,,,,,,,,,,,,,,,,,,,,,,,,,,,,,,,,,,,,,,,,,,,,,,,,,,,,,,,,,,
1739355751.992627,1739355751.992689,59.000000,0.000000,4599.871582,4321.410156,4307.692383,6128.717773,4243.205078,4081.794922,4230.384766,4255.128418,4282.307617,4235.641113,5389.487305,4661.538574,4474.871582,4601.025879,0.000000,0.000000,13.000000,,,,0.000000,4.000000,4.000000,4.000000,4.000000,4.000000,4.000000,4.000000,4.000000,4.000000,4.000000,4.000000,4.000000,4.000000,4.000000,100.000000,,,,,,,,,,,,,,,,,,,,,,,,,,,,,,,,,,,,,,,,,,,,,,,,,,,,,,,,,,,,,,,,,,,,,,,,,,,,,,,,,,,,,,,,,,,,,,,,,,,,,,,,,,,,,,,,,,,,,,,,,,,,,,,,,
1739355752.000435,1739355752.000497,60.000000,0.000000,4627.563965,4347.436035,4331.922852,6140.000000,4289.871582,4118.717773,4248.846191,4272.820313,4310.641113,4243.461426,5394.615234,4684.358887,4495.128418,4625.769043,0.000000,0.000000,13.000000,,,,0.000000,4.000000,4.000000,4.000000,4.000000,4.000000,4.000000,4.000000,4.000000,4.000000,4.000000,4.000000,4.000000,4.000000,4.000000,100.000000,,,,,,,,,,,,,,,,,15.000000,0.000000,0.669135,0.056335,-0.700623,0.241272,0.979123,-0.280796,0.022952,-41.314880,-30.431440,44.339130,,,,,,,,,,,,,,,,,,,,,,,,,,,,,,,,,,,,,,,,,,,,,,,,,,,,,,,,,,,,,,,,,,,,,,,,,,,,,,,,,,,,,,,,,,,,,,,,,,,,,
1739355752.008243,1739355752.008405,61.000000,0.000000,4690.128418,4410.769043,4383.077148,6180.769043,4318.589844,4156.666504,4291.153809,4285.000000,4354.871582,4295.128418,5427.563965,4741.538574,4544.487305,4682.820313,0.000000,0.000000,13.000000,,,,0.000000,4.000000,4.000000,4.000000,4.000000,4.000000,4.000000,4.000000,4.000000,4.000000,4.000000,4.000000,4.000000,4.000000,4.000000,100.000000,,,,,,,,,,,,,,,,,,,,,,,,,,,,,,,,,,,,,,,,,,,,,,,,,,,,,,,,,,,,,,,,,,,,,,,,,,,,,,,,,,,,,,,,,,,,,,,,,,,,,,,,,,,,,,,,,,,,,,,,,,,,,,,,,
1739355752.016051,1739355752.016214,62.000000,0.000000,4644.615234,4355.897461,4338.717773,6104.871582,4269.615234,4098.589844,4242.563965,4257.307617,4314.743652,4271.153809,5375.000000,4682.179688,4500.384766,4632.692383,0.000000,0.000000,13.000000,,,,0.000000,4.000000,4.000000,4.000000,4.000000,4.000000,4.000000,4.000000,4.000000,4.000000,4.000000,4.000000,4.000000,4.000000,4.000000,100.000000,,,,,,,,,,,,,,,,,,,,,,,,,,,,,,,,,,,,,,,,,,,,,,,,,,,,,,,,,,,,,,,,,,,,,,,,,,,,,,,,,,,,,,,,,,,,,,,,,,,,,,,,,,,,,,,,,,,,,,,,,,,,,,,,,
1739355752.023859,1739355752.024122,63.000000,0.000000,4604.487305,4306.025879,4301.794922,6047.692383,4243.974121,4075.000000,4220.384766,4251.538574,4276.025879,4220.128418,5323.589844,4632.692383,4459.102539,4588.846191,0.000000,0.000000,13.000000,,,,0.000000,4.000000,4.000000,4.000000,4.000000,4.000000,4.000000,4.000000,4.000000,4.000000,4.000000,4.000000,4.000000,4.000000,4.000000,100.000000,,,,,,,,,,,,,,,,,,,,,,,,,,,,,,,,,,,,,,,,,,,,,,,,,,,,,,,,,,,,,,,,,,,,,,,,,,,,,,,,,,,,,,,,,,,,,,,,,,,,,,,,,,,,,,,,,,,,,,,,,,,,,,,,,
1739355752.031667,1739355752.031930,64.000000,0.000000,4669.230957,4378.077148,4347.436035,6099.102539,4300.384766,4140.000000,4267.179688,4273.717773,4313.717773,4248.077148,5351.922852,4686.794922,4509.358887,4644.230957,5187.000000,0.000000,13.000000,,,,0.000000,4.000000,4.000000,4.000000,4.000000,4.000000,4.000000,4.000000,4.000000,4.000000,4.000000,4.000000,4.000000,4.000000,4.000000,100.000000,,,,,,,,,,,,,,,,,16.000000,0.000000,0.668896,0.055664,-0.700989,0.241028,0.987425,-0.274448,0.014162,-41.416725,-30.654963,44.205215,,,,,,,,,,,,,,,,,,,,,,,,,,,,,,,,,,,,,,,,,,,,,,,,,,,,,,,,,,,,,,,,,,,,,,,,,,,,,,,,,,,,,,,,,,,,,,,,,,,,,
1739355752.039475,1739355752.039838,65.000000,0.000000,4681.538574,4399.358887,4342.436035,6079.871582,4318.333496,4138.974121,4249.871582,4265.000000,4336.794922,4281.410156,5344.615234,4687.436035,4518.589844,4647.436035,5502.000000,0.000000,13.000000,,,,0.000000,4.000000,4.000000,4.000000,4.000000,4.000000,4.000000,4.000000,4.000000,4.000000,4.000000,4.000000,4.000000,4.000000,4.000000,100.000000,,,,,,,,,,,,,,,,,,,,,,,,,,,,,,,,,,,,,,,,,,,,,,,,,,,,,,,,,,,,,,,,,,,,,,,,,,,,,,,,,,,,,,,,,,,,,,,,,,,,,,,,,,,,,,,,,,,,,,,,,,,,,,,,,
1739355752.047284,1739355752.047646,66.000000,0.000000,4624.871582,4338.077148,4288.717773,5996.794922,4265.384766,4090.512939,4208.333496,4248.846191,4304.743652,4245.000000,5285.769043,4624.615234,4467.692383,4591.025879,5731.000000,0.000000,13.000000,,,,0.000000,4.000000,4.000000,4.000000,4.000000,4.000000,4.000000,4.000000,4.000000,4.000000,4.000000,4.000000,4.000000,4.000000,4.000000,100.000000,,,,,,,,,,,,,,,,,,,,,,,,,,,,,,,,,,,,,,,,,,,,,,,,,,,,,,,,,,,,,,,,,,,,,,,,,,,,,,,,,,,,,,,,,,,,,,,,,,,,,,,,,,,,,,,,,,,,,,,,,,,,,,,,,
1739355752.055092,1739355752.055554,67.000000,0.000000,4649.487305,4358.077148,4311.282227,6006.282227,4272.051270,4117.563965,4245.384766,4262.179688,4303.461426,4230.641113,5288.717773,4646.538574,4488.846191,4622.563965,5709.000000,0.000000,13.000000,,,,0.000000,4.000000,4.000000,4.000000,4.000000,4.000000,4.000000,4.000000,4.000000,4.000000,4.000000,4.000000,4.000000,4.000000,4.000000,100.000000,,,,,,,,,,,,,,,,,,,,,,,,,,,,,,,,,,,,,,,,,,,,,,,,,,,,,,,,,,,,,,,,,,,,,,,,,,,,,,,,,,,,,,,,,,,,,,,,,,,,,,,,,,,,,,,,,,,,,,,,,,,,,,,,,
1739355752.062900,1739355752.063363,68.000000,0.000000,4668.333496,4385.641113,4326.410156,6001.153809,4300.256348,4131.794922,4248.461426,4261.794922,4310.256348,4241.666504,5284.743652,4663.461426,4507.692383,4646.025879,5671.000000,0.000000,13.000000,,,,0.000000,4.000000,4.000000,4.000000,4.000000,4.000000,4.000000,4.000000,4.000000,4.000000,4.000000,4.000000,4.000000,4.000000,4.000000,100.000000,,,,,,,,,,,,,,,,,17.000000,0.000000,0.668238,0.055176,-0.701843,0.240479,1.006471,-0.252961,0.014650,-41.475056,-30.689466,44.084694,,,,,,,,,,,,,,,,,,,,,,,,,,,,,,,,,,,,,,,,,,,,,,,,,,,,,,,,,,,,,,,,,,,,,,,,,,,,,,,,,,,,,,,,,,,,,,,,,,,,,
1739355752.070708,1739355752.071271,69.000000,0.000000,4612.820313,4336.025879,4285.512695,5918.077148,4264.230957,4088.076904,4205.641113,4246.922852,4269.743652,4203.846191,5219.102539,4611.282227,4460.128418,4593.077148,5634.000000,0.000000,13.000000,,,,0.000000,4.000000,4.000000,4.000000,4.000000,4.000000,4.000000,4.000000,4.000000,4.000000,4.000000,4.000000,4.000000,4.000000,4.000000,100.000000,,,,,,,,,,,,,,,,,,,,,,,,,,,,,,,,,,,,,,,,,,,,,,,,,,,,,,,,,,,,,,,,,,,,,,,,,,,,,,,,,,,,,,,,,,,,,,,,,,,,,,,,,,,,,,,,,,,,,,,,,,,,,,,,,
1739355752.078516,1739355752.079079,70.000000,0.000000,4610.000000,4324.358887,4290.769043,5885.256348,4255.000000,4099.615234,4225.641113,4253.077148,4263.077148,4187.051270,5187.948730,4609.358887,4458.333496,4591.666504,5654.000000,0.000000,13.000000,,,,0.000000,4.000000,4.000000,4.000000,4.000000,4.000000,4.000000,4.000000,4.000000,4.000000,4.000000,4.000000,4.000000,4.000000,4.000000,100.000000,,,,,,,,,,,,,,,,,,,,,,,,,,,,,,,,,,,,,,,,,,,,,,,,,,,,,,,,,,,,,,,,,,,,,,,,,,,,,,,,,,,,,,,,,,,,,,,,,,,,,,,,,,,,,,,,,,,,,,,,,,,,,,,,,
1739355752.086324,1739355752.086987,71.000000,0.000000,4664.615234,4378.846191,4332.436035,5908.333496,4309.487305,4154.358887,4273.333496,4268.205078,4328.846191,4250.769043,5212.051270,4662.436035,4510.000000,4647.179688,2231.000000,0.000000,13.000000,,,,0.000000,4.000000,4.000000,4.000000,4.000000,4.000000,4.000000,4.000000,4.000000,4.000000,4.000000,4.000000,4.000000,4.000000,4.000000,100.000000,,,,,,,,,,,,,,,,,,,,,,,,,,,,,,,,,,,,,,,,,,,,,,,,,,,,,,,,,,,,,,,,,,,,,,,,,,,,,,,,,,,,,,,,,,,,,,,,,,,,,,,,,,,,,,,,,,,,,,,,,,,,,,,,,
1739355752.094132,1739355752.094795,72.000000,0.000000,4651.538574,4379.487305,4315.769043,5874.102539,4306.922852,4147.051270,4259.615234,4254.871582,4336.794922,4261.153809,5186.410156,4649.743652,4497.948730,4636.922852,5394.000000,0.000000,13.000000,,,,0.000000,4.000000,4.000000,4.000000,4.000000,4.000000,4.000000,4.000000,4.000000,4.000000,4.000000,4.000000,4.000000,4.000000,4.000000,100.000000,1.000000,8.333333,1.000000,1.000000,1.000000,0.000000,1.000000,1.000000,1.000000,4.000000,3.000000,1.000000,0.000000,1.000000,1.000000,1.000000,18.000000,0.000000,0.667034,0.056030,-0.703003,0.240234,0.952753,-0.250031,-0.006837,-41.460880,-30.653852,44.009560,,,,,,,,,,,,,,,,,,,,,,,,,,,,,,,,7.662415,8.492876,1.841399,0.674660,0.859071,4.231742,5.110677,1.415125,0.706959,0.977043,7.579241,7.602960,1.854439,0.648544,0.801097,23.927731,15.143098,2.823842,1.396391,1.192533,3.584375,2.900458,0.974343,1.081038,0.939943,3.402978,1.322492,0.623983,0.394951,0.644856,4.369476,2.136690,1.323982,0.995227,0.884249,4.192054,1.345973,0.504113,0.304738,0.131624,4.824790,5.826828,1.171113,0.745359,0.888080,6.936112,9.968040,1.155550,0.990322,1.092041,23.128513,8.764543,2.164599,0.691483,0.853620,17.568455,11.744424,2.782645,1.067007,1.229857,3.173110,6.154896,1.396749,0.604676,0.850760,7.514497,8.523190,1.834605,0.751232,0.832302
1739355752.101940,1739355752.102703,73.000000,0.000000,4587.692383,4319.871582,4263.974121,5777.948730,4247.179688,4108.205078,4212.436035,4230.769043,4258.589844,4179.487305,5105.641113,4579.230957,4436.282227,4573.589844,5818.000000,0.000000,13.000000,,,,0.000000,4.000000,4.000000,4.000000,4.000000,4.000000,4.000000,4.000000,4.000000,4.000000,4.000000,4.000000,4.000000,4.000000,4.000000,100.000000,,,,,,,,,,,,,,,,,,,,,,,,,,,,,,,,,,,,,,,,,,,,,,,,,,,,,,,,,,,,,,,,,,,,,,,,,,,,,,,,,,,,,,,,,,,,,,,,,,,,,,,,,,,,,,,,,,,,,,,,,,,,,,,,,
1739355752.109748,1739355752.110511,74.000000,0.000000,4591.794922,4317.820313,4272.307617,5748.461426,4260.769043,4126.538574,4219.487305,4241.794922,4261.538574,4178.077148,5090.769043,4584.615234,4445.641113,4580.000000,5111.000000,0.000000,13.000000,,,,0.000000,4.000000,4.000000,4.000000,4.000000,4.000000,4.000000,4.000000,4.000000,4.000000,4.000000,4.000000,4.000000,4.000000,4.000000,100.000000,,,,,,,,,,,,,,,,,,,,,,,,,,,,,,,,,,,,,,,,,,,,,,,,,,,,,,,,,,,,,,,,,,,,,,,,,,,,,,,,,,,,,,,,,,,,,,,,,,,,,,,,,,,,,,,,,,,,,,,,,,,,,,,,,
1739355752.117556,1739355752.118219,75.000000,0.000000,4630.512695,4353.333496,4308.589844,5781.282227,4302.179688,4150.000000,4260.897461,4259.102539,4320.512695,4232.051270,5113.589844,4632.820313,4484.230957,4623.205078,5719.000000,0.000000,13.000000,,,,0.000000,4.000000,4.000000,4.000000,4.000000,4.000000,4.000000,4.000000,4.000000,4.000000,4.000000,4.000000,4.000000,4.000000,4.000000,100.000000,,,,,,,,,,,,,,,,,,,,,,,,,,,,,,,,,,,,,,,,,,,,,,,,,,,,,,,,,,,,,,,,,,,,,,,,,,,,,,,,,,,,,,,,,,,,,,,,,,,,,,,,,,,,,,,,,,,,,,,,,,,,,,,,,
1739355752.125364,1739355752.126128,76.000000,0.000000,4625.128418,4353.974121,4305.769043,5757.692383,4285.128418,4131.025879,4271.410156,4247.179688,4310.769043,4218.333496,5088.077148,4628.077148,4475.128418,4617.051270,5666.000000,0.000000,13.000000,,,,0.000000,4.000000,4.000000,4.000000,4.000000,4.000000,4.000000,4.000000,4.000000,4.000000,4.000000,4.000000,4.000000,4.000000,4.000000,100.000000,,,,,,,,,,,,,,,,,19.000000,0.000000,0.666384,0.057434,-0.703735,0.239563,0.959590,-0.255402,-0.003907,-41.548126,-30.721802,43.875271,,,,,,,,,,,,,,,,,,,,,,,,,,,,,,,,,,,,,,,,,,,,,,,,,,,,,,,,,,,,,,,,,,,,,,,,,,,,,,,,,,,,,,,,,,,,,,,,,,,,,
1739355752.133172,1739355752.133936,77.000000,0.000000,4595.128418,4331.282227,4274.230957,5696.282227,4265.000000,4118.205078,4230.641113,4225.512695,4285.384766,4192.436035,5041.153809,4589.871582,4447.692383,4583.846191,6758.000000,0.000000,13.000000,,,,0.000000,4.000000,4.000000,4.000000,4.000000,4.000000,4.000000,4.000000,4.000000,4.000000,4.000000,4.000000,4.000000,4.000000,4.000000,100.000000,,,,,,,,,,,,,,,,,,,,,,,,,,,,,,,,,,,,,,,,,,,,,,,,,,,,,,,,,,,,,,,,,,,,,,,,,,,,,,,,,,,,,,,,,,,,,,,,,,,,,,,,,,,,,,,,,,,,,,,,,,,,,,,,,
1739355752.140981,1739355752.141844,78.000000,0.000000,4575.256348,4311.410156,4244.487305,5685.128418,4261.922852,4119.871582,4194.871582,4208.461426,4281.153809,4183.077148,5008.846191,4560.256348,4426.282227,4561.410156,5111.000000,0.000000,13.000000,,,,0.000000,4.000000,4.000000,4.000000,4.000000,4.000000,4.000000,4.000000,4.000000,4.000000,4.000000,4.000000,4.000000,4.000000,4.000000,100.000000,,,,,,,,,,,,,,,,,,,,,,,,,,,,,,,,,,,,,,,,,,,,,,,,,,,,,,,,,,,,,,,,,,,,,,,,,,,,,,,,,,,,,,,,,,,,,,,,,,,,,,,,,,,,,,,,,,,,,,,,,,,,,,,,,
1739355752.148789,1739355752.149652,79.000000,0.000000,4622.179688,4355.128418,4275.897461,5742.051270,4291.538574,4150.641113,4252.692383,4210.897461,4309.487305,4220.512695,5029.615234,4602.436035,4457.179688,4599.102539,5719.000000,0.000000,13.000000,,,,0.000000,4.000000,4.000000,4.000000,4.000000,4.000000,4.000000,4.000000,4.000000,4.000000,4.000000,4.000000,4.000000,4.000000,4.000000,100.000000,,,,,,,,,,,,,,,,,,,,,,,,,,,,,,,,,,,,,,,,,,,,,,,,,,,,,,,,,,,,,,,,,,,,,,,,,,,,,,,,,,,,,,,,,,,,,,,,,,,,,,,,,,,,,,,,,,,,,,,,,,,,,,,,,
1739355752.156597,1739355752.157460,80.000000,0.000000,4661.410156,4400.512695,4292.563965,5747.692383,4321.410156,4176.153809,4297.436035,4191.025879,4327.563965,4258.461426,5032.307617,4630.512695,4478.333496,4618.589844,5666.000000,0.000000,13.000000,,,,0.000000,4.000000,4.000000,4.000000,4.000000,4.000000,4.000000,4.000000,4.000000,4.000000,4.000000,4.000000,4.000000,4.000000,4.000000,100.000000,,,,,,,,,,,,,,,,,20.000000,0.000000,0.666168,0.059021,-0.704285,0.238159,0.977658,-0.236845,-0.009767,-41.543316,-30.749620,43.837742,,,,,,,,,,,,,,,,,,,,,,,,,,,,,,,,,,,,,,,,,,,,,,,,,,,,,,,,,,,,,,,,,,,,,,,,,,,,,,,,,,,,,,,,,,,,,,,,,,,,,
1739355752.164405,1739355752.165169,81.000000,0.000000,4597.436035,4345.897461,4202.051270,5653.589844,4289.230957,4145.897461,4228.333496,4118.333496,4283.846191,4202.051270,4942.051270,4543.717773,4408.333496,4531.410156,6758.000000,0.000000,13.000000,,,,0.000000,4.000000,4.000000,4.000000,4.000000,4.000000,4.000000,4.000000,4.000000,4.000000,4.000000,4.000000,4.000000,4.000000,4.000000,100.000000,,,,,,,,,,,,,,,,,,,,,,,,,,,,,,,,,,,,,,,,,,,,,,,,,,,,,,,,,,,,,,,,,,,,,,,,,,,,,,,,,,,,,,,,,,,,,,,,,,,,,,,,,,,,,,,,,,,,,,,,,,,,,,,,,
1739355752.172213,1739355752.172977,82.000000,0.000000,4559.102539,4300.641113,4157.051270,5596.025879,4248.974121,4120.512695,4194.743652,4102.820313,4263.974121,4168.846191,4895.897461,4501.922852,4375.128418,4488.333496,5111.000000,0.000000,13.000000,,,,0.000000,4.000000,4.000000,4.000000,4.000000,4.000000,4.000000,4.000000,4.000000,4.000000,4.000000,4.000000,4.000000,4.000000,4.000000,100.000000,,,,,,,,,,,,,,,,,,,,,,,,,,,,,,,,,,,,,,,,,,,,,,,,,,,,,,,,,,,,,,,,,,,,,,,,,,,,,,,,,,,,,,,,,,,,,,,,,,,,,,,,,,,,,,,,,,,,,,,,,,,,,,,,,
1739355752.180021,1739355752.180685,83.000000,0.000000,4603.846191,4336.410156,4237.179688,5607.436035,4267.051270,4138.717773,4251.153809,4181.282227,4290.769043,4211.666504,4947.051270,4574.615234,4434.487305,4562.051270,5719.000000,0.000000,13.000000,,,,0.000000,4.000000,4.000000,4.000000,4.000000,4.000000,4.000000,4.000000,4.000000,4.000000,4.000000,4.000000,4.000000,4.000000,4.000000,100.000000,,,,,,,,,,,,,,,,,,,,,,,,,,,,,,,,,,,,,,,,,,,,,,,,,,,,,,,,,,,,,,,,,,,,,,,,,,,,,,,,,,,,,,,,,,,,,,,,,,,,,,,,,,,,,,,,,,,,,,,,,,,,,,,,,
1739355752.187829,1739355752.188493,84.000000,0.000000,4611.794922,4349.230957,4285.256348,5586.538574,4284.230957,4149.615234,4265.897461,4232.820313,4291.538574,4205.641113,4951.538574,4606.666504,4461.153809,4599.230957,5666.000000,0.000000,13.000000,,,,0.000000,4.000000,4.000000,4.000000,4.000000,4.000000,4.000000,4.000000,4.000000,4.000000,4.000000,4.000000,4.000000,4.000000,4.000000,100.000000,,,,,,,,,,,,,,,,,21.000000,0.000000,0.665709,0.060608,-0.705139,0.236511,0.945428,-0.229032,-0.026859,-41.538982,-30.641325,43.803967,,,,,,,,,,,,,,,,,,,,,,,,,,,,,,,,,,,,,,,,,,,,,,,,,,,,,,,,,,,,,,,,,,,,,,,,,,,,,,,,,,,,,,,,,,,,,,,,,,,,,
1739355752.195637,1739355752.196201,85.000000,0.000000,4579.358887,4323.461426,4258.077148,5527.051270,4265.128418,4137.692383,4223.974121,4218.077148,4274.871582,4163.461426,4892.051270,4571.794922,4436.538574,4567.051270,6758.000000,0.000000,13.000000,,,,0.000000,4.000000,4.000000,4.000000,4.000000,4.000000,4.000000,4.000000,4.000000,4.000000,4.000000,4.000000,4.000000,4.000000,4.000000,100.000000,,,,,,,,,,,,,,,,,,,,,,,,,,,,,,,,,,,,,,,,,,,,,,,,,,,,,,,,,,,,,,,,,,,,,,,,,,,,,,,,,,,,,,,,,,,,,,,,,,,,,,,,,,,,,,,,,,,,,,,,,,,,,,,,,
1739355752.203445,1739355752.204009,86.000000,0.000000,4567.820313,4310.897461,4251.922852,5480.256348,4254.487305,4122.051270,4196.794922,4217.051270,4266.538574,4161.794922,4864.102539,4559.230957,4430.769043,4560.000000,5111.000000,0.000000,13.000000,,,,0.000000,4.000000,4.000000,4.000000,4.000000,4.000000,4.000000,4.000000,4.000000,4.000000,4.000000,4.000000,4.000000,4.000000,4.000000,100.000000,,,,,,,,,,,,,,,,,,,,,,,,,,,,,,,,,,,,,,,,,,,,,,,,,,,,,,,,,,,,,,,,,,,,,,,,,,,,,,,,,,,,,,,,,,,,,,,,,,,,,,,,,,,,,,,,,,,,,,,,,,,,,,,,,
1739355752.211253,1739355752.211717,87.000000,0.000000,4561.794922,4303.974121,4269.487305,5438.333496,4248.333496,4115.128418,4198.974121,4243.846191,4261.538574,4163.974121,4863.974121,4566.153809,4433.974121,4573.205078,5719.000000,0.000000,13.000000,,,,0.000000,4.000000,4.000000,4.000000,4.000000,4.000000,4.000000,4.000000,4.000000,4.000000,4.000000,4.000000,4.000000,4.000000,4.000000,100.000000,,,,,,,,,,,,,,,,,,,,,,,,,,,,,,,,,,,,,,,,,,,,,,,,,,,,,,,,,,,,,,,,,,,,,,,,,,,,,,,,,,,,,,,,,,,,,,,,,,,,,,,,,,,,,,,,,,,,,,,,,,,,,,,,,
1739355752.219061,1739355752.219625,88.000000,0.000000,4561.666504,4307.307617,4282.436035,5406.282227,4248.205078,4132.948730,4217.692383,4254.487305,4276.922852,4171.410156,4858.461426,4576.025879,4440.897461,4583.974121,5666.000000,0.000000,13.000000,,,,0.000000,4.000000,4.000000,4.000000,4.000000,4.000000,4.000000,4.000000,4.000000,4.000000,4.000000,4.000000,4.000000,4.000000,4.000000,100.000000,,,,,,,,,,,,,,,,,22.000000,0.000000,0.665182,0.062805,-0.705994,0.234863,0.932243,-0.223172,-0.030277,-41.735085,-30.943859,43.623569,,,,,,,,,,,,,,,,,,,,,,,,,,,,,,,,10.711670,8.410242,1.889350,0.924224,1.120442,5.121166,5.054148,1.888938,0.876936,1.195683,8.608274,7.811936,1.831165,0.813244,1.041093,31.902861,17.167097,3.253749,1.935141,1.459257,4.330272,2.995464,1.090973,1.519140,1.235350,4.112458,1.411229,0.677733,0.461383,0.880169,5.107046,2.471939,1.344511,1.237386,1.231737,3.307695,0.894023,0.349678,0.282326,0.157095,5.451774,5.361848,1.071451,0.843290,1.194552,8.139978,9.644778,1.180102,1.300770,1.618843,29.498226,9.344620,2.410807,0.871592,1.148099,19.034452,11.813399,2.682286,1.251129,1.500441,4.089062,6.127310,1.339257,0.687661,1.164083,8.313254,8.589512,1.848165,0.948812,1.083437
1739355752.226869,1739355752.227433,89.000000,0.000000,4565.384766,4316.922852,4296.666504,5377.820313,4262.820313,4142.820313,4214.230957,4261.282227,4283.589844,4183.077148,4849.871582,4582.307617,4452.563965,4596.922852,6758.000000,0.000000,13.000000,,,,0.000000,4.000000,4.000000,4.000000,4.000000,4.000000,4.000000,4.000000,4.000000,4.000000,4.000000,4.000000,4.000000,4.000000,4.000000,100.000000,,,,,,,,,,,,,,,,,,,,,,,,,,,,,,,,,,,,,,,,,,,,,,,,,,,,,,,,,,,,,,,,,,,,,,,,,,,,,,,,,,,,,,,,,,,,,,,,,,,,,,,,,,,,,,,,,,,,,,,,,,,,,,,,,
1739355752.234677,1739355752.235341,90.000000,0.000000,4565.641113,4316.282227,4321.410156,5330.769043,4250.000000,4120.128418,4214.871582,4290.128418,4270.256348,4164.743652,4849.871582,4593.974121,4454.102539,4615.384766,5111.000000,0.000000,13.000000,,,,0.000000,4.000000,4.000000,4.000000,4.000000,4.000000,4.000000,4.000000,4.000000,4.000000,4.000000,4.000000,4.000000,4.000000,4.000000,100.000000,,,,,,,,,,,,,,,,,,,,,,,,,,,,,,,,,,,,,,,,,,,,,,,,,,,,,,,,,,,,,,,,,,,,,,,,,,,,,,,,,,,,,,,,,,,,,,,,,,,,,,,,,,,,,,,,,,,,,,,,,,,,,,,,,
1739355752.242486,1739355752.243149,91.000000,0.000000,4561.153809,4303.846191,4340.000000,5275.512695,4213.077148,4112.948730,4240.256348,4310.512695,4271.282227,4151.538574,4845.897461,4605.769043,4455.256348,4628.589844,5719.000000,0.000000,13.000000,,,,0.000000,4.000000,4.000000,4.000000,4.000000,4.000000,4.000000,4.000000,4.000000,4.000000,4.000000,4.000000,4.000000,4.000000,4.000000,100.000000,,,,,,,,,,,,,,,,,,,,,,,,,,,,,,,,,,,,,,,,,,,,,,,,,,,,,,,,,,,,,,,,,,,,,,,,,,,,,,,,,,,,,,,,,,,,,,,,,,,,,,,,,,,,,,,,,,,,,,,,,,,,,,,,,
1739355752.250294,1739355752.251057,92.000000,0.000000,4523.974121,4273.205078,4311.410156,5213.333496,4201.153809,4121.025879,4211.666504,4294.358887,4257.436035,4135.512695,4799.871582,4566.794922,4445.897461,4598.589844,5666.000000,0.000000,13.000000,,,,0.000000,4.000000,4.000000,4.000000,4.000000,4.000000,4.000000,4.000000,4.000000,4.000000,4.000000,4.000000,4.000000,4.000000,4.000000,100.000000,,,,,,,,,,,,,,,,,23.000000,0.000000,0.665169,0.063843,-0.706177,0.234070,0.971310,-0.254426,-0.034672,-41.694908,-30.799473,43.511215,,,,,,,,,,,,,,,,,,,,,,,,,,,,,,,,,,,,,,,,,,,,,,,,,,,,,,,,,,,,,,,,,,,,,,,,,,,,,,,,,,,,,,,,,,,,,,,,,,,,,
1739355752.258102,1739355752.258866,93.000000,0.000000,4508.974121,4272.948730,4294.487305,5177.179688,4234.102539,4130.512695,4173.461426,4286.153809,4250.769043,4131.922852,4776.153809,4545.769043,4443.589844,4580.000000,6758.000000,0.000000,13.000000,,,,0.000000,4.000000,4.000000,4.000000,4.000000,4.000000,4.000000,4.000000,4.000000,4.000000,4.000000,4.000000,4.000000,4.000000,4.000000,100.000000,,,,,,,,,,,,,,,,,,,,,,,,,,,,,,,,,,,,,,,,,,,,,,,,,,,,,,,,,,,,,,,,,,,,,,,,,,,,,,,,,,,,,,,,,,,,,,,,,,,,,,,,,,,,,,,,,,,,,,,,,,,,,,,,,
1739355752.265910,1739355752.266774,94.000000,0.000000,4548.077148,4314.102539,4331.025879,5182.563965,4263.077148,4141.922852,4206.922852,4301.153809,4281.282227,4170.000000,4797.692383,4591.538574,4465.384766,4613.974121,5111.000000,0.000000,13.000000,,,,0.000000,4.000000,4.000000,4.000000,4.000000,4.000000,4.000000,4.000000,4.000000,4.000000,4.000000,4.000000,4.000000,4.000000,4.000000,100.000000,,,,,,,,,,,,,,,,,,,,,,,,,,,,,,,,,,,,,,,,,,,,,,,,,,,,,,,,,,,,,,,,,,,,,,,,,,,,,,,,,,,,,,,,,,,,,,,,,,,,,,,,,,,,,,,,,,,,,,,,,,,,,,,,,
1739355752.273718,1739355752.274582,95.000000,0.000000,4549.615234,4306.538574,4342.820313,5165.641113,4237.179688,4128.333496,4234.487305,4301.666504,4273.846191,4164.358887,4775.256348,4599.102539,4451.794922,4614.871582,5719.000000,0.000000,13.000000,,,,0.000000,4.000000,4.000000,4.000000,4.000000,4.000000,4.000000,4.000000,4.000000,4.000000,4.000000,4.000000,4.000000,4.000000,4.000000,100.000000,,,,,,,,,,,,,,,,,,,,,,,,,,,,,,,,,,,,,,,,,,,,,,,,,,,,,,,,,,,,,,,,,,,,,,,,,,,,,,,,,,,,,,,,,,,,,,,,,,,,,,,,,,,,,,,,,,,,,,,,,,,,,,,,,
1739355752.281526,1739355752.282490,96.000000,0.000000,4538.077148,4289.102539,4343.205078,5141.025879,4224.102539,4129.487305,4228.717773,4303.205078,4249.487305,4126.282227,4751.666504,4591.666504,4435.256348,4605.000000,5666.000000,0.000000,13.000000,,,,0.000000,4.000000,4.000000,4.000000,4.000000,4.000000,4.000000,4.000000,4.000000,4.000000,4.000000,4.000000,4.000000,4.000000,4.000000,100.000000,,,,,,,,,,,,,,,,,24.000000,0.000000,0.665416,0.064392,-0.706177,0.233215,0.941033,-0.242705,-0.040532,-41.758751,-30.852859,43.293427,,,,,,,,,,,,,,,,,,,,,,,,,,,,,,,,,,,,,,,,,,,,,,,,,,,,,,,,,,,,,,,,,,,,,,,,,,,,,,,,,,,,,,,,,,,,,,,,,,,,,
1739355752.289334,1739355752.290298,97.000000,0.000000,4554.743652,4306.025879,4356.666504,5120.641113,4241.153809,4148.974121,4225.128418,4305.769043,4266.153809,4139.487305,4762.179688,4610.256348,4460.641113,4623.589844,6758.000000,0.000000,13.000000,,,,0.000000,4.000000,4.000000,4.000000,4.000000,4.000000,4.000000,4.000000,4.000000,4.000000,4.000000,4.000000,4.000000,4.000000,4.000000,100.000000,,,,,,,,,,,,,,,,,,,,,,,,,,,,,,,,,,,,,,,,,,,,,,,,,,,,,,,,,,,,,,,,,,,,,,,,,,,,,,,,,,,,,,,,,,,,,,,,,,,,,,,,,,,,,,,,,,,,,,,,,,,,,,,,,
1739355752.297142,1739355752.298006,98.000000,0.000000,4520.256348,4275.512695,4321.153809,5055.128418,4219.230957,4121.666504,4194.358887,4282.436035,4255.000000,4144.487305,4728.205078,4570.769043,4455.384766,4595.000000,5111.000000,0.000000,13.000000,,,,0.000000,4.000000,4.000000,4.000000,4.000000,4.000000,4.000000,4.000000,4.000000,4.000000,4.000000,4.000000,4.000000,4.000000,4.000000,100.000000,,,,,,,,,,,,,,,,,,,,,,,,,,,,,,,,,,,,,,,,,,,,,,,,,,,,,,,,,,,,,,,,,,,,,,,,,,,,,,,,,,,,,,,,,,,,,,,,,,,,,,,,,,,,,,,,,,,,,,,,,,,,,,,,,
1739355752.304950,1739355752.305814,99.000000,0.000000,4506.410156,4258.333496,4317.436035,5034.615234,4221.794922,4113.333496,4201.153809,4287.563965,4254.743652,4135.512695,4717.948730,4565.641113,4447.051270,4586.282227,5719.000000,0.000000,13.000000,,,,0.000000,4.000000,4.000000,4.000000,4.000000,4.000000,4.000000,4.000000,4.000000,4.000000,4.000000,4.000000,4.000000,4.000000,4.000000,100.000000,,,,,,,,,,,,,,,,,,,,,,,,,,,,,,,,,,,,,,,,,,,,,,,,,,,,,,,,,,,,,,,,,,,,,,,,,,,,,,,,,,,,,,,,,,,,,,,,,,,,,,,,,,,,,,,,,,,,,,,,,,,,,,,,,
1739355752.312758,1739355752.313522,100.000000,0.000000,4547.948730,4289.743652,4363.333496,5053.974121,4253.974121,4142.436035,4244.871582,4311.666504,4289.487305,4148.205078,4752.307617,4623.205078,4467.436035,4628.589844,5666.000000,0.000000,13.000000,,,,0.000000,4.000000,4.000000,4.000000,4.000000,4.000000,4.000000,4.000000,4.000000,4.000000,4.000000,4.000000,4.000000,4.000000,4.000000,100.000000,,,,,,,,,,,,,,,,,25.000000,0.000000,0.666000,0.063232,-0.705872,0.232788,1.015261,-0.254426,-0.019045,-41.816212,-30.950907,43.097416,,,,,,,,,,,,,,,,,,,,,,,,,,,,,,,,,,,,,,,,,,,,,,,,,,,,,,,,,,,,,,,,,,,,,,,,,,,,,,,,,,,,,,,,,,,,,,,,,,,,,
1739355752.320566,1739355752.321330,101.000000,0.000000,4531.410156,4274.487305,4341.794922,4997.307617,4234.358887,4128.846191,4225.897461,4291.153809,4272.179688,4140.512695,4727.563965,4598.717773,4455.512695,4612.179688,6758.000000,0.000000,13.000000,,,,0.000000,4.000000,4.000000,4.000000,4.000000,4.000000,4.000000,4.000000,4.000000,4.000000,4.000000,4.000000,4.000000,4.000000,4.000000,100.000000,,,,,,,,,,,,,,,,,,,,,,,,,,,,,,,,,,,,,,,,,,,,,,,,,,,,,,,,,,,,,,,,,,,,,,,,,,,,,,,,,,,,,,,,,,,,,,,,,,,,,,,,,,,,,,,,,,,,,,,,,,,,,,,,,
1739355752.328375,1739355752.329038,102.000000,0.000000,4492.307617,4238.333496,4307.179688,4944.358887,4208.461426,4115.769043,4204.358887,4279.487305,4236.538574,4127.179688,4694.230957,4556.282227,4428.846191,4577.307617,5111.000000,0.000000,13.000000,,,,0.000000,4.000000,4.000000,4.000000,4.000000,4.000000,4.000000,4.000000,4.000000,4.000000,4.000000,4.000000,4.000000,4.000000,4.000000,100.000000,,,,,,,,,,,,,,,,,,,,,,,,,,,,,,,,,,,,,,,,,,,,,,,,,,,,,,,,,,,,,,,,,,,,,,,,,,,,,,,,,,,,,,,,,,,,,,,,,,,,,,,,,,,,,,,,,,,,,,,,,,,,,,,,,
1739355752.336182,1739355752.336846,103.000000,0.000000,4506.666504,4253.589844,4326.794922,4952.820313,4228.077148,4148.589844,4225.000000,4296.153809,4242.692383,4142.051270,4713.717773,4577.051270,4440.384766,4590.384766,5719.000000,0.000000,13.000000,,,,0.000000,4.000000,4.000000,4.000000,4.000000,4.000000,4.000000,4.000000,4.000000,4.000000,4.000000,4.000000,4.000000,4.000000,4.000000,100.000000,,,,,,,,,,,,,,,,,,,,,,,,,,,,,,,,,,,,,,,,,,,,,,,,,,,,,,,,,,,,,,,,,,,,,,,,,,,,,,,,,,,,,,,,,,,,,,,,,,,,,,,,,,,,,,,,,,,,,,,,,,,,,,,,,
1739355752.343991,1739355752.344554,104.000000,0.000000,4527.307617,4283.077148,4343.077148,4937.179688,4233.461426,4163.974121,4252.563965,4293.333496,4271.666504,4164.102539,4736.282227,4594.871582,4463.205078,4607.179688,5666.000000,0.000000,13.000000,,,,0.000000,4.000000,4.000000,4.000000,4.000000,4.000000,4.000000,4.000000,4.000000,4.000000,4.000000,4.000000,4.000000,4.000000,4.000000,100.000000,,,,,,,,,,,,,,,,,26.000000,0.000000,0.666080,0.060303,-0.705811,0.233521,0.973752,-0.251984,-0.030765,-41.867924,-30.739149,43.054340,,,,,,,,,,,,,,,,,,,,,,,,,,,,,,,,13.392571,7.654798,1.999255,1.282507,1.585324,5.757332,4.493745,2.386940,1.055900,1.608893,9.601789,7.487221,1.910525,1.061944,1.427740,38.682648,18.740000,3.877621,2.561645,1.914782,4.745857,2.823526,1.295968,1.972877,1.708094,4.625591,1.414648,0.847034,0.600121,1.237724,5.480924,2.823290,1.537453,1.572033,1.771625,3.225786,0.734453,0.374320,0.314393,0.224403,5.637833,4.550029,1.034166,0.997902,1.643198,8.770176,8.516350,1.404625,1.655829,2.452285,32.163044,9.229014,2.614918,1.132317,1.607915,19.092852,10.953321,2.631913,1.516390,1.980089,4.819120,5.602529,1.350174,0.830563,1.640590,8.951539,7.901483,1.857269,1.215937,1.524740
1739355752.351799,1739355752.352362,105.000000,0.000000,4485.769043,4250.512695,4309.102539,4863.974121,4204.743652,4125.769043,4239.743652,4268.846191,4261.025879,4145.000000,4705.769043,4553.974121,4433.589844,4570.000000,6758.000000,0.000000,13.000000,,,,0.000000,4.000000,4.000000,4.000000,4.000000,4.000000,4.000000,4.000000,4.000000,4.000000,4.000000,4.000000,4.000000,4.000000,4.000000,100.000000,,,,,,,,,,,,,,,,,,,,,,,,,,,,,,,,,,,,,,,,,,,,,,,,,,,,,,,,,,,,,,,,,,,,,,,,,,,,,,,,,,,,,,,,,,,,,,,,,,,,,,,,,,,,,,,,,,,,,,,,,,,,,,,,,
1739355752.359607,1739355752.360071,106.000000,0.000000,4444.615234,4218.461426,4279.615234,4821.666504,4216.666504,4103.846191,4196.666504,4255.256348,4233.333496,4136.153809,4679.230957,4513.333496,4408.589844,4534.358887,5111.000000,0.000000,13.000000,,,,0.000000,4.000000,4.000000,4.000000,4.000000,4.000000,4.000000,4.000000,4.000000,4.000000,4.000000,4.000000,4.000000,4.000000,4.000000,100.000000,,,,,,,,,,,,,,,,,,,,,,,,,,,,,,,,,,,,,,,,,,,,,,,,,,,,,,,,,,,,,,,,,,,,,,,,,,,,,,,,,,,,,,,,,,,,,,,,,,,,,,,,,,,,,,,,,,,,,,,,,,,,,,,,,
1739355752.367415,1739355752.367878,107.000000,0.000000,4470.128418,4252.692383,4301.538574,4841.153809,4251.538574,4132.563965,4196.153809,4260.128418,4245.769043,4161.025879,4712.051270,4532.051270,4437.948730,4556.153809,5719.000000,0.000000,13.000000,,,,0.000000,4.000000,4.000000,4.000000,4.000000,4.000000,4.000000,4.000000,4.000000,4.000000,4.000000,4.000000,4.000000,4.000000,4.000000,100.000000,,,,,,,,,,,,,,,,,,,,,,,,,,,,,,,,,,,,,,,,,,,,,,,,,,,,,,,,,,,,,,,,,,,,,,,,,,,,,,,,,,,,,,,,,,,,,,,,,,,,,,,,,,,,,,,,,,,,,,,,,,,,,,,,,
1739355752.375223,1739355752.375587,108.000000,0.000000,4507.692383,4287.820313,4343.077148,4862.179688,4236.538574,4155.128418,4259.487305,4274.487305,4277.563965,4159.358887,4751.282227,4585.256348,4451.410156,4589.230957,5666.000000,0.000000,13.000000,,,,0.000000,4.000000,4.000000,4.000000,4.000000,4.000000,4.000000,4.000000,4.000000,4.000000,4.000000,4.000000,4.000000,4.000000,4.000000,100.000000,,,,,,,,,,,,,,,,,27.000000,0.000000,0.665242,0.057617,-0.706299,0.235107,0.943963,-0.222195,-0.028324,-41.831131,-30.715235,42.932240,,,,,,,,,,,,,,,,,,,,,,,,,,,,,,,,,,,,,,,,,,,,,,,,,,,,,,,,,,,,,,,,,,,,,,,,,,,,,,,,,,,,,,,,,,,,,,,,,,,,,
1739355752.383031,1739355752.383395,109.000000,0.000000,4472.820313,4251.025879,4323.461426,4813.333496,4193.077148,4125.384766,4269.358887,4266.666504,4256.538574,4119.230957,4724.871582,4566.666504,4401.794922,4556.922852,6758.000000,0.000000,13.000000,,,,0.000000,4.000000,4.000000,4.000000,4.000000,4.000000,4.000000,4.000000,4.000000,4.000000,4.000000,4.000000,4.000000,4.000000,4.000000,100.000000,,,,,,,,,,,,,,,,,,,,,,,,,,,,,,,,,,,,,,,,,,,,,,,,,,,,,,,,,,,,,,,,,,,,,,,,,,,,,,,,,,,,,,,,,,,,,,,,,,,,,,,,,,,,,,,,,,,,,,,,,,,,,,,,,
1739355752.390839,1739355752.391103,110.000000,0.000000,4433.461426,4220.512695,4286.282227,4747.692383,4202.563965,4116.025879,4220.512695,4246.794922,4226.922852,4124.615234,4701.922852,4510.769043,4397.563965,4521.922852,5111.000000,0.000000,13.000000,,,,0.000000,4.000000,4.000000,4.000000,4.000000,4.000000,4.000000,4.000000,4.000000,4.000000,4.000000,4.000000,4.000000,4.000000,4.000000,100.000000,,,,,,,,,,,,,,,,,,,,,,,,,,,,,,,,,,,,,,,,,,,,,,,,,,,,,,,,,,,,,,,,,,,,,,,,,,,,,,,,,,,,,,,,,,,,,,,,,,,,,,,,,,,,,,,,,,,,,,,,,,,,,,,,,
1739355752.398647,1739355752.399011,111.000000,0.000000,4464.743652,4260.897461,4317.820313,4757.051270,4245.512695,4159.615234,4244.615234,4256.025879,4268.077148,4191.666504,4760.000000,4540.512695,4467.179688,4560.256348,5719.000000,0.000000,13.000000,,,,0.000000,4.000000,4.000000,4.000000,4.000000,4.000000,4.000000,4.000000,4.000000,4.000000,4.000000,4.000000,4.000000,4.000000,4.000000,100.000000,,,,,,,,,,,,,,,,,,,,,,,,,,,,,,,,,,,,,,,,,,,,,,,,,,,,,,,,,,,,,,,,,,,,,,,,,,,,,,,,,,,,,,,,,,,,,,,,,,,,,,,,,,,,,,,,,,,,,,,,,,,,,,,,,
1739355752.406455,1739355752.406819,112.000000,0.000000,4451.282227,4264.230957,4325.128418,4748.717773,4237.948730,4148.974121,4258.974121,4263.205078,4265.641113,4171.922852,4776.538574,4552.692383,4445.128418,4558.846191,5666.000000,0.000000,13.000000,,,,0.000000,4.000000,4.000000,4.000000,4.000000,4.000000,4.000000,4.000000,4.000000,4.000000,4.000000,4.000000,4.000000,4.000000,4.000000,100.000000,,,,,,,,,,,,,,,,,28.000000,0.000000,0.665053,0.058289,-0.705994,0.236389,0.954706,-0.265169,-0.000488,-41.931351,-30.827045,42.855682,,,,,,,,,,,,,,,,,,,,,,,,,,,,,,,,,,,,,,,,,,,,,,,,,,,,,,,,,,,,,,,,,,,,,,,,,,,,,,,,,,,,,,,,,,,,,,,,,,,,,
1739355752.414263,1739355752.414727,113.000000,0.000000,4409.487305,4233.205078,4302.307617,4700.897461,4206.538574,4113.846191,4234.487305,4258.333496,4225.769043,4121.922852,4745.384766,4517.563965,4387.563965,4524.230957,6758.000000,0.000000,13.000000,,,,0.000000,4.000000,4.000000,4.000000,4.000000,4.000000,4.000000,4.000000,4.000000,4.000000,4.000000,4.000000,4.000000,4.000000,4.000000,100.000000,,,,,,,,,,,,,,,,,,,,,,,,,,,,,,,,,,,,,,,,,,,,,,,,,,,,,,,,,,,,,,,,,,,,,,,,,,,,,,,,,,,,,,,,,,,,,,,,,,,,,,,,,,,,,,,,,,,,,,,,,,,,,,,,,
1739355752.422072,1739355752.422535,114.000000,0.000000,4448.205078,4252.820313,4336.922852,4707.563965,4212.051270,4145.641113,4273.333496,4271.282227,4266.025879,4179.230957,4798.205078,4550.000000,4434.871582,4561.282227,5111.000000,0.000000,13.000000,,,,0.000000,4.000000,4.000000,4.000000,4.000000,4.000000,4.000000,4.000000,4.000000,4.000000,4.000000,4.000000,4.000000,4.000000,4.000000,100.000000,,,,,,,,,,,,,,,,,,,,,,,,,,,,,,,,,,,,,,,,,,,,,,,,,,,,,,,,,,,,,,,,,,,,,,,,,,,,,,,,,,,,,,,,,,,,,,,,,,,,,,,,,,,,,,,,,,,,,,,,,,,,,,,,,
1739355752.429880,1739355752.430443,115.000000,0.000000,4476.282227,4268.589844,4354.487305,4717.179688,4247.051270,4172.692383,4293.846191,4273.974121,4297.820313,4218.205078,4858.077148,4578.461426,4464.487305,4586.666504,5719.000000,0.000000,13.000000,,,,0.000000,4.000000,4.000000,4.000000,4.000000,4.000000,4.000000,4.000000,4.000000,4.000000,4.000000,4.000000,4.000000,4.000000,4.000000,100.000000,,,,,,,,,,,,,,,,,,,,,,,,,,,,,,,,,,,,,,,,,,,,,,,,,,,,,,,,,,,,,,,,,,,,,,,,,,,,,,,,,,,,,,,,,,,,,,,,,,,,,,,,,,,,,,,,,,,,,,,,,,,,,,,,,
1739355752.437688,1739355752.438252,116.000000,0.000000,4418.461426,4236.153809,4295.128418,4663.077148,4258.333496,4130.256348,4214.487305,4245.769043,4232.948730,4161.410156,4830.769043,4512.051270,4405.641113,4532.948730,5666.000000,0.000000,13.000000,,,,0.000000,4.000000,4.000000,4.000000,4.000000,4.000000,4.000000,4.000000,4.000000,4.000000,4.000000,4.000000,4.000000,4.000000,4.000000,100.000000,,,,,,,,,,,,,,,,,29.000000,0.000000,0.665418,0.059204,-0.704895,0.238403,0.931754,-0.299841,0.012697,-42.004883,-30.811007,42.736782,,,,,,,,,,,,,,,,,,,,,,,,,,,,,,,,,,,,,,,,,,,,,,,,,,,,,,,,,,,,,,,,,,,,,,,,,,,,,,,,,,,,,,,,,,,,,,,,,,,,,
1739355752.445496,1739355752.446160,117.000000,0.000000,4397.436035,4226.410156,4277.307617,4630.000000,4226.410156,4096.922852,4185.000000,4235.512695,4193.974121,4139.743652,4821.282227,4480.769043,4390.000000,4516.025879,6758.000000,0.000000,13.000000,,,,0.000000,4.000000,4.000000,4.000000,4.000000,4.000000,4.000000,4.000000,4.000000,4.000000,4.000000,4.000000,4.000000,4.000000,4.000000,100.000000,,,,,,,,,,,,,,,,,,,,,,,,,,,,,,,,,,,,,,,,,,,,,,,,,,,,,,,,,,,,,,,,,,,,,,,,,,,,,,,,,,,,,,,,,,,,,,,,,,,,,,,,,,,,,,,,,,,,,,,,,,,,,,,,,
1739355752.453304,1739355752.453968,118.000000,0.000000,4437.820313,4249.487305,4319.487305,4639.358887,4201.282227,4114.102539,4237.436035,4251.410156,4234.230957,4184.230957,4882.436035,4529.487305,4420.512695,4557.307617,5111.000000,0.000000,13.000000,,,,0.000000,4.000000,4.000000,4.000000,4.000000,4.000000,4.000000,4.000000,4.000000,4.000000,4.000000,4.000000,4.000000,4.000000,4.000000,100.000000,,,,,,,,,,,,,,,,,,,,,,,,,,,,,,,,,,,,,,,,,,,,,,,,,,,,,,,,,,,,,,,,,,,,,,,,,,,,,,,,,,,,,,,,,,,,,,,,,,,,,,,,,,,,,,,,,,,,,,,,,,,,,,,,,
1739355752.461112,1739355752.461876,119.000000,0.000000,4436.025879,4247.179688,4317.948730,4621.922852,4209.871582,4126.025879,4231.410156,4248.589844,4245.256348,4184.743652,4916.666504,4537.820313,4411.538574,4555.512695,5719.000000,0.000000,13.000000,,,,0.000000,4.000000,4.000000,4.000000,4.000000,4.000000,4.000000,4.000000,4.000000,4.000000,4.000000,4.000000,4.000000,4.000000,4.000000,100.000000,,,,,,,,,,,,,,,,,,,,,,,,,,,,,,,,,,,,,,,,,,,,,,,,,,,,,,,,,,,,,,,,,,,,,,,,,,,,,,,,,,,,,,,,,,,,,,,,,,,,,,,,,,,,,,,,,,,,,,,,,,,,,,,,,
1739355752.468920,1739355752.469684,120.000000,0.000000,4422.820313,4244.871582,4303.717773,4597.948730,4219.230957,4126.922852,4205.512695,4239.615234,4228.077148,4166.282227,4926.794922,4521.410156,4400.897461,4543.717773,5666.000000,0.000000,13.000000,,,,0.000000,4.000000,4.000000,4.000000,4.000000,4.000000,4.000000,4.000000,4.000000,4.000000,4.000000,4.000000,4.000000,4.000000,4.000000,100.000000,,,,,,,,,,,,,,,,,30.000000,0.000000,0.665918,0.059753,-0.703796,0.240112,0.934196,-0.292028,-0.002442,-41.837727,-30.796574,42.796436,,,,,,,,,,,,,,,,,,,,,,,,,,,,,,,,15.174346,6.500444,2.197183,1.703700,2.285883,6.018962,3.594423,2.788937,1.217084,2.269474,9.962339,6.624160,2.054916,1.371349,2.010465,45.097298,19.258114,4.682491,3.149539,2.644528,4.650640,2.451447,1.561223,2.355208,2.383473,4.648293,1.348168,1.124746,0.815868,1.724160,5.340205,3.099517,1.863461,1.947349,2.527455,3.820142,0.849461,0.536666,0.419219,0.355732,5.324317,3.627817,1.091319,1.228919,2.212401,8.514915,6.863277,1.783085,2.022844,3.535501,33.365883,8.401603,2.682795,1.438362,2.240890,17.607414,9.308757,2.621739,1.820712,2.741480,5.070446,4.650871,1.404403,1.040095,2.276841,9.148597,6.579631,1.842163,1.530490,2.217262
1739355752.476728,1739355752.477492,121.000000,0.000000,4432.179688,4250.512695,4313.333496,4584.230957,4200.769043,4110.769043,4216.153809,4242.179688,4221.282227,4160.769043,4978.589844,4527.179688,4402.307617,4559.230957,6758.000000,0.000000,13.000000,,,,0.000000,4.000000,4.000000,4.000000,4.000000,4.000000,4.000000,4.000000,4.000000,4.000000,4.000000,4.000000,4.000000,4.000000,4.000000,100.000000,,,,,,,,,,,,,,,,,,,,,,,,,,,,,,,,,,,,,,,,,,,,,,,,,,,,,,,,,,,,,,,,,,,,,,,,,,,,,,,,,,,,,,,,,,,,,,,,,,,,,,,,,,,,,,,,,,,,,,,,,,,,,,,,,
1739355752.484536,1739355752.485300,122.000000,0.000000,4413.974121,4230.128418,4298.589844,4540.000000,4178.205078,4075.256348,4219.230957,4238.589844,4207.307617,4150.769043,5031.153809,4514.615234,4388.077148,4546.282227,5111.000000,0.000000,13.000000,,,,0.000000,4.000000,4.000000,4.000000,4.000000,4.000000,4.000000,4.000000,4.000000,4.000000,4.000000,4.000000,4.000000,4.000000,4.000000,100.000000,,,,,,,,,,,,,,,,,,,,,,,,,,,,,,,,,,,,,,,,,,,,,,,,,,,,,,,,,,,,,,,,,,,,,,,,,,,,,,,,,,,,,,,,,,,,,,,,,,,,,,,,,,,,,,,,,,,,,,,,,,,,,,,,,
1739355752.492344,1739355752.493008,123.000000,0.000000,4379.615234,4218.333496,4265.512695,4492.051270,4197.307617,4079.871826,4200.256348,4226.153809,4196.666504,4163.461426,5055.897461,4483.974121,4382.051270,4515.897461,5719.000000,0.000000,13.000000,,,,0.000000,4.000000,4.000000,4.000000,4.000000,4.000000,4.000000,4.000000,4.000000,4.000000,4.000000,4.000000,4.000000,4.000000,4.000000,100.000000,,,,,,,,,,,,,,,,,,,,,,,,,,,,,,,,,,,,,,,,,,,,,,,,,,,,,,,,,,,,,,,,,,,,,,,,,,,,,,,,,,,,,,,,,,,,,,,,,,,,,,,,,,,,,,,,,,,,,,,,,,,,,,,,,
1739355752.500152,1739355752.500816,124.000000,0.000000,4370.384766,4222.948730,4256.794922,4483.974121,4229.230957,4111.153809,4180.641113,4222.179688,4192.692383,4168.461426,5087.948730,4474.871582,4380.256348,4514.230957,5666.000000,0.000000,13.000000,,,,0.000000,4.000000,4.000000,4.000000,4.000000,4.000000,4.000000,4.000000,4.000000,4.000000,4.000000,4.000000,4.000000,4.000000,4.000000,100.000000,,,,,,,,,,,,,,,,,31.000000,0.000000,0.666079,0.060059,-0.703430,0.240662,0.915151,-0.312050,-0.010255,-41.737289,-30.950249,42.716793,,,,,,,,,,,,,,,,,,,,,,,,,,,,,,,,,,,,,,,,,,,,,,,,,,,,,,,,,,,,,,,,,,,,,,,,,,,,,,,,,,,,,,,,,,,,,,,,,,,,,
1739355752.507960,1739355752.508524,125.000000,0.000000,4373.846191,4206.025879,4265.769043,4473.205078,4204.358887,4100.512695,4196.922852,4230.641113,4207.179688,4169.487305,5118.077148,4488.974121,4381.794922,4523.077148,6758.000000,0.000000,13.000000,,,,0.000000,4.000000,4.000000,4.000000,4.000000,4.000000,4.000000,4.000000,4.000000,4.000000,4.000000,4.000000,4.000000,4.000000,4.000000,100.000000,,,,,,,,,,,,,,,,,,,,,,,,,,,,,,,,,,,,,,,,,,,,,,,,,,,,,,,,,,,,,,,,,,,,,,,,,,,,,,,,,,,,,,,,,,,,,,,,,,,,,,,,,,,,,,,,,,,,,,,,,,,,,,,,,
1739355752.515768,1739355752.516332,126.000000,0.000000,4370.641113,4195.384766,4269.487305,4444.615234,4186.666504,4089.871826,4223.717773,4237.436035,4231.666504,4186.282227,5107.179688,4504.871582,4381.153809,4519.871582,5111.000000,0.000000,13.000000,,,,0.000000,4.000000,4.000000,4.000000,4.000000,4.000000,4.000000,4.000000,4.000000,4.000000,4.000000,4.000000,4.000000,4.000000,4.000000,100.000000,,,,,,,,,,,,,,,,,,,,,,,,,,,,,,,,,,,,,,,,,,,,,,,,,,,,,,,,,,,,,,,,,,,,,,,,,,,,,,,,,,,,,,,,,,,,,,,,,,,,,,,,,,,,,,,,,,,,,,,,,,,,,,,,,
1739355752.523577,1739355752.524040,127.000000,0.000000,4346.410156,4202.563965,4247.563965,4417.820313,4206.153809,4101.666504,4192.692383,4224.358887,4211.153809,4187.051270,5082.563965,4477.820313,4358.717773,4497.692383,13.000000,0.000000,13.000000,,,,0.000000,4.000000,4.000000,4.000000,4.000000,4.000000,4.000000,4.000000,4.000000,4.000000,4.000000,4.000000,4.000000,4.000000,4.000000,100.000000,,,,,,,,,,,,,,,,,,,,,,,,,,,,,,,,,,,,,,,,,,,,,,,,,,,,,,,,,,,,,,,,,,,,,,,,,,,,,,,,,,,,,,,,,,,,,,,,,,,,,,,,,,,,,,,,,,,,,,,,,,,,,,,,,
1739355752.531385,1739355752.531848,0.000000,0.000000,4334.743652,4203.974121,4235.512695,4406.282227,4188.333496,4092.692383,4173.717773,4214.102539,4193.846191,4194.615234,5109.743652,4452.820313,4359.871582,4492.563965,5035.000000,0.000000,13.000000,,,,0.000000,4.000000,4.000000,4.000000,4.000000,4.000000,4.000000,4.000000,4.000000,4.000000,4.000000,4.000000,4.000000,4.000000,4.000000,100.000000,,,,,,,,,,,,,,,,,0.000000,0.000000,0.665824,0.059631,-0.703247,0.242004,0.899524,-0.308143,-0.001953,-41.663559,-30.905224,42.628448,,,,,,,,,,,,,,,,,,,,,,,,,,,,,,,,,,,,,,,,,,,,,,,,,,,,,,,,,,,,,,,,,,,,,,,,,,,,,,,,,,,,,,,,,,,,,,,,,,,,,
1739355752.539193,1739355752.539556,1.000000,0.000000,4343.205078,4196.666504,4249.487305,4404.487305,4162.820313,4069.230713,4195.769043,4212.948730,4216.922852,4207.307617,5135.512695,4467.051270,4367.948730,4504.230957,5564.000000,0.000000,13.000000,,,,0.000000,4.000000,4.000000,4.000000,4.000000,4.000000,4.000000,4.000000,4.000000,4.000000,4.000000,4.000000,4.000000,4.000000,4.000000,100.000000,,,,,,,,,,,,,,,,,,,,,,,,,,,,,,,,,,,,,,,,,,,,,,,,,,,,,,,,,,,,,,,,,,,,,,,,,,,,,,,,,,,,,,,,,,,,,,,,,,,,,,,,,,,,,,,,,,,,,,,,,,,,,,,,,
1739355752.547001,1739355752.547364,2.000000,0.000000,4325.769043,4184.230957,4239.871582,4385.897461,4185.769043,4057.564209,4174.871582,4203.077148,4212.563965,4178.717773,5123.717773,4461.282227,4335.641113,4489.743652,5591.000000,0.000000,13.000000,,,,0.000000,4.000000,4.000000,4.000000,4.000000,4.000000,4.000000,4.000000,4.000000,4.000000,4.000000,4.000000,4.000000,4.000000,4.000000,100.000000,,,,,,,,,,,,,,,,,,,,,,,,,,,,,,,,,,,,,,,,,,,,,,,,,,,,,,,,,,,,,,,,,,,,,,,,,,,,,,,,,,,,,,,,,,,,,,,,,,,,,,,,,,,,,,,,,,,,,,,,,,,,,,,,,
1739355752.554809,1739355752.555072,3.000000,0.000000,4291.282227,4169.743652,4210.256348,4357.820313,4196.922852,4055.897461,4130.769043,4193.461426,4181.538574,4143.846191,5138.717773,4422.051270,4324.230957,4462.179688,5586.000000,0.000000,13.000000,,,,0.000000,4.000000,4.000000,4.000000,4.000000,4.000000,4.000000,4.000000,4.000000,4.000000,4.000000,4.000000,4.000000,4.000000,4.000000,100.000000,,,,,,,,,,,,,,,,,,,,,,,,,,,,,,,,,,,,,,,,,,,,,,,,,,,,,,,,,,,,,,,,,,,,,,,,,,,,,,,,,,,,,,,,,,,,,,,,,,,,,,,,,,,,,,,,,,,,,,,,,,,,,,,,,
1739355752.562617,1739355752.562880,4.000000,0.000000,4284.358887,4164.358887,4211.153809,4361.538574,4172.692383,4064.487061,4131.410156,4204.230957,4177.692383,4164.358887,5192.692383,4413.974121,4350.512695,4460.641113,5636.000000,0.000000,13.000000,,,,0.000000,4.000000,4.000000,4.000000,4.000000,4.000000,4.000000,4.000000,4.000000,4.000000,4.000000,4.000000,4.000000,4.000000,4.000000,100.000000,,,,,,,,,,,,,,,,,1.000000,0.000000,0.665931,0.058777,-0.702881,0.242981,0.890734,-0.296911,-0.002442,-41.597202,-30.948034,42.498936,,,,,,,,,,,,,,,,,,,,,,,,,,,,,,,,,,,,,,,,,,,,,,,,,,,,,,,,,,,,,,,,,,,,,,,,,,,,,,,,,,,,,,,,,,,,,,,,,,,,,
1739355752.570425,1739355752.570588,5.000000,0.000000,4310.897461,4176.794922,4246.666504,4373.974121,4172.948730,4075.769287,4179.358887,4230.897461,4195.897461,4208.717773,5241.538574,4458.333496,4360.128418,4490.512695,5567.000000,0.000000,13.000000,,,,0.000000,4.000000,4.000000,4.000000,4.000000,4.000000,4.000000,4.000000,4.000000,4.000000,4.000000,4.000000,4.000000,4.000000,4.000000,100.000000,,,,,,,,,,,,,,,,,,,,,,,,,,,,,,,,,,,,,,,,,,,,,,,,,,,,,,,,,,,,,,,,,,,,,,,,,,,,,,,,,,,,,,,,,,,,,,,,,,,,,,,,,,,,,,,,,,,,,,,,,,,,,,,,,
1739355752.578233,1739355752.578497,6.000000,0.000000,4310.128418,4184.871582,4249.230957,4305.384766,4195.512695,4073.846191,4196.538574,4238.333496,4203.846191,4201.922852,5253.077148,4465.897461,4350.897461,4499.358887,5397.000000,0.000000,13.000000,,,,0.000000,4.000000,4.000000,4.000000,4.000000,4.000000,4.000000,4.000000,4.000000,4.000000,4.000000,4.000000,4.000000,4.000000,4.000000,100.000000,,,,,,,,,,,,,,,,,,,,,,,,,,,,,,,,,,,,,,,,,,,,,,,,,,,,,,,,,,,,,,,,,,,,,,,,,,,,,,,,,,,,,,,,,,,,,,,,,,,,,,,,,,,,,,,,,,,,,,,,,,,,,,,,,
1739355752.586041,1739355752.586305,7.000000,0.000000,4247.820313,4145.641113,4193.974121,4194.743652,4176.666504,4049.102539,4130.128418,4212.820313,4176.666504,4145.769043,5265.128418,4396.410156,4320.769043,4450.384766,2089.000000,0.000000,13.000000,,,,0.000000,4.000000,4.000000,4.000000,4.000000,4.000000,4.000000,4.000000,4.000000,4.000000,4.000000,4.000000,4.000000,4.000000,4.000000,100.000000,,,,,,,,,,,,,,,,,,,,,,,,,,,,,,,,,,,,,,,,,,,,,,,,,,,,,,,,,,,,,,,,,,,,,,,,,,,,,,,,,,,,,,,,,,,,,,,,,,,,,,,,,,,,,,,,,,,,,,,,,,,,,,,,,
1739355752.593849,1739355752.594213,8.000000,0.000000,4205.512695,4102.307617,4163.974121,4162.179688,4142.179688,4028.205078,4077.820557,4201.538574,4143.974121,4123.205078,5341.153809,4355.000000,4289.743652,4418.717773,5213.000000,0.000000,13.000000,,,,0.000000,4.000000,4.000000,4.000000,4.000000,4.000000,4.000000,4.000000,4.000000,4.000000,4.000000,4.000000,4.000000,4.000000,4.000000,100.000000,1.000000,8.333333,1.000000,1.000000,1.000000,0.000000,1.000000,1.000000,1.000000,1.000000,3.000000,1.000000,0.000000,1.000000,1.000000,1.000000,2.000000,0.000000,0.667239,0.059143,-0.701904,0.242126,0.915151,-0.282261,0.005372,-41.470818,-30.919899,42.582375,,,,,,,,,,,,,,,,,,,,,,,,,,,,,,,,15.290213,5.259070,2.428299,2.107231,3.208885,5.702740,2.621624,2.987785,1.338081,3.171986,9.693759,5.477428,2.172875,1.721207,2.812443,48.108070,18.387552,5.491832,3.582369,3.674394,3.988046,1.992733,1.813193,2.600707,3.224808,4.240427,1.227409,1.451302,1.081707,2.311976,4.684075,3.172643,2.204341,2.291736,3.487611,5.542963,1.303349,0.807772,0.633580,0.576831,4.434002,2.798492,1.214714,1.519313,2.857321,7.544285,5.069776,2.194961,2.353372,4.722952,31.181786,7.125354,2.536147,1.738545,3.030393,14.408281,7.254168,2.576176,2.120435,3.811727,4.810818,3.498713,1.431977,1.290301,3.040638,8.687362,4.978908,1.769648,1.861442,3.176831
1739355752.601658,1739355752.602021,9.000000,0.000000,4237.436035,4127.563965,4197.051270,4200.384766,4148.333496,4035.641113,4120.769043,4223.589844,4160.897461,4156.794922,5421.666504,4396.666504,4308.717773,4454.615234,5569.000000,0.000000,13.000000,,,,0.000000,4.000000,4.000000,4.000000,4.000000,4.000000,4.000000,4.000000,4.000000,4.000000,4.000000,4.000000,4.000000,4.000000,4.000000,100.000000,,,,,,,,,,,,,,,,,,,,,,,,,,,,,,,,,,,,,,,,,,,,,,,,,,,,,,,,,,,,,,,,,,,,,,,,,,,,,,,,,,,,,,,,,,,,,,,,,,,,,,,,,,,,,,,,,,,,,,,,,,,,,,,,,
1739355752.609465,1739355752.609929,10.000000,0.000000,4255.384766,4155.641113,4215.512695,4211.410156,4162.179688,4045.384521,4145.512695,4228.974121,4176.282227,4161.153809,5407.051270,4418.717773,4323.205078,4472.436035,4924.000000,0.000000,13.000000,,,,0.000000,4.000000,4.000000,4.000000,4.000000,4.000000,4.000000,4.000000,4.000000,4.000000,4.000000,4.000000,4.000000,4.000000,4.000000,100.000000,,,,,,,,,,,,,,,,,,,,,,,,,,,,,,,,,,,,,,,,,,,,,,,,,,,,,,,,,,,,,,,,,,,,,,,,,,,,,,,,,,,,,,,,,,,,,,,,,,,,,,,,,,,,,,,,,,,,,,,,,,,,,,,,,
1739355752.617273,1739355752.617737,11.000000,0.000000,4220.769043,4124.743652,4195.384766,4174.743652,4143.333496,4032.820557,4102.948730,4217.948730,4155.000000,4135.641113,5349.358887,4387.436035,4297.051270,4445.769043,5432.000000,0.000000,13.000000,,,,0.000000,4.000000,4.000000,4.000000,4.000000,4.000000,4.000000,4.000000,4.000000,4.000000,4.000000,4.000000,4.000000,4.000000,4.000000,100.000000,,,,,,,,,,,,,,,,,,,,,,,,,,,,,,,,,,,,,,,,,,,,,,,,,,,,,,,,,,,,,,,,,,,,,,,,,,,,,,,,,,,,,,,,,,,,,,,,,,,,,,,,,,,,,,,,,,,,,,,,,,,,,,,,,
1739355752.625082,1739355752.625645,12.000000,0.000000,4202.563965,4099.230957,4186.794922,4141.025879,4122.948730,4016.281982,4088.718018,4222.307617,4142.692383,4121.153809,5319.487305,4375.000000,4281.922852,4439.230957,5369.000000,0.000000,13.000000,,,,0.000000,4.000000,4.000000,4.000000,4.000000,4.000000,4.000000,4.000000,4.000000,4.000000,4.000000,4.000000,4.000000,4.000000,4.000000,100.000000,,,,,,,,,,,,,,,,,3.000000,0.000000,0.668345,0.057739,-0.700989,0.242065,0.967892,-0.305701,-0.002930,-41.290401,-30.961241,42.507473,,,,,,,,,,,,,,,,,,,,,,,,,,,,,,,,,,,,,,,,,,,,,,,,,,,,,,,,,,,,,,,,,,,,,,,,,,,,,,,,,,,,,,,,,,,,,,,,,,,,,
1739355752.632890,1739355752.633454,13.000000,0.000000,4230.512695,4128.077148,4205.897461,4151.538574,4139.487305,4026.025635,4119.871582,4232.307617,4159.487305,4130.384766,5309.358887,4401.666504,4305.000000,4466.153809,6399.000000,0.000000,13.000000,,,,0.000000,4.000000,4.000000,4.000000,4.000000,4.000000,4.000000,4.000000,4.000000,4.000000,4.000000,4.000000,4.000000,4.000000,4.000000,100.000000,,,,,,,,,,,,,,,,,,,,,,,,,,,,,,,,,,,,,,,,,,,,,,,,,,,,,,,,,,,,,,,,,,,,,,,,,,,,,,,,,,,,,,,,,,,,,,,,,,,,,,,,,,,,,,,,,,,,,,,,,,,,,,,,,
1739355752.640698,1739355752.641362,14.000000,0.000000,4268.589844,4169.358887,4236.794922,4182.436035,4178.589844,4063.076904,4145.128418,4236.410156,4188.205078,4172.948730,5311.666504,4443.589844,4338.205078,4498.589844,4924.000000,0.000000,13.000000,,,,0.000000,4.000000,4.000000,4.000000,4.000000,4.000000,4.000000,4.000000,4.000000,4.000000,4.000000,4.000000,4.000000,4.000000,4.000000,100.000000,,,,,,,,,,,,,,,,,,,,,,,,,,,,,,,,,,,,,,,,,,,,,,,,,,,,,,,,,,,,,,,,,,,,,,,,,,,,,,,,,,,,,,,,,,,,,,,,,,,,,,,,,,,,,,,,,,,,,,,,,,,,,,,,,
1739355752.648506,1739355752.649170,15.000000,0.000000,4251.153809,4159.743652,4229.871582,4155.128418,4184.230957,4067.179443,4120.000000,4226.794922,4182.051270,4175.000000,5272.436035,4436.282227,4324.358887,4487.307617,5432.000000,0.000000,13.000000,,,,0.000000,4.000000,4.000000,4.000000,4.000000,4.000000,4.000000,4.000000,4.000000,4.000000,4.000000,4.000000,4.000000,4.000000,4.000000,100.000000,,,,,,,,,,,,,,,,,,,,,,,,,,,,,,,,,,,,,,,,,,,,,,,,,,,,,,,,,,,,,,,,,,,,,,,,,,,,,,,,,,,,,,,,,,,,,,,,,,,,,,,,,,,,,,,,,,,,,,,,,,,,,,,,,
1739355752.656314,1739355752.657078,16.000000,0.000000,4212.563965,4121.410156,4202.179688,4104.615234,4153.333496,4037.564209,4095.384521,4218.333496,4164.743652,4137.563965,5176.153809,4403.846191,4295.256348,4458.974121,0.000000,0.000000,13.000000,,,,0.000000,4.000000,4.000000,4.000000,4.000000,4.000000,4.000000,4.000000,4.000000,4.000000,4.000000,4.000000,4.000000,4.000000,4.000000,100.000000,,,,,,,,,,,,,,,,,4.000000,0.000000,0.669986,0.056030,-0.699707,0.241638,0.987425,-0.283726,0.026859,-41.244694,-30.898451,42.456726,,,,,,,,,,,,,,,,,,,,,,,,,,,,,,,,,,,,,,,,,,,,,,,,,,,,,,,,,,,,,,,,,,,,,,,,,,,,,,,,,,,,,,,,,,,,,,,,,,,,,
1739355752.664122,1739355752.664886,17.000000,0.000000,4218.077148,4120.000000,4205.512695,4094.230713,4141.794922,4037.948730,4115.769043,4227.051270,4176.922852,4147.307617,5080.256348,4411.410156,4305.769043,4463.974121,0.000000,0.000000,13.000000,,,,0.000000,4.000000,4.000000,4.000000,4.000000,4.000000,4.000000,4.000000,4.000000,4.000000,4.000000,4.000000,4.000000,4.000000,4.000000,100.000000,,,,,,,,,,,,,,,,,,,,,,,,,,,,,,,,,,,,,,,,,,,,,,,,,,,,,,,,,,,,,,,,,,,,,,,,,,,,,,,,,,,,,,,,,,,,,,,,,,,,,,,,,,,,,,,,,,,,,,,,,,,,,,,,,
1739355752.671930,1739355752.672594,18.000000,0.000000,4235.769043,4146.794922,4221.153809,4092.179443,4160.000000,4063.333252,4135.512695,4235.897461,4191.282227,4179.871582,5007.948730,4433.589844,4325.769043,4477.179688,0.000000,0.000000,13.000000,,,,0.000000,4.000000,4.000000,4.000000,4.000000,4.000000,4.000000,4.000000,4.000000,4.000000,4.000000,4.000000,4.000000,4.000000,4.000000,100.000000,,,,,,,,,,,,,,,,,,,,,,,,,,,,,,,,,,,,,,,,,,,,,,,,,,,,,,,,,,,,,,,,,,,,,,,,,,,,,,,,,,,,,,,,,,,,,,,,,,,,,,,,,,,,,,,,,,,,,,,,,,,,,,,,,
1739355752.679738,1739355752.680402,19.000000,0.000000,4224.487305,4137.692383,4217.563965,4051.025635,4155.000000,4058.076904,4129.230957,4230.128418,4183.333496,4165.128418,4949.615234,4427.436035,4316.666504,4471.922852,0.000000,0.000000,13.000000,,,,0.000000,4.000000,4.000000,4.000000,4.000000,4.000000,4.000000,4.000000,4.000000,4.000000,4.000000,4.000000,4.000000,4.000000,4.000000,100.000000,,,,,,,,,,,,,,,,,,,,,,,,,,,,,,,,,,,,,,,,,,,,,,,,,,,,,,,,,,,,,,,,,,,,,,,,,,,,,,,,,,,,,,,,,,,,,,,,,,,,,,,,,,,,,,,,,,,,,,,,,,,,,,,,,
1739355752.687546,1739355752.688110,20.000000,0.000000,4219.615234,4119.102539,4214.358887,4006.153809,4139.230957,4044.871826,4126.282227,4228.717773,4177.820313,4144.230957,4906.922852,4424.487305,4315.000000,4475.641113,0.000000,0.000000,13.000000,,,,0.000000,4.000000,4.000000,4.000000,4.000000,4.000000,4.000000,4.000000,4.000000,4.000000,4.000000,4.000000,4.000000,4.000000,4.000000,100.000000,,,,,,,,,,,,,,,,,5.000000,0.000000,0.672562,0.053955,-0.697754,0.240601,0.982053,-0.293005,0.050299,-41.153557,-30.925272,42.461052,,,,,,,,,,,,,,,,,,,,,,,,,,,,,,,,,,,,,,,,,,,,,,,,,,,,,,,,,,,,,,,,,,,,,,,,,,,,,,,,,,,,,,,,,,,,,,,,,,,,,
1739355752.695354,1739355752.695918,21.000000,0.000000,4243.846191,4147.820313,4233.846191,3999.230713,4160.000000,4069.871826,4142.307617,4241.538574,4192.948730,4159.358887,4874.358887,4453.717773,4343.333496,4500.000000,0.000000,0.000000,13.000000,,,,0.000000,4.000000,4.000000,4.000000,4.000000,4.000000,4.000000,4.000000,4.000000,4.000000,4.000000,4.000000,4.000000,4.000000,4.000000,100.000000,,,,,,,,,,,,,,,,,,,,,,,,,,,,,,,,,,,,,,,,,,,,,,,,,,,,,,,,,,,,,,,,,,,,,,,,,,,,,,,,,,,,,,,,,,,,,,,,,,,,,,,,,,,,,,,,,,,,,,,,,,,,,,,,,
1739355752.703163,1739355752.703626,22.000000,0.000000,4272.820313,4191.410156,4265.897461,4006.153809,4190.128418,4099.102539,4162.820313,4253.205078,4225.897461,4199.743652,4837.820313,4492.436035,4377.692383,4529.743652,0.000000,0.000000,13.000000,,,,0.000000,4.000000,4.000000,4.000000,4.000000,4.000000,4.000000,4.000000,4.000000,4.000000,4.000000,4.000000,4.000000,4.000000,4.000000,100.000000,,,,,,,,,,,,,,,,,,,,,,,,,,,,,,,,,,,,,,,,,,,,,,,,,,,,,,,,,,,,,,,,,,,,,,,,,,,,,,,,,,,,,,,,,,,,,,,,,,,,,,,,,,,,,,,,,,,,,,,,,,,,,,,,,
1739355752.710971,1739355752.711434,23.000000,0.000000,4265.512695,4187.948730,4264.743652,3978.718018,4178.333496,4076.281982,4142.820313,4242.692383,4216.666504,4201.025879,4756.410156,4485.641113,4376.410156,4527.820313,0.000000,0.000000,13.000000,,,,0.000000,4.000000,4.000000,4.000000,4.000000,4.000000,4.000000,4.000000,4.000000,4.000000,4.000000,4.000000,4.000000,4.000000,4.000000,100.000000,,,,,,,,,,,,,,,,,,,,,,,,,,,,,,,,,,,,,,,,,,,,,,,,,,,,,,,,,,,,,,,,,,,,,,,,,,,,,,,,,,,,,,,,,,,,,,,,,,,,,,,,,,,,,,,,,,,,,,,,,,,,,,,,,
1739355752.718779,1739355752.719142,24.000000,0.000000,4241.410156,4160.897461,4239.743652,3934.358887,4152.820313,4045.384521,4108.461426,4230.769043,4169.743652,4151.025879,4648.461426,4455.641113,4353.077148,4503.333496,0.000000,0.000000,13.000000,,,,0.000000,4.000000,4.000000,4.000000,4.000000,4.000000,4.000000,4.000000,4.000000,4.000000,4.000000,4.000000,4.000000,4.000000,4.000000,100.000000,,,,,,,,,,,,,,,,,6.000000,0.000000,0.673915,0.052917,-0.696716,0.240051,1.001099,-0.260774,0.067879,-41.138203,-31.099411,42.764946,,,,,,,,,,,,,,,,,,,,,,,,,,,,,,,,14.343009,4.156783,2.594253,2.409840,4.268095,5.089015,1.820201,2.928976,1.407322,4.214094,9.679481,4.429899,2.186425,2.094474,3.785113,48.845394,16.329708,6.147344,3.789860,4.907181,3.190657,1.557185,1.956855,2.682881,4.119881,3.619200,1.071947,1.732478,1.352602,2.936841,3.995754,2.971464,2.412261,2.547887,4.583747,8.912881,2.193772,1.171433,0.973060,0.889609,3.463447,2.169158,1.325404,1.819281,3.515544,6.267087,3.485945,2.494497,2.593278,5.820374,29.089872,5.896873,2.171171,1.973859,3.919718,10.711908,5.247496,2.419735,2.393736,5.116588,4.319060,2.427273,1.368730,1.523618,3.868268,8.292203,3.538224,1.629930,2.168794,4.323036
1739355752.726587,1739355752.727051,25.000000,0.000000,4269.230957,4184.358887,4263.717773,3939.615479,4181.794922,4083.846191,4142.948730,4248.205078,4200.512695,4165.384766,4613.717773,4491.922852,4378.974121,4527.948730,0.000000,0.000000,13.000000,,,,0.000000,4.000000,4.000000,4.000000,4.000000,4.000000,4.000000,4.000000,4.000000,4.000000,4.000000,4.000000,4.000000,4.000000,4.000000,100.000000,,,,,,,,,,,,,,,,,,,,,,,,,,,,,,,,,,,,,,,,,,,,,,,,,,,,,,,,,,,,,,,,,,,,,,,,,,,,,,,,,,,,,,,,,,,,,,,,,,,,,,,,,,,,,,,,,,,,,,,,,,,,,,,,,
1739355752.734395,1739355752.734859,26.000000,0.000000,4307.179688,4225.512695,4297.692383,3961.794922,4226.794922,4127.692383,4186.153809,4256.666504,4253.717773,4218.333496,4623.589844,4533.846191,4410.128418,4562.563965,0.000000,0.000000,13.000000,,,,0.000000,4.000000,4.000000,4.000000,4.000000,4.000000,4.000000,4.000000,4.000000,4.000000,4.000000,4.000000,4.000000,4.000000,4.000000,100.000000,,,,,,,,,,,,,,,,,,,,,,,,,,,,,,,,,,,,,,,,,,,,,,,,,,,,,,,,,,,,,,,,,,,,,,,,,,,,,,,,,,,,,,,,,,,,,,,,,,,,,,,,,,,,,,,,,,,,,,,,,,,,,,,,,
1739355752.742203,1739355752.742667,27.000000,0.000000,4287.692383,4214.743652,4273.846191,3940.512939,4211.282227,4108.077148,4169.230957,4236.282227,4218.205078,4196.410156,4573.846191,4498.077148,4382.051270,4535.641113,0.000000,0.000000,13.000000,,,,0.000000,4.000000,4.000000,4.000000,4.000000,4.000000,4.000000,4.000000,4.000000,4.000000,4.000000,4.000000,4.000000,4.000000,4.000000,100.000000,,,,,,,,,,,,,,,,,,,,,,,,,,,,,,,,,,,,,,,,,,,,,,,,,,,,,,,,,,,,,,,,,,,,,,,,,,,,,,,,,,,,,,,,,,,,,,,,,,,,,,,,,,,,,,,,,,,,,,,,,,,,,,,,,
1739355752.750011,1739355752.750375,28.000000,0.000000,4254.102539,4178.846191,4243.717773,3896.153809,4170.000000,4086.538574,4149.358887,4227.563965,4182.307617,4157.820313,4496.666504,4458.846191,4356.538574,4501.153809,0.000000,0.000000,13.000000,,,,0.000000,4.000000,4.000000,4.000000,4.000000,4.000000,4.000000,4.000000,4.000000,4.000000,4.000000,4.000000,4.000000,4.000000,4.000000,100.000000,,,,,,,,,,,,,,,,,7.000000,0.000000,0.675952,0.051453,-0.695313,0.238708,1.003052,-0.221707,0.047857,-41.057716,-31.222803,42.855118,,,,,,,,,,,,,,,,,,,,,,,,,,,,,,,,,,,,,,,,,,,,,,,,,,,,,,,,,,,,,,,,,,,,,,,,,,,,,,,,,,,,,,,,,,,,,,,,,,,,,
1739355752.757819,1739355752.758183,29.000000,0.000000,4253.717773,4175.512695,4247.051270,3869.743652,4169.615234,4102.436035,4163.205078,4242.436035,4209.615234,4164.358887,4450.769043,4462.820313,4368.077148,4508.205078,0.000000,0.000000,13.000000,,,,0.000000,4.000000,4.000000,4.000000,4.000000,4.000000,4.000000,4.000000,4.000000,4.000000,4.000000,4.000000,4.000000,4.000000,4.000000,100.000000,,,,,,,,,,,,,,,,,,,,,,,,,,,,,,,,,,,,,,,,,,,,,,,,,,,,,,,,,,,,,,,,,,,,,,,,,,,,,,,,,,,,,,,,,,,,,,,,,,,,,,,,,,,,,,,,,,,,,,,,,,,,,,,,,
1739355752.765627,1739355752.765891,30.000000,0.000000,4262.436035,4191.153809,4252.692383,3858.589844,4193.717773,4121.282227,4181.538574,4248.205078,4221.282227,4168.589844,4395.000000,4464.615234,4372.179688,4517.820313,0.000000,0.000000,13.000000,,,,0.000000,4.000000,4.000000,4.000000,4.000000,4.000000,4.000000,4.000000,4.000000,4.000000,4.000000,4.000000,4.000000,4.000000,4.000000,100.000000,,,,,,,,,,,,,,,,,,,,,,,,,,,,,,,,,,,,,,,,,,,,,,,,,,,,,,,,,,,,,,,,,,,,,,,,,,,,,,,,,,,,,,,,,,,,,,,,,,,,,,,,,,,,,,,,,,,,,,,,,,,,,,,,,
1739355752.773435,1739355752.773799,31.000000,0.000000,4260.769043,4194.102539,4249.230957,3841.410156,4192.179688,4126.153809,4185.128418,4238.846191,4210.512695,4167.179688,4300.128418,4453.333496,4369.743652,4513.205078,0.000000,0.000000,13.000000,,,,0.000000,4.000000,4.000000,4.000000,4.000000,4.000000,4.000000,4.000000,4.000000,4.000000,4.000000,4.000000,4.000000,4.000000,4.000000,100.000000,,,,,,,,,,,,,,,,,,,,,,,,,,,,,,,,,,,,,,,,,,,,,,,,,,,,,,,,,,,,,,,,,,,,,,,,,,,,,,,,,,,,,,,,,,,,,,,,,,,,,,,,,,,,,,,,,,,,,,,,,,,,,,,,,
1739355752.781243,1739355752.781607,32.000000,0.000000,4278.333496,4208.205078,4264.487305,3832.948730,4187.051270,4138.974121,4192.820313,4240.769043,4227.820313,4194.487305,4232.436035,4464.615234,4395.641113,4530.897461,0.000000,0.000000,13.000000,,,,0.000000,4.000000,4.000000,4.000000,4.000000,4.000000,4.000000,4.000000,4.000000,4.000000,4.000000,4.000000,4.000000,4.000000,4.000000,100.000000,,,,,,,,,,,,,,,,,8.000000,0.000000,0.677056,0.051697,-0.694763,0.237122,0.984495,-0.212917,0.047369,-41.035278,-31.050524,42.902939,,,,,,,,,,,,,,,,,,,,,,,,,,,,,,,,,,,,,,,,,,,,,,,,,,,,,,,,,,,,,,,,,,,,,,,,,,,,,,,,,,,,,,,,,,,,,,,,,,,,,
1739355752.789051,1739355752.789516,33.000000,0.000000,4287.307617,4220.000000,4268.717773,3816.923096,4201.666504,4135.000000,4181.282227,4241.153809,4223.333496,4192.179688,4189.615234,4457.179688,4403.974121,4537.563965,0.000000,0.000000,13.000000,,,,0.000000,4.000000,4.000000,4.000000,4.000000,4.000000,4.000000,4.000000,4.000000,4.000000,4.000000,4.000000,4.000000,4.000000,4.000000,100.000000,,,,,,,,,,,,,,,,,,,,,,,,,,,,,,,,,,,,,,,,,,,,,,,,,,,,,,,,,,,,,,,,,,,,,,,,,,,,,,,,,,,,,,,,,,,,,,,,,,,,,,,,,,,,,,,,,,,,,,,,,,,,,,,,,
1739355752.796859,1739355752.797324,34.000000,0.000000,4270.897461,4209.358887,4248.846191,3786.923096,4205.000000,4120.256348,4151.410156,4234.487305,4194.615234,4158.333496,4134.743652,4425.512695,4385.512695,4514.102539,0.000000,0.000000,13.000000,,,,0.000000,4.000000,4.000000,4.000000,4.000000,4.000000,4.000000,4.000000,4.000000,4.000000,4.000000,4.000000,4.000000,4.000000,4.000000,100.000000,,,,,,,,,,,,,,,,,,,,,,,,,,,,,,,,,,,,,,,,,,,,,,,,,,,,,,,,,,,,,,,,,,,,,,,,,,,,,,,,,,,,,,,,,,,,,,,,,,,,,,,,,,,,,,,,,,,,,,,,,,,,,,,,,
1739355752.804668,1739355752.805232,35.000000,0.000000,4266.922852,4205.256348,4246.794922,3774.615479,4196.282227,4128.333496,4140.128418,4235.128418,4193.333496,4149.230957,4096.282227,4419.102539,4383.461426,4506.666504,0.000000,0.000000,13.000000,,,,0.000000,4.000000,4.000000,4.000000,4.000000,4.000000,4.000000,4.000000,4.000000,4.000000,4.000000,4.000000,4.000000,4.000000,4.000000,100.000000,,,,,,,,,,,,,,,,,,,,,,,,,,,,,,,,,,,,,,,,,,,,,,,,,,,,,,,,,,,,,,,,,,,,,,,,,,,,,,,,,,,,,,,,,,,,,,,,,,,,,,,,,,,,,,,,,,,,,,,,,,,,,,,,,
1739355752.812476,1739355752.813040,36.000000,0.000000,4279.871582,4218.333496,4262.307617,3779.358887,4198.846191,4133.589844,4149.743652,4239.743652,4207.179688,4161.153809,4089.358887,4429.102539,4392.563965,4522.563965,0.000000,0.000000,13.000000,,,,0.000000,4.000000,4.000000,4.000000,4.000000,4.000000,4.000000,4.000000,4.000000,4.000000,4.000000,4.000000,4.000000,4.000000,4.000000,100.000000,,,,,,,,,,,,,,,,,9.000000,0.000000,0.677182,0.053162,-0.695007,0.235718,0.978635,-0.218777,0.031254,-41.098415,-30.812138,42.895981,,,,,,,,,,,,,,,,,,,,,,,,,,,,,,,,,,,,,,,,,,,,,,,,,,,,,,,,,,,,,,,,,,,,,,,,,,,,,,,,,,,,,,,,,,,,,,,,,,,,,
1739355752.820284,1739355752.820948,37.000000,0.000000,4278.974121,4218.589844,4263.333496,3772.820557,4202.692383,4128.333496,4152.820313,4240.897461,4201.794922,4162.563965,4078.846191,4423.589844,4393.333496,4522.692383,0.000000,0.000000,13.000000,,,,0.000000,4.000000,4.000000,4.000000,4.000000,4.000000,4.000000,4.000000,4.000000,4.000000,4.000000,4.000000,4.000000,4.000000,4.000000,100.000000,,,,,,,,,,,,,,,,,,,,,,,,,,,,,,,,,,,,,,,,,,,,,,,,,,,,,,,,,,,,,,,,,,,,,,,,,,,,,,,,,,,,,,,,,,,,,,,,,,,,,,,,,,,,,,,,,,,,,,,,,,,,,,,,,
1739355752.828092,1739355752.828756,38.000000,0.000000,4280.128418,4218.077148,4267.692383,3765.769287,4205.897461,4147.051270,4157.820313,4244.230957,4202.179688,4170.128418,4071.538574,4424.743652,4405.641113,4523.717773,0.000000,0.000000,13.000000,,,,0.000000,4.000000,4.000000,4.000000,4.000000,4.000000,4.000000,4.000000,4.000000,4.000000,4.000000,4.000000,4.000000,4.000000,4.000000,100.000000,,,,,,,,,,,,,,,,,,,,,,,,,,,,,,,,,,,,,,,,,,,,,,,,,,,,,,,,,,,,,,,,,,,,,,,,,,,,,,,,,,,,,,,,,,,,,,,,,,,,,,,,,,,,,,,,,,,,,,,,,,,,,,,,,
1739355752.835900,1739355752.836664,39.000000,0.000000,4278.589844,4213.974121,4275.897461,3740.897461,4201.025879,4158.205078,4167.179688,4247.179688,4208.077148,4173.974121,4057.948730,4423.846191,4405.641113,4525.256348,0.000000,0.000000,13.000000,,,,0.000000,4.000000,4.000000,4.000000,4.000000,4.000000,4.000000,4.000000,4.000000,4.000000,4.000000,4.000000,4.000000,4.000000,4.000000,100.000000,,,,,,,,,,,,,,,,,,,,,,,,,,,,,,,,,,,,,,,,,,,,,,,,,,,,,,,,,,,,,,,,,,,,,,,,,,,,,,,,,,,,,,,,,,,,,,,,,,,,,,,,,,,,,,,,,,,,,,,,,,,,,,,,,
1739355752.843708,1739355752.844573,40.000000,0.000000,4275.641113,4204.102539,4278.205078,3705.512939,4198.589844,4154.615234,4188.974121,4252.563965,4214.358887,4166.538574,4037.692383,4418.333496,4388.077148,4522.692383,0.000000,0.000000,13.000000,,,,0.000000,4.000000,4.000000,4.000000,4.000000,4.000000,4.000000,4.000000,4.000000,4.000000,4.000000,4.000000,4.000000,4.000000,4.000000,100.000000,,,,,,,,,,,,,,,,,10.000000,0.000000,0.677100,0.056580,-0.695251,0.234436,0.946405,-0.193871,0.019534,-41.121906,-30.880924,43.023048,,,,,,,,,,,,,,,,,,,,,,,,,,,,,,,,12.529731,3.280173,2.611258,2.569297,5.307986,4.409880,1.328028,2.647493,1.432858,5.205398,10.647122,3.732847,2.078584,2.471716,4.791672,46.824856,13.742374,6.480206,3.809875,6.129492,2.518107,1.213787,1.972864,2.620168,4.904094,3.088392,0.905385,1.887589,1.585879,3.505723,3.499062,2.540807,2.392408,2.697958,5.696890,13.723980,3.424481,1.576872,1.403684,1.254162,2.678218,1.741340,1.350988,2.063873,4.112065,5.103086,2.327443,2.587175,2.702696,6.652223,24.673054,5.448599,1.710083,2.141898,4.806392,7.713731,3.631218,2.150474,2.650068,6.469457,3.978475,1.630813,1.222834,1.679514,4.658887,8.494523,2.548678,1.462251,2.416218,5.471332
1739355752.851516,1739355752.852381,41.000000,0.000000,4281.410156,4211.794922,4277.820313,3687.307617,4214.615234,4179.230957,4214.743652,4259.615234,4231.410156,4171.922852,4023.076904,4419.487305,4391.025879,4527.179688,0.000000,0.000000,13.000000,,,,0.000000,4.000000,4.000000,4.000000,4.000000,4.000000,4.000000,4.000000,4.000000,4.000000,4.000000,4.000000,4.000000,4.000000,4.000000,100.000000,,,,,,,,,,,,,,,,,,,,,,,,,,,,,,,,,,,,,,,,,,,,,,,,,,,,,,,,,,,,,,,,,,,,,,,,,,,,,,,,,,,,,,,,,,,,,,,,,,,,,,,,,,,,,,,,,,,,,,,,,,,,,,,,,
1739355752.859324,1739355752.860190,42.000000,0.000000,4249.615234,4194.358887,4251.410156,3636.538574,4205.256348,4182.307617,4183.589844,4247.307617,4213.846191,4160.512695,3974.871826,4382.692383,4381.153809,4499.487305,0.000000,0.000000,13.000000,,,,0.000000,4.000000,4.000000,4.000000,4.000000,4.000000,4.000000,4.000000,4.000000,4.000000,4.000000,4.000000,4.000000,4.000000,4.000000,100.000000,,,,,,,,,,,,,,,,,,,,,,,,,,,,,,,,,,,,,,,,,,,,,,,,,,,,,,,,,,,,,,,,,,,,,,,,,,,,,,,,,,,,,,,,,,,,,,,,,,,,,,,,,,,,,,,,,,,,,,,,,,,,,,,,,
1739355752.867132,1739355752.867898,43.000000,0.000000,4232.563965,4182.820313,4241.538574,3599.230713,4194.615234,4167.179688,4157.563965,4239.871582,4196.922852,4153.461426,3942.692383,4363.077148,4374.615234,4485.512695,0.000000,0.000000,13.000000,,,,0.000000,4.000000,4.000000,4.000000,4.000000,4.000000,4.000000,4.000000,4.000000,4.000000,4.000000,4.000000,4.000000,4.000000,4.000000,100.000000,,,,,,,,,,,,,,,,,,,,,,,,,,,,,,,,,,,,,,,,,,,,,,,,,,,,,,,,,,,,,,,,,,,,,,,,,,,,,,,,,,,,,,,,,,,,,,,,,,,,,,,,,,,,,,,,,,,,,,,,,,,,,,,,,
1739355752.874940,1739355752.875706,44.000000,0.000000,4277.820313,4220.512695,4280.384766,3626.281982,4225.256348,4186.794922,4198.333496,4253.846191,4222.820313,4179.358887,3969.230713,4413.077148,4403.846191,4528.717773,0.000000,0.000000,13.000000,,,,0.000000,4.000000,4.000000,4.000000,4.000000,4.000000,4.000000,4.000000,4.000000,4.000000,4.000000,4.000000,4.000000,4.000000,4.000000,100.000000,,,,,,,,,,,,,,,,,11.000000,0.000000,0.677470,0.061951,-0.695007,0.232727,0.981565,-0.207057,-0.002930,-41.076385,-30.709497,42.937408,,,,,,,,,,,,,,,,,,,,,,,,,,,,,,,,,,,,,,,,,,,,,,,,,,,,,,,,,,,,,,,,,,,,,,,,,,,,,,,,,,,,,,,,,,,,,,,,,,,,,
1739355752.882748,1739355752.883414,45.000000,0.000000,4276.922852,4214.358887,4277.692383,3596.153809,4224.615234,4182.948730,4189.230957,4246.282227,4214.102539,4163.974121,3955.384521,4410.256348,4396.922852,4526.282227,0.000000,0.000000,13.000000,,,,0.000000,4.000000,4.000000,4.000000,4.000000,4.000000,4.000000,4.000000,4.000000,4.000000,4.000000,4.000000,4.000000,4.000000,4.000000,100.000000,,,,,,,,,,,,,,,,,,,,,,,,,,,,,,,,,,,,,,,,,,,,,,,,,,,,,,,,,,,,,,,,,,,,,,,,,,,,,,,,,,,,,,,,,,,,,,,,,,,,,,,,,,,,,,,,,,,,,,,,,,,,,,,,,
1739355752.890556,1739355752.891222,46.000000,0.000000,4236.282227,4175.384766,4247.051270,3522.307617,4193.205078,4152.436035,4146.538574,4236.922852,4190.384766,4133.717773,3914.102539,4369.615234,4368.717773,4488.205078,0.000000,0.000000,13.000000,,,,0.000000,4.000000,4.000000,4.000000,4.000000,4.000000,4.000000,4.000000,4.000000,4.000000,4.000000,4.000000,4.000000,4.000000,4.000000,100.000000,,,,,,,,,,,,,,,,,,,,,,,,,,,,,,,,,,,,,,,,,,,,,,,,,,,,,,,,,,,,,,,,,,,,,,,,,,,,,,,,,,,,,,,,,,,,,,,,,,,,,,,,,,,,,,,,,,,,,,,,,,,,,,,,,
1739355752.898365,1739355752.898930,47.000000,0.000000,4254.230957,4198.333496,4272.436035,3526.538574,4211.922852,4170.769043,4181.922852,4253.846191,4221.794922,4164.102539,3925.384521,4402.948730,4386.282227,4511.025879,0.000000,0.000000,13.000000,,,,0.000000,4.000000,4.000000,4.000000,4.000000,4.000000,4.000000,4.000000,4.000000,4.000000,4.000000,4.000000,4.000000,4.000000,4.000000,100.000000,,,,,,,,,,,,,,,,,,,,,,,,,,,,,,,,,,,,,,,,,,,,,,,,,,,,,,,,,,,,,,,,,,,,,,,,,,,,,,,,,,,,,,,,,,,,,,,,,,,,,,,,,,,,,,,,,,,,,,,,,,,,,,,,,
1739355752.906173,1739355752.906738,48.000000,0.000000,4273.589844,4217.436035,4290.384766,3531.794922,4234.871582,4201.538574,4201.282227,4258.077148,4236.538574,4178.077148,3925.384521,4424.615234,4394.230957,4529.615234,0.000000,0.000000,13.000000,,,,0.000000,4.000000,4.000000,4.000000,4.000000,4.000000,4.000000,4.000000,4.000000,4.000000,4.000000,4.000000,4.000000,4.000000,4.000000,100.000000,,,,,,,,,,,,,,,,,12.000000,0.000000,0.677233,0.066223,-0.695007,0.232239,0.993285,-0.199243,-0.001953,-41.118744,-30.738548,42.777004,,,,,,,,,,,,,,,,,,,,,,,,,,,,,,,,,,,,,,,,,,,,,,,,,,,,,,,,,,,,,,,,,,,,,,,,,,,,,,,,,,,,,,,,,,,,,,,,,,,,,
1739355752.913981,1739355752.914446,49.000000,0.000000,4243.205078,4182.051270,4262.563965,3476.025635,4213.589844,4187.820313,4150.384766,4246.025879,4199.102539,4132.307617,3883.461426,4385.256348,4368.717773,4493.717773,0.000000,0.000000,13.000000,,,,0.000000,4.000000,4.000000,4.000000,4.000000,4.000000,4.000000,4.000000,4.000000,4.000000,4.000000,4.000000,4.000000,4.000000,4.000000,100.000000,,,,,,,,,,,,,,,,,,,,,,,,,,,,,,,,,,,,,,,,,,,,,,,,,,,,,,,,,,,,,,,,,,,,,,,,,,,,,,,,,,,,,,,,,,,,,,,,,,,,,,,,,,,,,,,,,,,,,,,,,,,,,,,,,
1739355752.921789,1739355752.922254,50.000000,0.000000,4232.692383,4174.615234,4256.025879,3453.974365,4208.205078,4181.153809,4147.820313,4246.410156,4189.358887,4115.897461,3863.205078,4380.000000,4368.205078,4484.743652,0.000000,0.000000,13.000000,,,,0.000000,4.000000,4.000000,4.000000,4.000000,4.000000,4.000000,4.000000,4.000000,4.000000,4.000000,4.000000,4.000000,4.000000,4.000000,100.000000,,,,,,,,,,,,,,,,,,,,,,,,,,,,,,,,,,,,,,,,,,,,,,,,,,,,,,,,,,,,,,,,,,,,,,,,,,,,,,,,,,,,,,,,,,,,,,,,,,,,,,,,,,,,,,,,,,,,,,,,,,,,,,,,,
1739355752.929597,1739355752.929962,51.000000,0.000000,4231.794922,4179.871582,4255.769043,3455.128174,4207.436035,4186.922852,4173.461426,4243.333496,4190.128418,4116.282227,3845.512939,4382.820313,4367.051270,4490.256348,0.000000,0.000000,13.000000,,,,0.000000,4.000000,4.000000,4.000000,4.000000,4.000000,4.000000,4.000000,4.000000,4.000000,4.000000,4.000000,4.000000,4.000000,4.000000,100.000000,,,,,,,,,,,,,,,,,,,,,,,,,,,,,,,,,,,,,,,,,,,,,,,,,,,,,,,,,,,,,,,,,,,,,,,,,,,,,,,,,,,,,,,,,,,,,,,,,,,,,,,,,,,,,,,,,,,,,,,,,,,,,,,,,
1739355752.937405,1739355752.937770,52.000000,0.000000,4221.153809,4163.974121,4245.897461,3430.897461,4195.641113,4182.948730,4167.820313,4240.384766,4179.230957,4101.794922,3823.589844,4368.077148,4351.794922,4480.000000,0.000000,0.000000,13.000000,,,,0.000000,4.000000,4.000000,4.000000,4.000000,4.000000,4.000000,4.000000,4.000000,4.000000,4.000000,4.000000,4.000000,4.000000,4.000000,100.000000,,,,,,,,,,,,,,,,,13.000000,0.000000,0.676994,0.068420,-0.695129,0.231934,0.969357,-0.206568,-0.006348,-41.040203,-30.698027,42.782635,,,,,,,,,,,,,,,,,,,,,,,,,,,,,,,,,,,,,,,,,,,,,,,,,,,,,,,,,,,,,,,,,,,,,,,,,,,,,,,,,,,,,,,,,,,,,,,,,,,,,
1739355752.945213,1739355752.945478,53.000000,0.000000,4236.410156,4175.384766,4264.102539,3423.205078,4218.717773,4197.563965,4183.205078,4255.897461,4203.461426,4126.153809,3831.025635,4394.230957,4369.487305,4495.384766,0.000000,0.000000,13.000000,,,,0.000000,4.000000,4.000000,4.000000,4.000000,4.000000,4.000000,4.000000,4.000000,4.000000,4.000000,4.000000,4.000000,4.000000,4.000000,100.000000,,,,,,,,,,,,,,,,,,,,,,,,,,,,,,,,,,,,,,,,,,,,,,,,,,,,,,,,,,,,,,,,,,,,,,,,,,,,,,,,,,,,,,,,,,,,,,,,,,,,,,,,,,,,,,,,,,,,,,,,,,,,,,,,,
1739355752.953021,1739355752.953286,54.000000,0.000000,4253.077148,4190.769043,4281.666504,3423.974365,4237.307617,4215.128418,4201.666504,4263.077148,4220.128418,4146.538574,3829.230713,4421.282227,4386.538574,4514.615234,0.000000,0.000000,13.000000,,,,0.000000,4.000000,4.000000,4.000000,4.000000,4.000000,4.000000,4.000000,4.000000,4.000000,4.000000,4.000000,4.000000,4.000000,4.000000,100.000000,,,,,,,,,,,,,,,,,,,,,,,,,,,,,,,,,,,,,,,,,,,,,,,,,,,,,,,,,,,,,,,,,,,,,,,,,,,,,,,,,,,,,,,,,,,,,,,,,,,,,,,,,,,,,,,,,,,,,,,,,,,,,,,,,
1739355752.960829,1739355752.960994,55.000000,0.000000,4248.077148,4185.384766,4285.256348,3410.384521,4221.153809,4207.051270,4189.358887,4260.512695,4201.666504,4125.897461,3805.128174,4416.282227,4379.358887,4512.563965,0.000000,0.000000,13.000000,,,,0.000000,4.000000,4.000000,4.000000,4.000000,4.000000,4.000000,4.000000,4.000000,4.000000,4.000000,4.000000,4.000000,4.000000,4.000000,100.000000,,,,,,,,,,,,,,,,,,,,,,,,,,,,,,,,,,,,,,,,,,,,,,,,,,,,,,,,,,,,,,,,,,,,,,,,,,,,,,,,,,,,,,,,,,,,,,,,,,,,,,,,,,,,,,,,,,,,,,,,,,,,,,,,,
1739355752.968637,1739355752.968802,56.000000,0.000000,4240.256348,4181.922852,4294.230957,3392.307617,4214.487305,4201.282227,4189.102539,4265.897461,4198.974121,4124.102539,3784.743652,4417.179688,4377.563965,4510.512695,0.000000,0.000000,13.000000,,,,0.000000,4.000000,4.000000,4.000000,4.000000,4.000000,4.000000,4.000000,4.000000,4.000000,4.000000,4.000000,4.000000,4.000000,4.000000,100.000000,,,,,,,,,,,,,,,,,14.000000,0.000000,0.676679,0.072449,-0.695313,0.231079,0.952265,-0.223172,0.016604,-41.152851,-30.661558,42.787704,,,,,,,,,,,,,,,,,,,,,,,,,,,,,,,,10.551320,2.636518,2.469129,2.590033,6.147190,3.765447,1.172613,2.262036,1.426162,5.936821,12.815516,3.436407,1.896815,2.809812,5.639055,43.641102,11.594496,6.408765,3.758101,7.087651,2.092528,0.991140,1.938015,2.449889,5.418952,2.546545,0.773266,1.904766,1.752688,3.926123,3.226783,2.049710,2.169205,2.771647,6.682402,18.988554,4.687323,1.933865,1.833018,1.594689,2.333068,1.460299,1.268241,2.197793,4.576918,4.273397,1.656648,2.482315,2.673369,7.118347,22.558460,6.793222,1.352956,2.366296,5.558687,6.643283,2.572973,1.848987,2.902806,7.622809,4.006595,1.172297,1.078994,1.717055,5.290376,9.763269,2.089752,1.335715,2.569240,6.385075
1739355752.976445,1739355752.976510,57.000000,0.000000,4222.051270,4168.461426,4282.051270,3358.718018,4218.717773,4203.077148,4183.333496,4259.487305,4196.282227,4123.205078,3750.769287,4401.410156,4366.538574,4495.384766,0.000000,0.000000,13.000000,,,,0.000000,4.000000,4.000000,4.000000,4.000000,4.000000,4.000000,4.000000,4.000000,4.000000,4.000000,4.000000,4.000000,4.000000,4.000000,100.000000,,,,,,,,,,,,,,,,,,,,,,,,,,,,,,,,,,,,,,,,,,,,,,,,,,,,,,,,,,,,,,,,,,,,,,,,,,,,,,,,,,,,,,,,,,,,,,,,,,,,,,,,,,,,,,,,,,,,,,,,,,,,,,,,,
1739355752.984254,1739355752.984418,58.000000,0.000000,4208.205078,4154.615234,4267.820313,3336.153809,4206.025879,4190.512695,4162.692383,4244.615234,4179.102539,4102.948730,3706.794922,4382.436035,4350.769043,4482.179688,0.000000,0.000000,13.000000,,,,0.000000,4.000000,4.000000,4.000000,4.000000,4.000000,4.000000,4.000000,4.000000,4.000000,4.000000,4.000000,4.000000,4.000000,4.000000,100.000000,,,,,,,,,,,,,,,,,,,,,,,,,,,,,,,,,,,,,,,,,,,,,,,,,,,,,,,,,,,,,,,,,,,,,,,,,,,,,,,,,,,,,,,,,,,,,,,,,,,,,,,,,,,,,,,,,,,,,,,,,,,,,,,,,
1739355752.992062,1739355752.992226,59.000000,0.000000,4227.948730,4171.410156,4283.974121,3347.564209,4199.871582,4194.487305,4172.436035,4242.692383,4187.436035,4119.102539,3692.051270,4403.717773,4361.025879,4495.641113,0.000000,0.000000,13.000000,,,,0.000000,4.000000,4.000000,4.000000,4.000000,4.000000,4.000000,4.000000,4.000000,4.000000,4.000000,4.000000,4.000000,4.000000,4.000000,100.000000,,,,,,,,,,,,,,,,,,,,,,,,,,,,,,,,,,,,,,,,,,,,,,,,,,,,,,,,,,,,,,,,,,,,,,,,,,,,,,,,,,,,,,,,,,,,,,,,,,,,,,,,,,,,,,,,,,,,,,,,,,,,,,,,,
1739355752.999870,1739355753.000135,60.000000,0.000000,4216.538574,4164.358887,4265.641113,3313.333252,4200.256348,4201.666504,4166.410156,4233.333496,4186.025879,4122.692383,3664.615479,4387.820313,4350.000000,4475.000000,0.000000,0.000000,13.000000,,,,0.000000,4.000000,4.000000,4.000000,4.000000,4.000000,4.000000,4.000000,4.000000,4.000000,4.000000,4.000000,4.000000,4.000000,4.000000,100.000000,,,,,,,,,,,,,,,,,15.000000,0.000000,0.677672,0.075195,-0.694336,0.230225,0.957148,-0.261751,0.057136,-41.204231,-30.628735,42.925602,,,,,,,,,,,,,,,,,,,,,,,,,,,,,,,,,,,,,,,,,,,,,,,,,,,,,,,,,,,,,,,,,,,,,,,,,,,,,,,,,,,,,,,,,,,,,,,,,,,,,
1739355753.007678,1739355753.007943,61.000000,0.000000,4159.487305,4114.871582,4214.743652,3227.948730,4186.666504,4176.282227,4124.487305,4213.717773,4143.333496,4067.435791,3604.358887,4323.205078,4306.538574,4418.974121,0.000000,0.000000,13.000000,,,,0.000000,4.000000,4.000000,4.000000,4.000000,4.000000,4.000000,4.000000,4.000000,4.000000,4.000000,4.000000,4.000000,4.000000,4.000000,100.000000,,,,,,,,,,,,,,,,,,,,,,,,,,,,,,,,,,,,,,,,,,,,,,,,,,,,,,,,,,,,,,,,,,,,,,,,,,,,,,,,,,,,,,,,,,,,,,,,,,,,,,,,,,,,,,,,,,,,,,,,,,,,,,,,,
1739355753.015486,1739355753.015851,62.000000,0.000000,4161.794922,4117.179688,4224.102539,3212.307617,4193.333496,4169.871582,4132.179688,4221.538574,4142.179688,4065.256348,3600.256348,4331.922852,4314.358887,4426.025879,0.000000,0.000000,13.000000,,,,0.000000,4.000000,4.000000,4.000000,4.000000,4.000000,4.000000,4.000000,4.000000,4.000000,4.000000,4.000000,4.000000,4.000000,4.000000,100.000000,,,,,,,,,,,,,,,,,,,,,,,,,,,,,,,,,,,,,,,,,,,,,,,,,,,,,,,,,,,,,,,,,,,,,,,,,,,,,,,,,,,,,,,,,,,,,,,,,,,,,,,,,,,,,,,,,,,,,,,,,,,,,,,,,
1739355753.023294,1739355753.023659,63.000000,0.000000,4187.436035,4137.051270,4247.692383,3223.846191,4196.282227,4182.051270,4153.717773,4236.922852,4164.102539,4092.564209,3620.128174,4361.666504,4335.897461,4449.102539,0.000000,0.000000,13.000000,,,,0.000000,4.000000,4.000000,4.000000,4.000000,4.000000,4.000000,4.000000,4.000000,4.000000,4.000000,4.000000,4.000000,4.000000,4.000000,100.000000,,,,,,,,,,,,,,,,,,,,,,,,,,,,,,,,,,,,,,,,,,,,,,,,,,,,,,,,,,,,,,,,,,,,,,,,,,,,,,,,,,,,,,,,,,,,,,,,,,,,,,,,,,,,,,,,,,,,,,,,,,,,,,,,,
1739355753.031102,1739355753.031567,64.000000,0.000000,4161.538574,4104.615234,4225.000000,3175.641113,4167.692383,4170.128418,4132.820313,4232.820313,4138.461426,4062.948730,3591.410156,4331.794922,4314.871582,4421.025879,5018.000000,0.000000,13.000000,,,,0.000000,4.000000,4.000000,4.000000,4.000000,4.000000,4.000000,4.000000,4.000000,4.000000,4.000000,4.000000,4.000000,4.000000,4.000000,100.000000,,,,,,,,,,,,,,,,,16.000000,0.000000,0.680250,0.074219,-0.692261,0.229187,0.939079,-0.220242,0.062019,-41.317142,-30.482529,42.983040,,,,,,,,,,,,,,,,,,,,,,,,,,,,,,,,,,,,,,,,,,,,,,,,,,,,,,,,,,,,,,,,,,,,,,,,,,,,,,,,,,,,,,,,,,,,,,,,,,,,,
1739355753.038910,1739355753.039375,65.000000,0.000000,4166.666504,4105.897461,4231.922852,3155.000000,4168.846191,4172.179688,4136.153809,4238.717773,4136.538574,4073.974365,3591.666748,4341.666504,4327.307617,4430.641113,5718.000000,0.000000,13.000000,,,,0.000000,4.000000,4.000000,4.000000,4.000000,4.000000,4.000000,4.000000,4.000000,4.000000,4.000000,4.000000,4.000000,4.000000,4.000000,100.000000,,,,,,,,,,,,,,,,,,,,,,,,,,,,,,,,,,,,,,,,,,,,,,,,,,,,,,,,,,,,,,,,,,,,,,,,,,,,,,,,,,,,,,,,,,,,,,,,,,,,,,,,,,,,,,,,,,,,,,,,,,,,,,,,,
1739355753.046718,1739355753.047083,66.000000,0.000000,4191.666504,4129.358887,4253.974121,3157.692383,4182.179688,4186.538574,4149.487305,4246.025879,4162.436035,4118.205078,3611.538574,4370.769043,4347.436035,4453.974121,5584.000000,0.000000,13.000000,,,,0.000000,4.000000,4.000000,4.000000,4.000000,4.000000,4.000000,4.000000,4.000000,4.000000,4.000000,4.000000,4.000000,4.000000,4.000000,100.000000,,,,,,,,,,,,,,,,,,,,,,,,,,,,,,,,,,,,,,,,,,,,,,,,,,,,,,,,,,,,,,,,,,,,,,,,,,,,,,,,,,,,,,,,,,,,,,,,,,,,,,,,,,,,,,,,,,,,,,,,,,,,,,,,,
1739355753.054526,1739355753.054891,67.000000,0.000000,4159.358887,4101.153809,4232.563965,3107.051270,4163.205078,4176.538574,4128.461426,4235.000000,4144.102539,4091.538574,3584.230713,4339.358887,4316.538574,4421.025879,5544.000000,0.000000,13.000000,,,,0.000000,4.000000,4.000000,4.000000,4.000000,4.000000,4.000000,4.000000,4.000000,4.000000,4.000000,4.000000,4.000000,4.000000,4.000000,100.000000,,,,,,,,,,,,,,,,,,,,,,,,,,,,,,,,,,,,,,,,,,,,,,,,,,,,,,,,,,,,,,,,,,,,,,,,,,,,,,,,,,,,,,,,,,,,,,,,,,,,,,,,,,,,,,,,,,,,,,,,,,,,,,,,,
1739355753.062334,1739355753.062599,68.000000,0.000000,4155.256348,4100.897461,4236.153809,3078.333252,4162.948730,4180.512695,4137.820313,4237.948730,4137.948730,4077.307617,3583.461426,4337.179688,4318.846191,4423.333496,5505.000000,0.000000,13.000000,,,,0.000000,4.000000,4.000000,4.000000,4.000000,4.000000,4.000000,4.000000,4.000000,4.000000,4.000000,4.000000,4.000000,4.000000,4.000000,100.000000,,,,,,,,,,,,,,,,,17.000000,0.000000,0.683456,0.072144,-0.690002,0.227112,0.957636,-0.225125,0.069833,-41.318760,-30.300941,43.018070,,,,,,,,,,,,,,,,,,,,,,,,,,,,,,,,,,,,,,,,,,,,,,,,,,,,,,,,,,,,,,,,,,,,,,,,,,,,,,,,,,,,,,,,,,,,,,,,,,,,,
1739355753.070142,1739355753.070407,69.000000,0.000000,4189.743652,4142.436035,4270.384766,3091.538574,4186.410156,4201.794922,4167.179688,4249.743652,4170.769043,4120.128418,3618.846191,4374.743652,4357.563965,4465.897461,5449.000000,0.000000,13.000000,,,,0.000000,4.000000,4.000000,4.000000,4.000000,4.000000,4.000000,4.000000,4.000000,4.000000,4.000000,4.000000,4.000000,4.000000,4.000000,100.000000,,,,,,,,,,,,,,,,,,,,,,,,,,,,,,,,,,,,,,,,,,,,,,,,,,,,,,,,,,,,,,,,,,,,,,,,,,,,,,,,,,,,,,,,,,,,,,,,,,,,,,,,,,,,,,,,,,,,,,,,,,,,,,,,,
1739355753.077950,1739355753.078115,70.000000,0.000000,4177.948730,4146.794922,4272.692383,3074.358887,4194.487305,4207.563965,4164.871582,4245.000000,4175.512695,4128.589844,3617.435791,4369.487305,4355.641113,4465.769043,5414.000000,0.000000,13.000000,,,,0.000000,4.000000,4.000000,4.000000,4.000000,4.000000,4.000000,4.000000,4.000000,4.000000,4.000000,4.000000,4.000000,4.000000,4.000000,100.000000,,,,,,,,,,,,,,,,,,,,,,,,,,,,,,,,,,,,,,,,,,,,,,,,,,,,,,,,,,,,,,,,,,,,,,,,,,,,,,,,,,,,,,,,,,,,,,,,,,,,,,,,,,,,,,,,,,,,,,,,,,,,,,,,,
1739355753.085759,1739355753.086023,71.000000,0.000000,4157.436035,4144.487305,4270.512695,3045.769287,4208.333496,4216.282227,4170.384766,4244.487305,4171.538574,4125.769043,3610.769287,4357.820313,4347.820313,4458.205078,2095.000000,0.000000,13.000000,,,,0.000000,4.000000,4.000000,4.000000,4.000000,4.000000,4.000000,4.000000,4.000000,4.000000,4.000000,4.000000,4.000000,4.000000,4.000000,100.000000,,,,,,,,,,,,,,,,,,,,,,,,,,,,,,,,,,,,,,,,,,,,,,,,,,,,,,,,,,,,,,,,,,,,,,,,,,,,,,,,,,,,,,,,,,,,,,,,,,,,,,,,,,,,,,,,,,,,,,,,,,,,,,,,,
1739355753.093567,1739355753.093831,72.000000,0.000000,4153.846191,4153.333496,4273.717773,3022.307617,4211.538574,4221.666504,4176.282227,4245.897461,4178.589844,4140.128418,3610.000000,4351.666504,4352.948730,4463.205078,5272.000000,0.000000,13.000000,,,,0.000000,4.000000,4.000000,4.000000,4.000000,4.000000,4.000000,4.000000,4.000000,4.000000,4.000000,4.000000,4.000000,4.000000,4.000000,100.000000,1.000000,8.333333,1.000000,1.000000,1.000000,0.000000,1.000000,1.000000,1.000000,1.000000,3.000000,1.000000,0.000000,1.000000,1.000000,1.000000,18.000000,0.000000,0.685468,0.070374,-0.689087,0.224365,0.961543,-0.228544,0.063973,-41.470219,-30.237514,43.232929,,,,,,,,,,,,,,,,,,,,,,,,,,,,,,,,8.840955,2.221452,2.241715,2.525054,6.629564,3.266124,1.286443,1.930476,1.410815,6.256054,15.288238,3.424702,1.743346,3.056617,6.138772,38.722935,10.626218,5.975432,3.750027,7.574934,1.861529,0.878125,1.969981,2.228342,5.572740,2.120389,0.717305,1.817383,1.853151,4.134406,3.081272,1.716175,1.845062,2.820182,7.392116,22.910419,5.580395,2.147745,2.140803,1.826156,2.313712,1.272387,1.111323,2.204807,4.859653,3.840833,1.399111,2.266691,2.549958,7.208146,28.378742,10.658731,1.354384,2.825026,6.042659,7.448204,2.095755,1.655178,3.154799,8.343803,4.391091,1.017806,1.047798,1.642843,5.646110,11.548553,2.072338,1.330035,2.615748,6.858203
1739355753.101375,1739355753.101640,73.000000,0.000000,4147.051270,4149.102539,4268.589844,2993.076904,4199.487305,4220.769043,4166.153809,4236.794922,4177.820313,4144.358887,3597.948730,4330.384766,4348.974121,4456.666504,5599.000000,0.000000,13.000000,,,,0.000000,4.000000,4.000000,4.000000,4.000000,4.000000,4.000000,4.000000,4.000000,4.000000,4.000000,4.000000,4.000000,4.000000,4.000000,100.000000,,,,,,,,,,,,,,,,,,,,,,,,,,,,,,,,,,,,,,,,,,,,,,,,,,,,,,,,,,,,,,,,,,,,,,,,,,,,,,,,,,,,,,,,,,,,,,,,,,,,,,,,,,,,,,,,,,,,,,,,,,,,,,,,,
1739355753.109183,1739355753.109348,74.000000,0.000000,4153.461426,4157.051270,4272.307617,2981.410156,4211.410156,4236.410156,4178.974121,4227.820313,4185.512695,4155.128418,3599.871826,4326.922852,4347.179688,4456.538574,4883.000000,0.000000,13.000000,,,,0.000000,4.000000,4.000000,4.000000,4.000000,4.000000,4.000000,4.000000,4.000000,4.000000,4.000000,4.000000,4.000000,4.000000,4.000000,100.000000,,,,,,,,,,,,,,,,,,,,,,,,,,,,,,,,,,,,,,,,,,,,,,,,,,,,,,,,,,,,,,,,,,,,,,,,,,,,,,,,,,,,,,,,,,,,,,,,,,,,,,,,,,,,,,,,,,,,,,,,,,,,,,,,,
1739355753.116991,1739355753.117256,75.000000,0.000000,4151.025879,4160.384766,4267.051270,2968.205078,4216.410156,4243.077148,4186.794922,4217.563965,4187.051270,4155.769043,3592.435791,4315.897461,4338.461426,4448.717773,5452.000000,0.000000,13.000000,,,,0.000000,4.000000,4.000000,4.000000,4.000000,4.000000,4.000000,4.000000,4.000000,4.000000,4.000000,4.000000,4.000000,4.000000,4.000000,100.000000,,,,,,,,,,,,,,,,,,,,,,,,,,,,,,,,,,,,,,,,,,,,,,,,,,,,,,,,,,,,,,,,,,,,,,,,,,,,,,,,,,,,,,,,,,,,,,,,,,,,,,,,,,,,,,,,,,,,,,,,,,,,,,,,,
1739355753.124799,1739355753.125064,76.000000,0.000000,4136.282227,4141.153809,4252.179688,2939.358887,4199.230957,4233.717773,4172.563965,4216.410156,4176.410156,4145.128418,3580.128174,4293.589844,4333.205078,4438.461426,5536.000000,0.000000,13.000000,,,,0.000000,4.000000,4.000000,4.000000,4.000000,4.000000,4.000000,4.000000,4.000000,4.000000,4.000000,4.000000,4.000000,4.000000,4.000000,100.000000,,,,,,,,,,,,,,,,,19.000000,0.000000,0.685700,0.068542,-0.689575,0.222717,0.955683,-0.198266,0.044439,-41.456532,-30.030430,43.409637,,,,,,,,,,,,,,,,,,,,,,,,,,,,,,,,,,,,,,,,,,,,,,,,,,,,,,,,,,,,,,,,,,,,,,,,,,,,,,,,,,,,,,,,,,,,,,,,,,,,,
1739355753.132607,1739355753.132872,77.000000,0.000000,4138.974121,4135.128418,4254.615234,2921.281982,4197.436035,4235.769043,4173.205078,4224.230957,4176.538574,4149.615234,3584.871826,4288.461426,4339.230957,4447.179688,6481.000000,0.000000,13.000000,,,,0.000000,4.000000,4.000000,4.000000,4.000000,4.000000,4.000000,4.000000,4.000000,4.000000,4.000000,4.000000,4.000000,4.000000,4.000000,100.000000,,,,,,,,,,,,,,,,,,,,,,,,,,,,,,,,,,,,,,,,,,,,,,,,,,,,,,,,,,,,,,,,,,,,,,,,,,,,,,,,,,,,,,,,,,,,,,,,,,,,,,,,,,,,,,,,,,,,,,,,,,,,,,,,,
1739355753.140415,1739355753.140580,78.000000,0.000000,4128.846191,4126.410156,4242.820313,2900.897461,4190.769043,4231.153809,4165.128418,4200.897461,4165.384766,4142.820313,3556.923096,4255.897461,4321.282227,4429.358887,4883.000000,0.000000,13.000000,,,,0.000000,4.000000,4.000000,4.000000,4.000000,4.000000,4.000000,4.000000,4.000000,4.000000,4.000000,4.000000,4.000000,4.000000,4.000000,100.000000,,,,,,,,,,,,,,,,,,,,,,,,,,,,,,,,,,,,,,,,,,,,,,,,,,,,,,,,,,,,,,,,,,,,,,,,,,,,,,,,,,,,,,,,,,,,,,,,,,,,,,,,,,,,,,,,,,,,,,,,,,,,,,,,,
1739355753.148223,1739355753.148488,79.000000,0.000000,4105.000000,4103.077148,4217.820313,2876.666748,4166.538574,4215.256348,4140.128418,4171.922852,4148.589844,4126.025879,3521.538574,4213.974121,4301.153809,4398.077148,5452.000000,0.000000,13.000000,,,,0.000000,4.000000,4.000000,4.000000,4.000000,4.000000,4.000000,4.000000,4.000000,4.000000,4.000000,4.000000,4.000000,4.000000,4.000000,100.000000,,,,,,,,,,,,,,,,,,,,,,,,,,,,,,,,,,,,,,,,,,,,,,,,,,,,,,,,,,,,,,,,,,,,,,,,,,,,,,,,,,,,,,,,,,,,,,,,,,,,,,,,,,,,,,,,,,,,,,,,,,,,,,,,,
1739355753.156031,1739355753.156297,80.000000,0.000000,4095.256348,4089.358887,4220.384766,2865.897461,4146.794922,4202.436035,4132.307617,4189.230957,4147.820313,4122.307617,3525.256348,4210.769043,4299.743652,4398.974121,5536.000000,0.000000,13.000000,,,,0.000000,4.000000,4.000000,4.000000,4.000000,4.000000,4.000000,4.000000,4.000000,4.000000,4.000000,4.000000,4.000000,4.000000,4.000000,100.000000,,,,,,,,,,,,,,,,,20.000000,0.000000,0.685063,0.067200,-0.690674,0.221680,0.963497,-0.208522,0.040532,-41.444210,-30.144054,43.352005,,,,,,,,,,,,,,,,,,,,,,,,,,,,,,,,,,,,,,,,,,,,,,,,,,,,,,,,,,,,,,,,,,,,,,,,,,,,,,,,,,,,,,,,,,,,,,,,,,,,,
1739355753.163839,1739355753.164205,81.000000,0.000000,4082.435791,4082.948730,4222.179688,2858.718018,4136.794922,4191.410156,4125.384766,4217.179688,4133.589844,4106.666504,3516.794922,4203.846191,4285.897461,4396.538574,6481.000000,0.000000,13.000000,,,,0.000000,4.000000,4.000000,4.000000,4.000000,4.000000,4.000000,4.000000,4.000000,4.000000,4.000000,4.000000,4.000000,4.000000,4.000000,100.000000,,,,,,,,,,,,,,,,,,,,,,,,,,,,,,,,,,,,,,,,,,,,,,,,,,,,,,,,,,,,,,,,,,,,,,,,,,,,,,,,,,,,,,,,,,,,,,,,,,,,,,,,,,,,,,,,,,,,,,,,,,,,,,,,,
1739355753.171647,1739355753.172013,82.000000,0.000000,4067.307617,4077.692383,4207.051270,2854.102539,4137.436035,4185.641113,4109.102539,4220.384766,4114.358887,4088.205078,3495.128174,4180.641113,4271.282227,4381.153809,4883.000000,0.000000,13.000000,,,,0.000000,4.000000,4.000000,4.000000,4.000000,4.000000,4.000000,4.000000,4.000000,4.000000,4.000000,4.000000,4.000000,4.000000,4.000000,100.000000,,,,,,,,,,,,,,,,,,,,,,,,,,,,,,,,,,,,,,,,,,,,,,,,,,,,,,,,,,,,,,,,,,,,,,,,,,,,,,,,,,,,,,,,,,,,,,,,,,,,,,,,,,,,,,,,,,,,,,,,,,,,,,,,,
1739355753.179456,1739355753.179921,83.000000,0.000000,4051.281982,4059.487061,4193.589844,2842.564209,4123.974121,4177.436035,4098.205078,4218.077148,4104.487305,4082.051270,3489.487061,4165.641113,4265.641113,4369.871582,5452.000000,0.000000,13.000000,,,,0.000000,4.000000,4.000000,4.000000,4.000000,4.000000,4.000000,4.000000,4.000000,4.000000,4.000000,4.000000,4.000000,4.000000,4.000000,100.000000,,,,,,,,,,,,,,,,,,,,,,,,,,,,,,,,,,,,,,,,,,,,,,,,,,,,,,,,,,,,,,,,,,,,,,,,,,,,,,,,,,,,,,,,,,,,,,,,,,,,,,,,,,,,,,,,,,,,,,,,,,,,,,,,,
1739355753.187264,1739355753.187729,84.000000,0.000000,4034.615479,4039.358887,4185.641113,2825.897461,4096.410156,4165.512695,4087.564209,4218.846191,4086.666748,4065.512939,3481.153809,4152.948730,4257.436035,4357.820313,5536.000000,0.000000,13.000000,,,,0.000000,4.000000,4.000000,4.000000,4.000000,4.000000,4.000000,4.000000,4.000000,4.000000,4.000000,4.000000,4.000000,4.000000,4.000000,100.000000,,,,,,,,,,,,,,,,,21.000000,0.000000,0.684656,0.066711,-0.691223,0.221375,1.005494,-0.222683,0.042974,-41.516457,-30.162981,43.433472,,,,,,,,,,,,,,,,,,,,,,,,,,,,,,,,,,,,,,,,,,,,,,,,,,,,,,,,,,,,,,,,,,,,,,,,,,,,,,,,,,,,,,,,,,,,,,,,,,,,,
1739355753.195072,1739355753.195637,85.000000,0.000000,4034.487061,4037.564209,4184.871582,2825.000000,4097.436035,4161.153809,4081.666748,4219.615234,4081.538574,4055.128174,3477.051270,4149.358887,4259.871582,4357.436035,6481.000000,0.000000,13.000000,,,,0.000000,4.000000,4.000000,4.000000,4.000000,4.000000,4.000000,4.000000,4.000000,4.000000,4.000000,4.000000,4.000000,4.000000,4.000000,100.000000,,,,,,,,,,,,,,,,,,,,,,,,,,,,,,,,,,,,,,,,,,,,,,,,,,,,,,,,,,,,,,,,,,,,,,,,,,,,,,,,,,,,,,,,,,,,,,,,,,,,,,,,,,,,,,,,,,,,,,,,,,,,,,,,,
1739355753.202880,1739355753.203445,86.000000,0.000000,4034.743652,4035.769287,4186.922852,2827.692383,4110.000000,4158.077148,4083.718018,4221.794922,4089.487061,4058.076904,3477.564209,4148.333496,4260.384766,4359.358887,4883.000000,0.000000,13.000000,,,,0.000000,4.000000,4.000000,4.000000,4.000000,4.000000,4.000000,4.000000,4.000000,4.000000,4.000000,4.000000,4.000000,4.000000,4.000000,100.000000,,,,,,,,,,,,,,,,,,,,,,,,,,,,,,,,,,,,,,,,,,,,,,,,,,,,,,,,,,,,,,,,,,,,,,,,,,,,,,,,,,,,,,,,,,,,,,,,,,,,,,,,,,,,,,,,,,,,,,,,,,,,,,,,,
1739355753.210688,1739355753.211354,87.000000,0.000000,4023.076904,4025.384521,4187.051270,2823.333252,4098.333496,4152.051270,4079.615479,4222.179688,4088.076904,4063.076904,3471.794922,4136.153809,4254.358887,4350.897461,5452.000000,0.000000,13.000000,,,,0.000000,4.000000,4.000000,4.000000,4.000000,4.000000,4.000000,4.000000,4.000000,4.000000,4.000000,4.000000,4.000000,4.000000,4.000000,100.000000,,,,,,,,,,,,,,,,,,,,,,,,,,,,,,,,,,,,,,,,,,,,,,,,,,,,,,,,,,,,,,,,,,,,,,,,,,,,,,,,,,,,,,,,,,,,,,,,,,,,,,,,,,,,,,,,,,,,,,,,,,,,,,,,,
1739355753.218496,1739355753.219162,88.000000,0.000000,4008.461426,4012.948730,4177.563965,2817.179443,4072.692383,4138.717773,4063.205078,4218.589844,4074.871826,4062.051270,3463.974365,4120.000000,4247.820313,4339.230957,5536.000000,0.000000,13.000000,,,,0.000000,4.000000,4.000000,4.000000,4.000000,4.000000,4.000000,4.000000,4.000000,4.000000,4.000000,4.000000,4.000000,4.000000,4.000000,100.000000,,,,,,,,,,,,,,,,,22.000000,0.000000,0.684112,0.066345,-0.691895,0.221069,0.966427,-0.209498,0.040044,-41.531479,-30.213350,43.373459,,,,,,,,,,,,,,,,,,,,,,,,,,,,,,,,7.842661,2.036368,2.054739,2.437350,6.678285,2.961863,1.550620,1.766029,1.407758,6.124240,17.088333,3.531577,1.719834,3.159932,6.181231,33.262978,10.934668,5.359120,3.833481,7.515289,1.778338,0.826600,2.138167,2.001277,5.364486,1.778167,0.754960,1.681665,1.906082,4.109585,3.023003,1.729496,1.544116,2.883300,7.712129,24.070841,5.818784,2.162558,2.228120,1.888393,2.586671,1.148497,0.946303,2.121763,4.933991,3.721404,1.400833,2.042787,2.412154,6.978662,43.775002,17.086746,1.868521,3.601857,6.165725,10.015297,2.106255,1.694184,3.379714,8.499584,4.940523,1.078598,1.204317,1.506820,5.650839,13.284538,2.328701,1.496276,2.565281,6.798073
1739355753.226304,1739355753.226870,89.000000,0.000000,3998.205078,4007.307617,4165.897461,2815.128174,4062.692383,4126.282227,4050.000000,4213.077148,4059.743652,4045.000000,3454.743652,4108.846191,4238.846191,4327.948730,6481.000000,0.000000,13.000000,,,,0.000000,4.000000,4.000000,4.000000,4.000000,4.000000,4.000000,4.000000,4.000000,4.000000,4.000000,4.000000,4.000000,4.000000,4.000000,100.000000,,,,,,,,,,,,,,,,,,,,,,,,,,,,,,,,,,,,,,,,,,,,,,,,,,,,,,,,,,,,,,,,,,,,,,,,,,,,,,,,,,,,,,,,,,,,,,,,,,,,,,,,,,,,,,,,,,,,,,,,,,,,,,,,,
1739355753.234112,1739355753.234678,90.000000,0.000000,3989.102539,4000.000000,4160.256348,2816.666748,4066.281982,4130.512695,4050.128174,4211.410156,4052.820557,4026.410156,3439.230713,4100.128418,4229.871582,4315.641113,4883.000000,0.000000,13.000000,,,,0.000000,4.000000,4.000000,4.000000,4.000000,4.000000,4.000000,4.000000,4.000000,4.000000,4.000000,4.000000,4.000000,4.000000,4.000000,100.000000,,,,,,,,,,,,,,,,,,,,,,,,,,,,,,,,,,,,,,,,,,,,,,,,,,,,,,,,,,,,,,,,,,,,,,,,,,,,,,,,,,,,,,,,,,,,,,,,,,,,,,,,,,,,,,,,,,,,,,,,,,,,,,,,,
1739355753.241920,1739355753.242386,91.000000,0.000000,3975.512939,3980.897461,4147.307617,2812.179443,4058.076904,4131.282227,4045.641113,4210.256348,4049.230713,4020.384521,3427.435791,4087.564209,4223.717773,4304.871582,5452.000000,0.000000,13.000000,,,,0.000000,4.000000,4.000000,4.000000,4.000000,4.000000,4.000000,4.000000,4.000000,4.000000,4.000000,4.000000,4.000000,4.000000,4.000000,100.000000,,,,,,,,,,,,,,,,,,,,,,,,,,,,,,,,,,,,,,,,,,,,,,,,,,,,,,,,,,,,,,,,,,,,,,,,,,,,,,,,,,,,,,,,,,,,,,,,,,,,,,,,,,,,,,,,,,,,,,,,,,,,,,,,,
1739355753.249728,1739355753.250194,92.000000,0.000000,3975.769287,3982.435791,4143.333496,2819.230713,4051.923096,4121.538574,4033.205078,4206.025879,4042.307617,4025.641113,3433.846191,4086.025635,4224.743652,4307.051270,5536.000000,0.000000,13.000000,,,,0.000000,4.000000,4.000000,4.000000,4.000000,4.000000,4.000000,4.000000,4.000000,4.000000,4.000000,4.000000,4.000000,4.000000,4.000000,100.000000,,,,,,,,,,,,,,,,,23.000000,0.000000,0.683395,0.065735,-0.692505,0.221558,1.045049,-0.241729,0.037602,-41.578331,-30.025349,43.386112,,,,,,,,,,,,,,,,,,,,,,,,,,,,,,,,,,,,,,,,,,,,,,,,,,,,,,,,,,,,,,,,,,,,,,,,,,,,,,,,,,,,,,,,,,,,,,,,,,,,,
1739355753.257536,1739355753.257902,93.000000,0.000000,3997.948730,4013.461426,4163.974121,2846.666748,4070.128174,4131.538574,4043.333252,4211.153809,4043.718018,4034.358887,3447.948730,4106.538574,4235.897461,4324.487305,6481.000000,0.000000,13.000000,,,,0.000000,4.000000,4.000000,4.000000,4.000000,4.000000,4.000000,4.000000,4.000000,4.000000,4.000000,4.000000,4.000000,4.000000,4.000000,100.000000,,,,,,,,,,,,,,,,,,,,,,,,,,,,,,,,,,,,,,,,,,,,,,,,,,,,,,,,,,,,,,,,,,,,,,,,,,,,,,,,,,,,,,,,,,,,,,,,,,,,,,,,,,,,,,,,,,,,,,,,,,,,,,,,,
1739355753.265345,1739355753.265810,94.000000,0.000000,4001.153809,4016.410156,4171.538574,2858.846191,4081.794922,4145.512695,4059.871826,4214.615234,4048.076904,4033.461426,3445.128174,4116.666504,4236.282227,4328.077148,4883.000000,0.000000,13.000000,,,,0.000000,4.000000,4.000000,4.000000,4.000000,4.000000,4.000000,4.000000,4.000000,4.000000,4.000000,4.000000,4.000000,4.000000,4.000000,100.000000,,,,,,,,,,,,,,,,,,,,,,,,,,,,,,,,,,,,,,,,,,,,,,,,,,,,,,,,,,,,,,,,,,,,,,,,,,,,,,,,,,,,,,,,,,,,,,,,,,,,,,,,,,,,,,,,,,,,,,,,,,,,,,,,,
1739355753.273152,1739355753.273618,95.000000,0.000000,3980.384521,3991.538574,4157.179688,2852.051270,4065.641113,4139.358887,4052.051270,4208.846191,4043.205078,4025.897461,3435.512939,4105.512695,4223.077148,4308.717773,5452.000000,0.000000,13.000000,,,,0.000000,4.000000,4.000000,4.000000,4.000000,4.000000,4.000000,4.000000,4.000000,4.000000,4.000000,4.000000,4.000000,4.000000,4.000000,100.000000,,,,,,,,,,,,,,,,,,,,,,,,,,,,,,,,,,,,,,,,,,,,,,,,,,,,,,,,,,,,,,,,,,,,,,,,,,,,,,,,,,,,,,,,,,,,,,,,,,,,,,,,,,,,,,,,,,,,,,,,,,,,,,,,,
1739355753.280961,1739355753.281526,96.000000,0.000000,3969.743652,3985.128174,4145.000000,2847.948730,4048.718018,4130.769043,4037.820557,4205.512695,4038.718018,4020.641113,3432.179443,4094.487061,4217.179688,4293.205078,5536.000000,0.000000,13.000000,,,,0.000000,4.000000,4.000000,4.000000,4.000000,4.000000,4.000000,4.000000,4.000000,4.000000,4.000000,4.000000,4.000000,4.000000,4.000000,100.000000,,,,,,,,,,,,,,,,,24.000000,0.000000,0.682491,0.064758,-0.693115,0.222717,1.026004,-0.238799,0.022952,-41.553829,-30.056147,43.414169,,,,,,,,,,,,,,,,,,,,,,,,,,,,,,,,,,,,,,,,,,,,,,,,,,,,,,,,,,,,,,,,,,,,,,,,,,,,,,,,,,,,,,,,,,,,,,,,,,,,,
1739355753.288769,1739355753.289335,97.000000,0.000000,3966.538574,3983.589844,4137.307617,2851.794922,4047.307617,4132.563965,4040.128174,4206.410156,4033.461426,4013.205078,3428.461426,4087.564209,4214.230957,4290.769043,6481.000000,0.000000,13.000000,,,,0.000000,4.000000,4.000000,4.000000,4.000000,4.000000,4.000000,4.000000,4.000000,4.000000,4.000000,4.000000,4.000000,4.000000,4.000000,100.000000,,,,,,,,,,,,,,,,,,,,,,,,,,,,,,,,,,,,,,,,,,,,,,,,,,,,,,,,,,,,,,,,,,,,,,,,,,,,,,,,,,,,,,,,,,,,,,,,,,,,,,,,,,,,,,,,,,,,,,,,,,,,,,,,,
1739355753.296577,1739355753.297243,98.000000,0.000000,3975.384521,3991.923096,4149.487305,2873.205078,4063.205078,4148.717773,4059.871826,4211.538574,4038.076904,4018.718018,3439.615479,4103.333496,4216.666504,4301.282227,4883.000000,0.000000,13.000000,,,,0.000000,4.000000,4.000000,4.000000,4.000000,4.000000,4.000000,4.000000,4.000000,4.000000,4.000000,4.000000,4.000000,4.000000,4.000000,100.000000,,,,,,,,,,,,,,,,,,,,,,,,,,,,,,,,,,,,,,,,,,,,,,,,,,,,,,,,,,,,,,,,,,,,,,,,,,,,,,,,,,,,,,,,,,,,,,,,,,,,,,,,,,,,,,,,,,,,,,,,,,,,,,,,,
1739355753.304385,1739355753.305051,99.000000,0.000000,3996.794922,4022.948730,4173.589844,2903.846191,4084.102539,4169.743652,4079.230713,4216.282227,4059.615479,4039.230713,3460.897461,4134.230957,4233.333496,4319.615234,5452.000000,0.000000,13.000000,,,,0.000000,4.000000,4.000000,4.000000,4.000000,4.000000,4.000000,4.000000,4.000000,4.000000,4.000000,4.000000,4.000000,4.000000,4.000000,100.000000,,,,,,,,,,,,,,,,,,,,,,,,,,,,,,,,,,,,,,,,,,,,,,,,,,,,,,,,,,,,,,,,,,,,,,,,,,,,,,,,,,,,,,,,,,,,,,,,,,,,,,,,,,,,,,,,,,,,,,,,,,,,,,,,,
1739355753.312193,1739355753.312859,100.000000,0.000000,3989.743652,4023.076904,4161.153809,2903.846191,4080.641113,4164.871582,4068.974365,4210.769043,4059.743652,4033.205078,3452.820557,4127.051270,4231.922852,4313.077148,5536.000000,0.000000,13.000000,,,,0.000000,4.000000,4.000000,4.000000,4.000000,4.000000,4.000000,4.000000,4.000000,4.000000,4.000000,4.000000,4.000000,4.000000,4.000000,100.000000,,,,,,,,,,,,,,,,,25.000000,0.000000,0.681803,0.063660,-0.693481,0.223999,0.969357,-0.239775,0.027835,-41.598446,-30.017199,43.256084,,,,,,,,,,,,,,,,,,,,,,,,,,,,,,,,,,,,,,,,,,,,,,,,,,,,,,,,,,,,,,,,,,,,,,,,,,,,,,,,,,,,,,,,,,,,,,,,,,,,,
1739355753.320001,1739355753.320567,101.000000,0.000000,3981.410156,4011.794922,4150.641113,2905.512939,4078.076904,4162.051270,4059.230713,4206.410156,4050.384521,4031.410156,3451.794922,4121.666504,4225.512695,4306.794922,6481.000000,0.000000,13.000000,,,,0.000000,4.000000,4.000000,4.000000,4.000000,4.000000,4.000000,4.000000,4.000000,4.000000,4.000000,4.000000,4.000000,4.000000,4.000000,100.000000,,,,,,,,,,,,,,,,,,,,,,,,,,,,,,,,,,,,,,,,,,,,,,,,,,,,,,,,,,,,,,,,,,,,,,,,,,,,,,,,,,,,,,,,,,,,,,,,,,,,,,,,,,,,,,,,,,,,,,,,,,,,,,,,,
1739355753.327809,1739355753.328375,102.000000,0.000000,4006.923096,4028.846191,4181.153809,2936.281982,4097.820313,4183.974121,4078.846191,4216.922852,4068.076904,4063.205078,3484.871826,4153.974121,4235.641113,4328.077148,4883.000000,0.000000,13.000000,,,,0.000000,4.000000,4.000000,4.000000,4.000000,4.000000,4.000000,4.000000,4.000000,4.000000,4.000000,4.000000,4.000000,4.000000,4.000000,100.000000,,,,,,,,,,,,,,,,,,,,,,,,,,,,,,,,,,,,,,,,,,,,,,,,,,,,,,,,,,,,,,,,,,,,,,,,,,,,,,,,,,,,,,,,,,,,,,,,,,,,,,,,,,,,,,,,,,,,,,,,,,,,,,,,,
1739355753.335617,1739355753.336083,103.000000,0.000000,4018.589844,4034.871826,4193.717773,2950.641113,4104.358887,4190.256348,4085.769287,4221.153809,4084.102539,4075.384521,3500.128174,4167.563965,4240.769043,4336.922852,5452.000000,0.000000,13.000000,,,,0.000000,4.000000,4.000000,4.000000,4.000000,4.000000,4.000000,4.000000,4.000000,4.000000,4.000000,4.000000,4.000000,4.000000,4.000000,100.000000,,,,,,,,,,,,,,,,,,,,,,,,,,,,,,,,,,,,,,,,,,,,,,,,,,,,,,,,,,,,,,,,,,,,,,,,,,,,,,,,,,,,,,,,,,,,,,,,,,,,,,,,,,,,,,,,,,,,,,,,,,,,,,,,,
1739355753.343425,1739355753.343891,104.000000,0.000000,4001.410156,4025.384521,4179.743652,2947.435791,4094.871826,4185.897461,4077.435791,4213.077148,4072.307617,4057.435791,3490.256348,4153.846191,4234.102539,4324.871582,5536.000000,0.000000,13.000000,,,,0.000000,4.000000,4.000000,4.000000,4.000000,4.000000,4.000000,4.000000,4.000000,4.000000,4.000000,4.000000,4.000000,4.000000,4.000000,100.000000,,,,,,,,,,,,,,,,,26.000000,0.000000,0.681185,0.063232,-0.693970,0.224487,0.973752,-0.237334,0.016604,-41.705269,-29.998812,43.263809,,,,,,,,,,,,,,,,,,,,,,,,,,,,,,,,7.429218,2.050669,2.023605,2.361470,6.319070,2.999729,1.862882,1.784975,1.417127,5.622517,17.290430,3.635090,1.873608,3.085561,5.777763,27.375469,12.075546,4.790089,3.945960,6.986167,1.861332,0.785591,2.409331,1.789307,4.873563,1.675449,0.884900,1.537443,1.923115,3.871320,3.133169,2.194811,1.349464,2.950775,7.589121,21.928537,5.371753,1.987583,2.065114,1.772051,3.100457,1.099906,0.831120,2.008130,4.796113,3.996020,1.503681,1.883768,2.333937,6.515772,65.898796,25.027767,2.890988,4.590898,5.908235,13.401105,2.445462,1.999713,3.519391,8.101268,5.476926,1.243796,1.548559,1.375001,5.299794,14.214897,2.685151,1.822383,2.440147,6.260152
1739355753.351233,1739355753.351599,105.000000,0.000000,4009.615479,4044.615479,4189.358887,2969.871826,4108.205078,4205.769043,4094.743652,4216.666504,4073.846191,4071.410156,3503.589844,4170.000000,4240.256348,4334.358887,6481.000000,0.000000,13.000000,,,,0.000000,4.000000,4.000000,4.000000,4.000000,4.000000,4.000000,4.000000,4.000000,4.000000,4.000000,4.000000,4.000000,4.000000,4.000000,100.000000,,,,,,,,,,,,,,,,,,,,,,,,,,,,,,,,,,,,,,,,,,,,,,,,,,,,,,,,,,,,,,,,,,,,,,,,,,,,,,,,,,,,,,,,,,,,,,,,,,,,,,,,,,,,,,,,,,,,,,,,,,,,,,,,,
1739355753.359041,1739355753.359507,106.000000,0.000000,4036.025635,4068.205078,4210.000000,3001.025635,4134.358887,4225.256348,4115.384766,4224.102539,4096.153809,4107.820313,3530.128174,4200.128418,4250.256348,4354.615234,4883.000000,0.000000,13.000000,,,,0.000000,4.000000,4.000000,4.000000,4.000000,4.000000,4.000000,4.000000,4.000000,4.000000,4.000000,4.000000,4.000000,4.000000,4.000000,100.000000,,,,,,,,,,,,,,,,,,,,,,,,,,,,,,,,,,,,,,,,,,,,,,,,,,,,,,,,,,,,,,,,,,,,,,,,,,,,,,,,,,,,,,,,,,,,,,,,,,,,,,,,,,,,,,,,,,,,,,,,,,,,,,,,,
1739355753.366850,1739355753.367316,107.000000,0.000000,4028.461426,4055.000000,4203.846191,2999.615479,4131.025879,4220.641113,4108.589844,4218.461426,4093.846191,4097.563965,3523.461426,4188.589844,4235.512695,4341.410156,5452.000000,0.000000,13.000000,,,,0.000000,4.000000,4.000000,4.000000,4.000000,4.000000,4.000000,4.000000,4.000000,4.000000,4.000000,4.000000,4.000000,4.000000,4.000000,100.000000,,,,,,,,,,,,,,,,,,,,,,,,,,,,,,,,,,,,,,,,,,,,,,,,,,,,,,,,,,,,,,,,,,,,,,,,,,,,,,,,,,,,,,,,,,,,,,,,,,,,,,,,,,,,,,,,,,,,,,,,,,,,,,,,,
1739355753.374658,1739355753.375224,108.000000,0.000000,4012.179443,4050.641113,4196.666504,2998.846191,4119.871582,4221.538574,4105.641113,4215.641113,4081.538574,4074.102539,3516.410156,4172.307617,4230.769043,4330.000000,5536.000000,0.000000,13.000000,,,,0.000000,4.000000,4.000000,4.000000,4.000000,4.000000,4.000000,4.000000,4.000000,4.000000,4.000000,4.000000,4.000000,4.000000,4.000000,100.000000,,,,,,,,,,,,,,,,,27.000000,0.000000,0.681284,0.063660,-0.694031,0.223877,0.926871,-0.227078,0.013674,-41.668076,-29.865597,43.304096,,,,,,,,,,,,,,,,,,,,,,,,,,,,,,,,,,,,,,,,,,,,,,,,,,,,,,,,,,,,,,,,,,,,,,,,,,,,,,,,,,,,,,,,,,,,,,,,,,,,,
1739355753.382466,1739355753.383032,109.000000,0.000000,4025.000000,4073.333252,4214.230957,3027.179443,4132.692383,4240.512695,4124.871582,4225.384766,4102.948730,4097.948730,3546.410156,4195.641113,4256.410156,4352.436035,6481.000000,0.000000,13.000000,,,,0.000000,4.000000,4.000000,4.000000,4.000000,4.000000,4.000000,4.000000,4.000000,4.000000,4.000000,4.000000,4.000000,4.000000,4.000000,100.000000,,,,,,,,,,,,,,,,,,,,,,,,,,,,,,,,,,,,,,,,,,,,,,,,,,,,,,,,,,,,,,,,,,,,,,,,,,,,,,,,,,,,,,,,,,,,,,,,,,,,,,,,,,,,,,,,,,,,,,,,,,,,,,,,,
1739355753.390274,1739355753.390940,110.000000,0.000000,4035.384521,4077.820557,4222.820313,3042.051270,4144.102539,4250.641113,4133.461426,4224.615234,4119.230957,4120.256348,3562.435791,4210.384766,4261.666504,4361.025879,4883.000000,0.000000,13.000000,,,,0.000000,4.000000,4.000000,4.000000,4.000000,4.000000,4.000000,4.000000,4.000000,4.000000,4.000000,4.000000,4.000000,4.000000,4.000000,100.000000,,,,,,,,,,,,,,,,,,,,,,,,,,,,,,,,,,,,,,,,,,,,,,,,,,,,,,,,,,,,,,,,,,,,,,,,,,,,,,,,,,,,,,,,,,,,,,,,,,,,,,,,,,,,,,,,,,,,,,,,,,,,,,,,,
1739355753.398082,1739355753.398748,111.000000,0.000000,4024.102539,4063.589844,4210.641113,3033.718018,4133.846191,4244.358887,4121.538574,4214.871582,4102.563965,4107.307617,3548.718018,4190.897461,4245.256348,4343.974121,5452.000000,0.000000,13.000000,,,,0.000000,4.000000,4.000000,4.000000,4.000000,4.000000,4.000000,4.000000,4.000000,4.000000,4.000000,4.000000,4.000000,4.000000,4.000000,100.000000,,,,,,,,,,,,,,,,,,,,,,,,,,,,,,,,,,,,,,,,,,,,,,,,,,,,,,,,,,,,,,,,,,,,,,,,,,,,,,,,,,,,,,,,,,,,,,,,,,,,,,,,,,,,,,,,,,,,,,,,,,,,,,,,,
1739355753.405890,1739355753.406656,112.000000,0.000000,4027.435791,4067.948730,4215.128418,3040.000000,4129.487305,4245.897461,4122.307617,4218.205078,4107.051270,4113.205078,3562.179443,4193.846191,4255.897461,4350.769043,5536.000000,0.000000,13.000000,,,,0.000000,4.000000,4.000000,4.000000,4.000000,4.000000,4.000000,4.000000,4.000000,4.000000,4.000000,4.000000,4.000000,4.000000,4.000000,100.000000,,,,,,,,,,,,,,,,,28.000000,0.000000,0.681302,0.063660,-0.694092,0.223633,0.959590,-0.224148,0.010255,-41.701267,-30.145704,43.273685,,,,,,,,,,,,,,,,,,,,,,,,,,,,,,,,,,,,,,,,,,,,,,,,,,,,,,,,,,,,,,,,,,,,,,,,,,,,,,,,,,,,,,,,,,,,,,,,,,,,,
1739355753.413698,1739355753.414565,113.000000,0.000000,4050.897461,4090.384521,4238.077148,3063.076904,4151.538574,4264.102539,4140.256348,4227.820313,4136.794922,4145.641113,3598.333252,4227.692383,4280.256348,4380.000000,6481.000000,0.000000,13.000000,,,,0.000000,4.000000,4.000000,4.000000,4.000000,4.000000,4.000000,4.000000,4.000000,4.000000,4.000000,4.000000,4.000000,4.000000,4.000000,100.000000,,,,,,,,,,,,,,,,,,,,,,,,,,,,,,,,,,,,,,,,,,,,,,,,,,,,,,,,,,,,,,,,,,,,,,,,,,,,,,,,,,,,,,,,,,,,,,,,,,,,,,,,,,,,,,,,,,,,,,,,,,,,,,,,,
1739355753.421506,1739355753.422373,114.000000,0.000000,4044.743652,4082.564209,4229.871582,3058.846191,4151.282227,4262.051270,4128.589844,4222.307617,4127.563965,4139.743652,3592.051270,4215.384766,4267.563965,4366.282227,4883.000000,0.000000,13.000000,,,,0.000000,4.000000,4.000000,4.000000,4.000000,4.000000,4.000000,4.000000,4.000000,4.000000,4.000000,4.000000,4.000000,4.000000,4.000000,100.000000,,,,,,,,,,,,,,,,,,,,,,,,,,,,,,,,,,,,,,,,,,,,,,,,,,,,,,,,,,,,,,,,,,,,,,,,,,,,,,,,,,,,,,,,,,,,,,,,,,,,,,,,,,,,,,,,,,,,,,,,,,,,,,,,,
1739355753.429314,1739355753.430182,115.000000,0.000000,4023.205078,4065.641113,4206.666504,3047.564209,4132.692383,4248.077148,4104.871582,4213.974121,4102.563965,4117.307617,3574.743652,4183.333496,4252.692383,4339.102539,5452.000000,0.000000,13.000000,,,,0.000000,4.000000,4.000000,4.000000,4.000000,4.000000,4.000000,4.000000,4.000000,4.000000,4.000000,4.000000,4.000000,4.000000,4.000000,100.000000,,,,,,,,,,,,,,,,,,,,,,,,,,,,,,,,,,,,,,,,,,,,,,,,,,,,,,,,,,,,,,,,,,,,,,,,,,,,,,,,,,,,,,,,,,,,,,,,,,,,,,,,,,,,,,,,,,,,,,,,,,,,,,,,,
1739355753.437122,1739355753.437890,116.000000,0.000000,4041.538574,4087.179443,4221.410156,3077.051270,4150.000000,4265.128418,4121.410156,4224.743652,4119.487305,4135.769043,3602.820557,4210.512695,4276.025879,4364.102539,5536.000000,0.000000,13.000000,,,,0.000000,4.000000,4.000000,4.000000,4.000000,4.000000,4.000000,4.000000,4.000000,4.000000,4.000000,4.000000,4.000000,4.000000,4.000000,100.000000,,,,,,,,,,,,,,,,,29.000000,0.000000,0.681201,0.063171,-0.694275,0.223511,0.987425,-0.228055,0.024905,-41.681141,-30.181133,43.162983,,,,,,,,,,,,,,,,,,,,,,,,,,,,,,,,,,,,,,,,,,,,,,,,,,,,,,,,,,,,,,,,,,,,,,,,,,,,,,,,,,,,,,,,,,,,,,,,,,,,,
