title:Yousef Rihani1739354623289, start timestamp:1739354624.809953, stop timestamp:1739354687.758683, headset type:EPOCX, headset serial:E50208A5, headset firmware:720, channels:168, sampling rate:eeg_128;mot_32;pm_0.1;pow_8, samples:8063      , version:2.2, 
Timestamp,OriginalTimestamp,EEG.Counter,EEG.Interpolated,EEG.AF3,EEG.F7,EEG.F3,EEG.FC5,EEG.T7,EEG.P7,EEG.O1,EEG.O2,EEG.P8,EEG.T8,EEG.FC6,EEG.F4,EEG.F8,EEG.AF4,EEG.RawCq,EEG.Battery,EEG.BatteryPercent,MarkerIndex,MarkerType,MarkerValueInt,EEG.MarkerHardware,CQ.AF3,CQ.F7,CQ.F3,CQ.FC5,CQ.T7,CQ.P7,CQ.O1,CQ.O2,CQ.P8,CQ.T8,CQ.FC6,CQ.F4,CQ.F8,CQ.AF4,CQ.Overall,EQ.SampleRateQuality,EQ.OVERALL,EQ.AF3,EQ.F7,EQ.F3,EQ.FC5,EQ.T7,EQ.P7,EQ.O1,EQ.O2,EQ.P8,EQ.T8,EQ.FC6,EQ.F4,EQ.F8,EQ.AF4,MOT.CounterMems,MOT.InterpolatedMems,MOT.Q0,MOT.Q1,MOT.Q2,MOT.Q3,MOT.AccX,MOT.AccY,MOT.AccZ,MOT.MagX,MOT.MagY,MOT.MagZ,PM.Attention.IsActive,PM.Attention.Scaled,PM.Attention.Raw,PM.Attention.Min,PM.Attention.Max,PM.Engagement.IsActive,PM.Engagement.Scaled,PM.Engagement.Raw,PM.Engagement.Min,PM.Engagement.Max,PM.Excitement.IsActive,PM.Excitement.Scaled,PM.Excitement.Raw,PM.Excitement.Min,PM.Excitement.Max,PM.LongTermExcitement,PM.Stress.IsActive,PM.Stress.Scaled,PM.Stress.Raw,PM.Stress.Min,PM.Stress.Max,PM.Relaxation.IsActive,PM.Relaxation.Scaled,PM.Relaxation.Raw,PM.Relaxation.Min,PM.Relaxation.Max,PM.Interest.IsActive,PM.Interest.Scaled,PM.Interest.Raw,PM.Interest.Min,PM.Interest.Max,POW.AF3.Theta,POW.AF3.Alpha,POW.AF3.BetaL,POW.AF3.BetaH,POW.AF3.Gamma,POW.F7.Theta,POW.F7.Alpha,POW.F7.BetaL,POW.F7.BetaH,POW.F7.Gamma,POW.F3.Theta,POW.F3.Alpha,POW.F3.BetaL,POW.F3.BetaH,POW.F3.Gamma,POW.FC5.Theta,POW.FC5.Alpha,POW.FC5.BetaL,POW.FC5.BetaH,POW.FC5.Gamma,POW.T7.Theta,POW.T7.Alpha,POW.T7.BetaL,POW.T7.BetaH,POW.T7.Gamma,POW.P7.Theta,POW.P7.Alpha,POW.P7.BetaL,POW.P7.BetaH,POW.P7.Gamma,POW.O1.Theta,POW.O1.Alpha,POW.O1.BetaL,POW.O1.BetaH,POW.O1.Gamma,POW.O2.Theta,POW.O2.Alpha,POW.O2.BetaL,POW.O2.BetaH,POW.O2.Gamma,POW.P8.Theta,POW.P8.Alpha,POW.P8.BetaL,POW.P8.BetaH,POW.P8.Gamma,POW.T8.Theta,POW.T8.Alpha,POW.T8.BetaL,POW.T8.BetaH,POW.T8.Gamma,POW.FC6.Theta,POW.FC6.Alpha,POW.FC6.BetaL,POW.FC6.BetaH,POW.FC6.Gamma,POW.F4.Theta,POW.F4.Alpha,POW.F4.BetaL,POW.F4.BetaH,POW.F4.Gamma,POW.F8.Theta,POW.F8.Alpha,POW.F8.BetaL,POW.F8.BetaH,POW.F8.Gamma,POW.AF4.Theta,POW.AF4.Alpha,POW.AF4.BetaL,POW.AF4.BetaH,POW.AF4.Gamma
1739354624.809953,1739354624.810142,82.000000,0.000000,4275.897461,4259.871582,4286.410156,4332.179688,4236.025879,4206.538574,4203.205078,4275.769043,4241.025879,4174.743652,4707.179688,4692.563965,4411.666504,4503.461426,4991.000000,1.000000,17.000000,,,,0.000000,4.000000,4.000000,4.000000,4.000000,4.000000,4.000000,4.000000,4.000000,4.000000,4.000000,4.000000,4.000000,4.000000,4.000000,100.000000,,,,,,,,,,,,,,,,,,,,,,,,,,,,,,,,,,,,,,,,,,,,,,,,,,,,,,,,,,,,,,,,,,,,,,,,,,,,,,,,,,,,,,,,,,,,,,,,,,,,,,,,,,,,,,,,,,,,,,,,,,,,,,,,,
1739354624.817761,1739354624.818050,83.000000,0.000000,4267.692383,4250.000000,4283.205078,4326.666504,4227.179688,4200.256348,4200.897461,4269.487305,4231.025879,4170.384766,4700.384766,4685.641113,4398.333496,4496.922852,5447.000000,1.000000,17.000000,,,,0.000000,4.000000,4.000000,4.000000,4.000000,4.000000,4.000000,4.000000,4.000000,4.000000,4.000000,4.000000,4.000000,4.000000,4.000000,100.000000,,,,,,,,,,,,,,,,,,,,,,,,,,,,,,,,,,,,,,,,,,,,,,,,,,,,,,,,,,,,,,,,,,,,,,,,,,,,,,,,,,,,,,,,,,,,,,,,,,,,,,,,,,,,,,,,,,,,,,,,,,,,,,,,,
1739354624.825569,1739354624.825859,84.000000,0.000000,4269.230957,4253.461426,4284.358887,4327.692383,4236.410156,4207.563965,4209.230957,4272.307617,4235.256348,4171.794922,4699.615234,4693.077148,4393.461426,4497.563965,5529.000000,1.000000,17.000000,,,,0.000000,4.000000,4.000000,4.000000,4.000000,4.000000,4.000000,4.000000,4.000000,4.000000,4.000000,4.000000,4.000000,4.000000,4.000000,100.000000,,,,,,,,,,,,,,,,,21.000000,0.000000,0.405272,0.437378,-0.523743,0.608398,0.977658,-0.287144,0.086925,-38.722878,-30.348759,44.745136,,,,,,,,,,,,,,,,,,,,,,,,,,,,,,,,,,,,,,,,,,,,,,,,,,,,,,,,,,,,,,,,,,,,,,,,,,,,,,,,,,,,,,,,,,,,,,,,,,,,,
1739354624.833377,1739354624.833767,85.000000,0.000000,4286.922852,4274.743652,4304.358887,4342.051270,4256.794922,4229.487305,4232.820313,4283.974121,4252.692383,4195.128418,4724.230957,4717.179688,4410.384766,4514.358887,6513.000000,1.000000,17.000000,,,,0.000000,4.000000,4.000000,4.000000,4.000000,4.000000,4.000000,4.000000,4.000000,4.000000,4.000000,4.000000,4.000000,4.000000,4.000000,100.000000,,,,,,,,,,,,,,,,,,,,,,,,,,,,,,,,,,,,,,,,,,,,,,,,,,,,,,,,,,,,,,,,,,,,,,,,,,,,,,,,,,,,,,,,,,,,,,,,,,,,,,,,,,,,,,,,,,,,,,,,,,,,,,,,,
1739354624.841185,1739354624.841575,86.000000,0.000000,4286.025879,4274.487305,4308.077148,4342.179688,4256.794922,4238.333496,4240.128418,4283.974121,4253.974121,4204.358887,4728.846191,4721.025879,4417.307617,4518.974121,4991.000000,1.000000,17.000000,,,,0.000000,4.000000,4.000000,4.000000,4.000000,4.000000,4.000000,4.000000,4.000000,4.000000,4.000000,4.000000,4.000000,4.000000,4.000000,100.000000,,,,,,,,,,,,,,,,,,,,,,,,,,,,,,,,,,,,,,,,,,,,,,,,,,,,,,,,,,,,,,,,,,,,,,,,,,,,,,,,,,,,,,,,,,,,,,,,,,,,,,,,,,,,,,,,,,,,,,,,,,,,,,,,,
1739354624.848993,1739354624.849483,87.000000,0.000000,4279.358887,4262.563965,4300.128418,4334.230957,4252.307617,4234.743652,4235.641113,4279.743652,4248.077148,4201.410156,4718.333496,4715.512695,4409.102539,4514.743652,5447.000000,1.000000,17.000000,,,,0.000000,4.000000,4.000000,4.000000,4.000000,4.000000,4.000000,4.000000,4.000000,4.000000,4.000000,4.000000,4.000000,4.000000,4.000000,100.000000,,,,,,,,,,,,,,,,,,,,,,,,,,,,,,,,,,,,,,,,,,,,,,,,,,,,,,,,,,,,,,,,,,,,,,,,,,,,,,,,,,,,,,,,,,,,,,,,,,,,,,,,,,,,,,,,,,,,,,,,,,,,,,,,,
1739354624.856801,1739354624.857291,88.000000,0.000000,4276.282227,4252.948730,4293.717773,4320.000000,4245.384766,4224.871582,4224.358887,4272.307617,4233.461426,4191.282227,4703.846191,4703.205078,4397.820313,4502.051270,5529.000000,1.000000,17.000000,,,,0.000000,4.000000,4.000000,4.000000,4.000000,4.000000,4.000000,4.000000,4.000000,4.000000,4.000000,4.000000,4.000000,4.000000,4.000000,100.000000,,,,,,,,,,,,,,,,,22.000000,0.000000,0.405590,0.436829,-0.523743,0.608582,0.971798,-0.287633,0.076181,-38.650589,-30.230551,44.737289,,,,,,,,,,,,,,,,,,,,,,,,,,,,,,,,,,,,,,,,,,,,,,,,,,,,,,,,,,,,,,,,,,,,,,,,,,,,,,,,,,,,,,,,,,,,,,,,,,,,,
1739354624.864609,1739354624.865199,89.000000,0.000000,4278.077148,4254.871582,4293.205078,4313.461426,4240.128418,4222.948730,4215.256348,4267.307617,4220.128418,4183.974121,4695.512695,4695.256348,4402.179688,4499.615234,6513.000000,1.000000,17.000000,,,,0.000000,4.000000,4.000000,4.000000,4.000000,4.000000,4.000000,4.000000,4.000000,4.000000,4.000000,4.000000,4.000000,4.000000,4.000000,100.000000,,,,,,,,,,,,,,,,,,,,,,,,,,,,,,,,,,,,,,,,,,,,,,,,,,,,,,,,,,,,,,,,,,,,,,,,,,,,,,,,,,,,,,,,,,,,,,,,,,,,,,,,,,,,,,,,,,,,,,,,,,,,,,,,,
1739354624.872417,1739354624.873007,90.000000,0.000000,4296.794922,4280.512695,4311.153809,4339.230957,4256.922852,4241.410156,4228.846191,4279.743652,4239.487305,4206.153809,4717.051270,4718.205078,4421.666504,4525.897461,4991.000000,1.000000,17.000000,,,,0.000000,4.000000,4.000000,4.000000,4.000000,4.000000,4.000000,4.000000,4.000000,4.000000,4.000000,4.000000,4.000000,4.000000,4.000000,100.000000,,,,,,,,,,,,,,,,,,,,,,,,,,,,,,,,,,,,,,,,,,,,,,,,,,,,,,,,,,,,1.538801,1.257868,1.184246,1.557160,1.526007,1.450825,1.473517,1.612525,1.358441,1.468651,1.182330,0.820549,1.155339,1.361311,1.243834,1.077429,1.131853,1.276406,1.532179,1.429068,0.991011,0.691696,0.506074,0.849404,1.072299,1.289487,0.861128,0.598493,0.778229,1.204339,1.644118,1.064621,0.811237,0.891626,1.228210,0.268293,0.158158,0.220865,0.253251,0.301806,1.632082,0.872291,0.425075,1.283411,1.268993,16.127430,1.579806,0.949623,1.683704,1.707351,1.996554,1.486564,0.454336,1.250354,1.511004,1.730660,1.508382,1.171737,1.871861,1.820321,1.315517,1.479979,0.432445,1.011522,1.370672,0.967731,1.083565,0.968674,1.540927,1.457060
1739354624.880225,1739354624.880915,91.000000,0.000000,4312.436035,4295.897461,4326.922852,4357.436035,4271.794922,4252.179688,4241.282227,4287.436035,4260.000000,4225.256348,4735.384766,4737.307617,4426.666504,4541.025879,5447.000000,1.000000,17.000000,,,,0.000000,4.000000,4.000000,4.000000,4.000000,4.000000,4.000000,4.000000,4.000000,4.000000,4.000000,4.000000,4.000000,4.000000,4.000000,100.000000,,,,,,,,,,,,,,,,,,,,,,,,,,,,,,,,,,,,,,,,,,,,,,,,,,,,,,,,,,,,,,,,,,,,,,,,,,,,,,,,,,,,,,,,,,,,,,,,,,,,,,,,,,,,,,,,,,,,,,,,,,,,,,,,,
1739354624.888034,1739354624.888723,92.000000,0.000000,4288.461426,4263.589844,4305.128418,4324.487305,4248.461426,4225.897461,4217.820313,4269.487305,4231.794922,4197.820313,4707.563965,4707.436035,4401.922852,4513.846191,5529.000000,1.000000,17.000000,,,,0.000000,4.000000,4.000000,4.000000,4.000000,4.000000,4.000000,4.000000,4.000000,4.000000,4.000000,4.000000,4.000000,4.000000,4.000000,100.000000,,,,,,,,,,,,,,,,,23.000000,0.000000,0.405170,0.436584,-0.523987,0.608826,0.964473,-0.272494,0.083995,-38.518864,-30.190828,44.680225,,,,,,,,,,,,,,,,,,,,,,,,,,,,,,,,,,,,,,,,,,,,,,,,,,,,,,,,,,,,,,,,,,,,,,,,,,,,,,,,,,,,,,,,,,,,,,,,,,,,,
1739354624.895841,1739354624.896631,93.000000,0.000000,4274.615234,4245.769043,4292.563965,4305.641113,4235.512695,4215.769043,4206.922852,4264.230957,4216.922852,4180.769043,4689.102539,4692.692383,4393.205078,4503.461426,6513.000000,1.000000,17.000000,,,,0.000000,4.000000,4.000000,4.000000,4.000000,4.000000,4.000000,4.000000,4.000000,4.000000,4.000000,4.000000,4.000000,4.000000,4.000000,100.000000,,,,,,,,,,,,,,,,,,,,,,,,,,,,,,,,,,,,,,,,,,,,,,,,,,,,,,,,,,,,,,,,,,,,,,,,,,,,,,,,,,,,,,,,,,,,,,,,,,,,,,,,,,,,,,,,,,,,,,,,,,,,,,,,,
1739354624.903650,1739354624.904439,94.000000,0.000000,4300.256348,4276.025879,4314.743652,4334.358887,4260.256348,4242.051270,4229.102539,4282.051270,4248.205078,4208.461426,4712.563965,4722.820313,4414.358887,4525.769043,4991.000000,1.000000,17.000000,,,,0.000000,4.000000,4.000000,4.000000,4.000000,4.000000,4.000000,4.000000,4.000000,4.000000,4.000000,4.000000,4.000000,4.000000,4.000000,100.000000,,,,,,,,,,,,,,,,,,,,,,,,,,,,,,,,,,,,,,,,,,,,,,,,,,,,,,,,,,,,,,,,,,,,,,,,,,,,,,,,,,,,,,,,,,,,,,,,,,,,,,,,,,,,,,,,,,,,,,,,,,,,,,,,,
1739354624.911458,1739354624.912147,95.000000,0.000000,4308.717773,4292.307617,4322.692383,4348.717773,4266.538574,4250.384766,4239.230957,4286.410156,4260.897461,4223.333496,4723.717773,4732.179688,4421.410156,4531.410156,5447.000000,1.000000,17.000000,,,,0.000000,4.000000,4.000000,4.000000,4.000000,4.000000,4.000000,4.000000,4.000000,4.000000,4.000000,4.000000,4.000000,4.000000,4.000000,100.000000,,,,,,,,,,,,,,,,,,,,,,,,,,,,,,,,,,,,,,,,,,,,,,,,,,,,,,,,,,,,,,,,,,,,,,,,,,,,,,,,,,,,,,,,,,,,,,,,,,,,,,,,,,,,,,,,,,,,,,,,,,,,,,,,,
1739354624.919266,1739354624.919955,96.000000,0.000000,4297.820313,4282.692383,4313.974121,4337.307617,4253.077148,4239.743652,4236.025879,4279.230957,4249.358887,4214.743652,4715.000000,4718.077148,4415.256348,4522.436035,5529.000000,1.000000,17.000000,,,,0.000000,4.000000,4.000000,4.000000,4.000000,4.000000,4.000000,4.000000,4.000000,4.000000,4.000000,4.000000,4.000000,4.000000,4.000000,100.000000,,,,,,,,,,,,,,,,,24.000000,0.000000,0.404789,0.436707,-0.524109,0.608887,0.953730,-0.296911,0.078623,-38.466976,-30.221746,44.595535,,,,,,,,,,,,,,,,,,,,,,,,,,,,,,,,,,,,,,,,,,,,,,,,,,,,,,,,,,,,,,,,,,,,,,,,,,,,,,,,,,,,,,,,,,,,,,,,,,,,,
1739354624.927074,1739354624.927663,97.000000,0.000000,4291.922852,4272.051270,4312.820313,4326.025879,4246.153809,4232.307617,4228.333496,4274.615234,4241.410156,4203.589844,4709.871582,4709.743652,4410.128418,4516.922852,6513.000000,1.000000,17.000000,,,,0.000000,4.000000,4.000000,4.000000,4.000000,4.000000,4.000000,4.000000,4.000000,4.000000,4.000000,4.000000,4.000000,4.000000,4.000000,100.000000,,,,,,,,,,,,,,,,,,,,,,,,,,,,,,,,,,,,,,,,,,,,,,,,,,,,,,,,,,,,,,,,,,,,,,,,,,,,,,,,,,,,,,,,,,,,,,,,,,,,,,,,,,,,,,,,,,,,,,,,,,,,,,,,,
1739354624.934882,1739354624.935471,98.000000,0.000000,4288.589844,4265.256348,4312.179688,4318.974121,4238.846191,4225.256348,4215.769043,4270.000000,4234.230957,4190.000000,4703.589844,4703.077148,4401.282227,4512.692383,4991.000000,1.000000,17.000000,,,,0.000000,4.000000,4.000000,4.000000,4.000000,4.000000,4.000000,4.000000,4.000000,4.000000,4.000000,4.000000,4.000000,4.000000,4.000000,100.000000,,,,,,,,,,,,,,,,,,,,,,,,,,,,,,,,,,,,,,,,,,,,,,,,,,,,,,,,,,,,,,,,,,,,,,,,,,,,,,,,,,,,,,,,,,,,,,,,,,,,,,,,,,,,,,,,,,,,,,,,,,,,,,,,,
1739354624.942690,1739354624.943179,99.000000,0.000000,4295.256348,4267.692383,4314.743652,4326.025879,4237.307617,4225.897461,4218.205078,4271.282227,4236.538574,4193.205078,4703.589844,4706.153809,4404.358887,4517.820313,5447.000000,1.000000,17.000000,,,,0.000000,4.000000,4.000000,4.000000,4.000000,4.000000,4.000000,4.000000,4.000000,4.000000,4.000000,4.000000,4.000000,4.000000,4.000000,100.000000,,,,,,,,,,,,,,,,,,,,,,,,,,,,,,,,,,,,,,,,,,,,,,,,,,,,,,,,,,,,,,,,,,,,,,,,,,,,,,,,,,,,,,,,,,,,,,,,,,,,,,,,,,,,,,,,,,,,,,,,,,,,,,,,,
1739354624.950498,1739354624.950987,100.000000,0.000000,4312.051270,4279.230957,4328.077148,4336.666504,4249.487305,4240.384766,4233.717773,4279.358887,4252.051270,4215.384766,4718.717773,4723.205078,4422.563965,4532.436035,5529.000000,1.000000,17.000000,,,,0.000000,4.000000,4.000000,4.000000,4.000000,4.000000,4.000000,4.000000,4.000000,4.000000,4.000000,4.000000,4.000000,4.000000,4.000000,100.000000,,,,,,,,,,,,,,,,,25.000000,0.000000,0.404551,0.436951,-0.524231,0.608765,0.934684,-0.286168,0.068856,-38.370277,-30.082905,44.352650,,,,,,,,,,,,,,,,,,,,,,,,,,,,,,,,,,,,,,,,,,,,,,,,,,,,,,,,,,,,,,,,,,,,,,,,,,,,,,,,,,,,,,,,,,,,,,,,,,,,,
1739354624.958306,1739354624.958695,101.000000,0.000000,4312.307617,4278.589844,4331.282227,4331.282227,4252.692383,4246.282227,4234.358887,4280.128418,4254.230957,4222.051270,4724.743652,4723.846191,4422.692383,4536.282227,6513.000000,1.000000,17.000000,,,,0.000000,4.000000,4.000000,4.000000,4.000000,4.000000,4.000000,4.000000,4.000000,4.000000,4.000000,4.000000,4.000000,4.000000,4.000000,100.000000,,,,,,,,,,,,,,,,,,,,,,,,,,,,,,,,,,,,,,,,,,,,,,,,,,,,,,,,,,,,,,,,,,,,,,,,,,,,,,,,,,,,,,,,,,,,,,,,,,,,,,,,,,,,,,,,,,,,,,,,,,,,,,,,,
1739354624.966114,1739354624.966503,102.000000,0.000000,4305.000000,4273.974121,4327.948730,4332.307617,4251.794922,4247.051270,4232.051270,4277.436035,4252.436035,4219.871582,4724.615234,4718.589844,4416.538574,4537.820313,4991.000000,1.000000,17.000000,,,,0.000000,4.000000,4.000000,4.000000,4.000000,4.000000,4.000000,4.000000,4.000000,4.000000,4.000000,4.000000,4.000000,4.000000,4.000000,100.000000,,,,,,,,,,,,,,,,,,,,,,,,,,,,,,,,,,,,,,,,,,,,,,,,,,,,,,,,,,,,,,,,,,,,,,,,,,,,,,,,,,,,,,,,,,,,,,,,,,,,,,,,,,,,,,,,,,,,,,,,,,,,,,,,,
1739354624.973922,1739354624.974211,103.000000,0.000000,4299.487305,4269.871582,4325.000000,4334.230957,4251.282227,4245.384766,4231.282227,4268.461426,4250.256348,4216.666504,4716.922852,4711.282227,4412.948730,4529.743652,5447.000000,1.000000,17.000000,,,,0.000000,4.000000,4.000000,4.000000,4.000000,4.000000,4.000000,4.000000,4.000000,4.000000,4.000000,4.000000,4.000000,4.000000,4.000000,100.000000,,,,,,,,,,,,,,,,,,,,,,,,,,,,,,,,,,,,,,,,,,,,,,,,,,,,,,,,,,,,,,,,,,,,,,,,,,,,,,,,,,,,,,,,,,,,,,,,,,,,,,,,,,,,,,,,,,,,,,,,,,,,,,,,,
1739354624.981730,1739354624.982019,104.000000,0.000000,4278.461426,4249.487305,4309.102539,4314.230957,4237.307617,4229.615234,4216.666504,4255.512695,4233.077148,4197.948730,4693.461426,4683.333496,4391.538574,4504.102539,5529.000000,1.000000,17.000000,,,,0.000000,4.000000,4.000000,4.000000,4.000000,4.000000,4.000000,4.000000,4.000000,4.000000,4.000000,4.000000,4.000000,4.000000,4.000000,100.000000,,,,,,,,,,,,,,,,,26.000000,0.000000,0.404403,0.437439,-0.524292,0.608459,0.954706,-0.292028,0.070321,-38.349918,-30.057947,44.367386,,,,,,,,,,,,,,,,,,,,,,,,,,,,,,,,,,,,,,,,,,,,,,,,,,,,,,,,,,,,,,,,,,,,,,,,,,,,,,,,,,,,,,,,,,,,,,,,,,,,,
1739354624.989539,1739354624.989727,105.000000,0.000000,4278.461426,4248.589844,4308.333496,4312.307617,4239.743652,4233.717773,4221.153809,4258.717773,4233.589844,4201.153809,4694.358887,4681.538574,4390.897461,4508.846191,6513.000000,1.000000,17.000000,,,,0.000000,4.000000,4.000000,4.000000,4.000000,4.000000,4.000000,4.000000,4.000000,4.000000,4.000000,4.000000,4.000000,4.000000,4.000000,100.000000,,,,,,,,,,,,,,,,,,,,,,,,,,,,,,,,,,,,,,,,,,,,,,,,,,,,,,,,,,,,,,,,,,,,,,,,,,,,,,,,,,,,,,,,,,,,,,,,,,,,,,,,,,,,,,,,,,,,,,,,,,,,,,,,,
1739354624.997347,1739354624.997535,106.000000,0.000000,4293.717773,4262.563965,4319.743652,4328.333496,4251.922852,4252.307617,4237.948730,4257.820313,4244.358887,4217.692383,4707.563965,4698.205078,4408.846191,4523.333496,4991.000000,1.000000,17.000000,,,,0.000000,4.000000,4.000000,4.000000,4.000000,4.000000,4.000000,4.000000,4.000000,4.000000,4.000000,4.000000,4.000000,4.000000,4.000000,100.000000,,,,,,,,,,,,,,,,,,,,,,,,,,,,,,,,,,,,,,,,,,,,,,,,,,,,,,,,,,,,1.314363,1.172592,1.147148,1.655480,1.527073,1.133750,1.470815,1.516472,1.464774,1.497411,0.960646,0.712955,1.136288,1.441831,1.228537,0.922540,1.084419,1.200769,1.684108,1.365038,0.960163,0.778106,0.463318,0.940091,1.069117,1.320059,0.841138,0.529027,0.909086,1.173591,1.632434,0.914263,0.741844,1.025059,1.219411,0.276256,0.232367,0.222228,0.275406,0.306543,1.584902,1.019493,0.481158,1.365971,1.230366,16.819859,1.543109,0.935415,1.714916,1.665693,2.067011,1.559845,0.456092,1.349132,1.532924,1.543562,1.356740,1.159737,1.981461,1.783872,1.108489,1.293536,0.344852,1.053784,1.404502,0.862502,0.890961,0.893042,1.530844,1.497018
1739354625.005154,1739354625.005243,107.000000,0.000000,4286.666504,4256.794922,4312.692383,4326.922852,4241.538574,4246.666504,4230.897461,4247.820313,4235.256348,4207.948730,4697.307617,4687.307617,4402.307617,4509.487305,5447.000000,1.000000,17.000000,,,,0.000000,4.000000,4.000000,4.000000,4.000000,4.000000,4.000000,4.000000,4.000000,4.000000,4.000000,4.000000,4.000000,4.000000,4.000000,100.000000,,,,,,,,,,,,,,,,,,,,,,,,,,,,,,,,,,,,,,,,,,,,,,,,,,,,,,,,,,,,,,,,,,,,,,,,,,,,,,,,,,,,,,,,,,,,,,,,,,,,,,,,,,,,,,,,,,,,,,,,,,,,,,,,,
1739354625.012963,1739354625.013051,108.000000,0.000000,4274.615234,4245.897461,4301.538574,4319.871582,4228.974121,4234.358887,4219.102539,4245.897461,4223.205078,4203.205078,4684.487305,4673.205078,4387.692383,4500.384766,5529.000000,1.000000,17.000000,,,,0.000000,4.000000,4.000000,4.000000,4.000000,4.000000,4.000000,4.000000,4.000000,4.000000,4.000000,4.000000,4.000000,4.000000,4.000000,100.000000,,,,,,,,,,,,,,,,,27.000000,0.000000,0.404008,0.437500,-0.524475,0.608521,0.973263,-0.313026,0.089855,-38.314926,-29.885487,44.480648,,,,,,,,,,,,,,,,,,,,,,,,,,,,,,,,,,,,,,,,,,,,,,,,,,,,,,,,,,,,,,,,,,,,,,,,,,,,,,,,,,,,,,,,,,,,,,,,,,,,,
1739354625.020771,1739354625.020759,109.000000,0.000000,4268.205078,4236.025879,4295.128418,4313.974121,4224.230957,4228.333496,4212.051270,4234.871582,4215.641113,4213.205078,4677.948730,4664.230957,4381.794922,4498.717773,6513.000000,1.000000,17.000000,,,,0.000000,4.000000,4.000000,4.000000,4.000000,4.000000,4.000000,4.000000,4.000000,4.000000,4.000000,4.000000,4.000000,4.000000,4.000000,100.000000,,,,,,,,,,,,,,,,,,,,,,,,,,,,,,,,,,,,,,,,,,,,,,,,,,,,,,,,,,,,,,,,,,,,,,,,,,,,,,,,,,,,,,,,,,,,,,,,,,,,,,,,,,,,,,,,,,,,,,,,,,,,,,,,,
1739354625.028579,1739354625.028567,110.000000,0.000000,4276.153809,4237.307617,4297.307617,4315.641113,4224.743652,4226.794922,4208.974121,4228.205078,4218.717773,4223.205078,4682.307617,4665.897461,4386.666504,4495.897461,4991.000000,1.000000,17.000000,,,,0.000000,4.000000,4.000000,4.000000,4.000000,4.000000,4.000000,4.000000,4.000000,4.000000,4.000000,4.000000,4.000000,4.000000,4.000000,100.000000,,,,,,,,,,,,,,,,,,,,,,,,,,,,,,,,,,,,,,,,,,,,,,,,,,,,,,,,,,,,,,,,,,,,,,,,,,,,,,,,,,,,,,,,,,,,,,,,,,,,,,,,,,,,,,,,,,,,,,,,,,,,,,,,,
1739354625.036387,1739354625.036275,111.000000,0.000000,4293.589844,4255.000000,4313.333496,4332.820313,4233.846191,4233.846191,4217.051270,4253.974121,4231.282227,4232.692383,4700.256348,4688.205078,4401.666504,4510.128418,5447.000000,1.000000,17.000000,,,,0.000000,4.000000,4.000000,4.000000,4.000000,4.000000,4.000000,4.000000,4.000000,4.000000,4.000000,4.000000,4.000000,4.000000,4.000000,100.000000,,,,,,,,,,,,,,,,,,,,,,,,,,,,,,,,,,,,,,,,,,,,,,,,,,,,,,,,,,,,,,,,,,,,,,,,,,,,,,,,,,,,,,,,,,,,,,,,,,,,,,,,,,,,,,,,,,,,,,,,,,,,,,,,,
1739354625.044195,1739354625.044183,112.000000,0.000000,4286.410156,4254.487305,4314.871582,4330.897461,4234.871582,4231.794922,4212.948730,4278.333496,4225.256348,4225.384766,4699.487305,4688.205078,4400.384766,4518.846191,5529.000000,1.000000,17.000000,,,,0.000000,4.000000,4.000000,4.000000,4.000000,4.000000,4.000000,4.000000,4.000000,4.000000,4.000000,4.000000,4.000000,4.000000,4.000000,100.000000,,,,,,,,,,,,,,,,,28.000000,0.000000,0.403546,0.437256,-0.524963,0.608582,0.939079,-0.282261,0.072763,-38.266766,-29.880270,44.399250,,,,,,,,,,,,,,,,,,,,,,,,,,,,,,,,,,,,,,,,,,,,,,,,,,,,,,,,,,,,,,,,,,,,,,,,,,,,,,,,,,,,,,,,,,,,,,,,,,,,,
1739354625.052003,1739354625.051992,113.000000,0.000000,4272.563965,4243.333496,4307.436035,4313.974121,4230.897461,4226.538574,4204.102539,4280.897461,4213.589844,4218.205078,4690.769043,4671.282227,4393.589844,4514.358887,6513.000000,1.000000,17.000000,,,,0.000000,4.000000,4.000000,4.000000,4.000000,4.000000,4.000000,4.000000,4.000000,4.000000,4.000000,4.000000,4.000000,4.000000,4.000000,100.000000,,,,,,,,,,,,,,,,,,,,,,,,,,,,,,,,,,,,,,,,,,,,,,,,,,,,,,,,,,,,,,,,,,,,,,,,,,,,,,,,,,,,,,,,,,,,,,,,,,,,,,,,,,,,,,,,,,,,,,,,,,,,,,,,,
1739354625.059811,1739354625.059900,114.000000,0.000000,4277.436035,4244.743652,4309.871582,4310.128418,4231.666504,4228.717773,4208.717773,4283.846191,4221.025879,4232.179688,4698.205078,4675.000000,4403.333496,4515.384766,4991.000000,1.000000,17.000000,,,,0.000000,4.000000,4.000000,4.000000,4.000000,4.000000,4.000000,4.000000,4.000000,4.000000,4.000000,4.000000,4.000000,4.000000,4.000000,100.000000,,,,,,,,,,,,,,,,,,,,,,,,,,,,,,,,,,,,,,,,,,,,,,,,,,,,,,,,,,,,,,,,,,,,,,,,,,,,,,,,,,,,,,,,,,,,,,,,,,,,,,,,,,,,,,,,,,,,,,,,,,,,,,,,,
1739354625.067619,1739354625.067708,115.000000,0.000000,4268.717773,4233.589844,4300.897461,4303.589844,4219.743652,4217.563965,4201.153809,4282.179688,4215.769043,4233.461426,4690.512695,4666.153809,4398.717773,4505.256348,5447.000000,1.000000,17.000000,,,,0.000000,4.000000,4.000000,4.000000,4.000000,4.000000,4.000000,4.000000,4.000000,4.000000,4.000000,4.000000,4.000000,4.000000,4.000000,100.000000,,,,,,,,,,,,,,,,,,,,,,,,,,,,,,,,,,,,,,,,,,,,,,,,,,,,,,,,,,,,,,,,,,,,,,,,,,,,,,,,,,,,,,,,,,,,,,,,,,,,,,,,,,,,,,,,,,,,,,,,,,,,,,,,,
1739354625.075427,1739354625.075616,116.000000,0.000000,4268.461426,4233.205078,4303.846191,4310.256348,4221.153809,4217.436035,4200.128418,4279.230957,4215.128418,4241.410156,4692.820313,4662.436035,4395.256348,4508.717773,5529.000000,1.000000,17.000000,,,,0.000000,4.000000,4.000000,4.000000,4.000000,4.000000,4.000000,4.000000,4.000000,4.000000,4.000000,4.000000,4.000000,4.000000,4.000000,100.000000,,,,,,,,,,,,,,,,,29.000000,0.000000,0.403317,0.437317,-0.525513,0.608215,0.951776,-0.301795,0.068856,-38.323425,-29.892244,44.559322,,,,,,,,,,,,,,,,,,,,,,,,,,,,,,,,,,,,,,,,,,,,,,,,,,,,,,,,,,,,,,,,,,,,,,,,,,,,,,,,,,,,,,,,,,,,,,,,,,,,,
1739354625.083235,1739354625.083424,117.000000,0.000000,4292.820313,4258.461426,4326.538574,4335.000000,4243.077148,4237.307617,4219.743652,4285.128418,4237.563965,4277.436035,4717.563965,4685.384766,4414.487305,4531.922852,6513.000000,1.000000,17.000000,,,,0.000000,4.000000,4.000000,4.000000,4.000000,4.000000,4.000000,4.000000,4.000000,4.000000,4.000000,4.000000,4.000000,4.000000,4.000000,100.000000,,,,,,,,,,,,,,,,,,,,,,,,,,,,,,,,,,,,,,,,,,,,,,,,,,,,,,,,,,,,,,,,,,,,,,,,,,,,,,,,,,,,,,,,,,,,,,,,,,,,,,,,,,,,,,,,,,,,,,,,,,,,,,,,,
1739354625.091043,1739354625.091332,118.000000,0.000000,4287.948730,4256.410156,4320.000000,4337.179688,4236.538574,4232.820313,4214.487305,4282.307617,4237.820313,4288.205078,4710.641113,4677.436035,4415.384766,4526.282227,4991.000000,1.000000,17.000000,,,,0.000000,4.000000,4.000000,4.000000,4.000000,4.000000,4.000000,4.000000,4.000000,4.000000,4.000000,4.000000,4.000000,4.000000,4.000000,100.000000,,,,,,,,,,,,,,,,,,,,,,,,,,,,,,,,,,,,,,,,,,,,,,,,,,,,,,,,,,,,,,,,,,,,,,,,,,,,,,,,,,,,,,,,,,,,,,,,,,,,,,,,,,,,,,,,,,,,,,,,,,,,,,,,,
1739354625.098852,1739354625.099140,119.000000,0.000000,4260.000000,4233.333496,4292.179688,4313.717773,4213.333496,4212.051270,4193.974121,4272.436035,4215.641113,4270.897461,4683.589844,4642.820313,4392.948730,4501.538574,5447.000000,1.000000,17.000000,,,,0.000000,4.000000,4.000000,4.000000,4.000000,4.000000,4.000000,4.000000,4.000000,4.000000,4.000000,4.000000,4.000000,4.000000,4.000000,100.000000,,,,,,,,,,,,,,,,,,,,,,,,,,,,,,,,,,,,,,,,,,,,,,,,,,,,,,,,,,,,,,,,,,,,,,,,,,,,,,,,,,,,,,,,,,,,,,,,,,,,,,,,,,,,,,,,,,,,,,,,,,,,,,,,,
1739354625.106660,1739354625.107047,120.000000,0.000000,4260.897461,4239.615234,4291.666504,4310.897461,4215.000000,4217.179688,4197.179688,4269.743652,4209.487305,4276.794922,4686.922852,4642.692383,4394.230957,4503.846191,5529.000000,1.000000,17.000000,,,,0.000000,4.000000,4.000000,4.000000,4.000000,4.000000,4.000000,4.000000,4.000000,4.000000,4.000000,4.000000,4.000000,4.000000,4.000000,100.000000,,,,,,,,,,,,,,,,,30.000000,0.000000,0.403343,0.436768,-0.525879,0.608276,0.973752,-0.303260,0.067879,-38.374413,-29.819685,44.486725,,,,,,,,,,,,,,,,,,,,,,,,,,,,,,,,,,,,,,,,,,,,,,,,,,,,,,,,,,,,,,,,,,,,,,,,,,,,,,,,,,,,,,,,,,,,,,,,,,,,,
1739354625.114468,1739354625.114855,121.000000,0.000000,4272.051270,4252.948730,4302.563965,4325.000000,4223.974121,4222.563965,4192.948730,4262.307617,4205.641113,4293.077148,4697.820313,4654.230957,4406.922852,4516.153809,6513.000000,1.000000,17.000000,,,,0.000000,4.000000,4.000000,4.000000,4.000000,4.000000,4.000000,4.000000,4.000000,4.000000,4.000000,4.000000,4.000000,4.000000,4.000000,100.000000,,,,,,,,,,,,,,,,,,,,,,,,,,,,,,,,,,,,,,,,,,,,,,,,,,,,,,,,,,,,,,,,,,,,,,,,,,,,,,,,,,,,,,,,,,,,,,,,,,,,,,,,,,,,,,,,,,,,,,,,,,,,,,,,,
1739354625.122276,1739354625.122763,122.000000,0.000000,4257.692383,4232.820313,4290.128418,4311.794922,4208.846191,4196.666504,4159.615234,4247.051270,4178.717773,4280.641113,4680.641113,4633.717773,4394.743652,4501.410156,4991.000000,1.000000,17.000000,,,,0.000000,4.000000,4.000000,4.000000,4.000000,4.000000,4.000000,4.000000,4.000000,4.000000,4.000000,4.000000,4.000000,4.000000,4.000000,100.000000,,,,,,,,,,,,,,,,,,,,,,,,,,,,,,,,,,,,,,,,,,,,,,,,,,,,,,,,,,,,1.196980,1.159074,1.041582,1.676029,1.497383,0.862123,1.450683,1.291414,1.516995,1.484551,0.774280,0.665731,1.026841,1.478220,1.185859,0.833248,1.048467,1.041980,1.748026,1.279456,0.937069,0.815755,0.397152,1.027115,1.035243,1.278686,0.755473,0.461512,1.037333,1.112146,1.496572,0.732047,0.680022,1.160683,1.167862,0.267289,0.343361,0.246045,0.293303,0.304518,1.483430,1.348304,0.588857,1.419594,1.169385,15.463098,1.613153,0.879378,1.717784,1.584044,2.236305,1.814526,0.461077,1.420466,1.527609,1.425843,1.250616,1.061546,2.043969,1.718621,0.923590,1.256286,0.333063,1.059409,1.399156,0.803886,0.769844,0.800611,1.476829,1.490294
1739354625.130084,1739354625.130571,123.000000,0.000000,4267.436035,4234.358887,4299.871582,4313.589844,4214.102539,4198.974121,4166.666504,4253.205078,4182.051270,4288.333496,4686.922852,4642.179688,4405.641113,4508.461426,5447.000000,1.000000,17.000000,,,,0.000000,4.000000,4.000000,4.000000,4.000000,4.000000,4.000000,4.000000,4.000000,4.000000,4.000000,4.000000,4.000000,4.000000,4.000000,100.000000,,,,,,,,,,,,,,,,,,,,,,,,,,,,,,,,,,,,,,,,,,,,,,,,,,,,,,,,,,,,,,,,,,,,,,,,,,,,,,,,,,,,,,,,,,,,,,,,,,,,,,,,,,,,,,,,,,,,,,,,,,,,,,,,,
1739354625.137892,1739354625.138279,124.000000,0.000000,4300.641113,4266.410156,4331.538574,4343.205078,4243.205078,4233.205078,4209.230957,4275.256348,4218.717773,4326.025879,4721.794922,4684.230957,4434.230957,4545.000000,5529.000000,1.000000,17.000000,,,,0.000000,4.000000,4.000000,4.000000,4.000000,4.000000,4.000000,4.000000,4.000000,4.000000,4.000000,4.000000,4.000000,4.000000,4.000000,100.000000,,,,,,,,,,,,,,,,,31.000000,0.000000,0.403313,0.436218,-0.526428,0.608215,0.965938,-0.297888,0.080088,-38.386974,-29.804384,44.554718,,,,,,,,,,,,,,,,,,,,,,,,,,,,,,,,,,,,,,,,,,,,,,,,,,,,,,,,,,,,,,,,,,,,,,,,,,,,,,,,,,,,,,,,,,,,,,,,,,,,,
1739354625.145700,1739354625.146087,125.000000,0.000000,4286.153809,4254.230957,4319.743652,4332.948730,4238.205078,4232.179688,4210.512695,4280.384766,4221.282227,4323.461426,4715.512695,4676.922852,4416.410156,4535.000000,6513.000000,1.000000,17.000000,,,,0.000000,4.000000,4.000000,4.000000,4.000000,4.000000,4.000000,4.000000,4.000000,4.000000,4.000000,4.000000,4.000000,4.000000,4.000000,100.000000,,,,,,,,,,,,,,,,,,,,,,,,,,,,,,,,,,,,,,,,,,,,,,,,,,,,,,,,,,,,,,,,,,,,,,,,,,,,,,,,,,,,,,,,,,,,,,,,,,,,,,,,,,,,,,,,,,,,,,,,,,,,,,,,,
1739354625.153508,1739354625.153795,126.000000,0.000000,4257.948730,4227.179688,4295.512695,4304.871582,4220.769043,4217.563965,4201.410156,4277.948730,4214.871582,4310.384766,4695.000000,4652.820313,4397.436035,4501.794922,4991.000000,1.000000,17.000000,,,,0.000000,4.000000,4.000000,4.000000,4.000000,4.000000,4.000000,4.000000,4.000000,4.000000,4.000000,4.000000,4.000000,4.000000,4.000000,100.000000,,,,,,,,,,,,,,,,,,,,,,,,,,,,,,,,,,,,,,,,,,,,,,,,,,,,,,,,,,,,,,,,,,,,,,,,,,,,,,,,,,,,,,,,,,,,,,,,,,,,,,,,,,,,,,,,,,,,,,,,,,,,,,,,,
1739354625.161316,1739354625.161703,127.000000,0.000000,4280.769043,4251.538574,4315.128418,4325.897461,4234.743652,4235.256348,4225.641113,4285.000000,4245.128418,4345.512695,4718.974121,4678.974121,4431.025879,4519.102539,17.000000,1.000000,17.000000,,,,0.000000,4.000000,4.000000,4.000000,4.000000,4.000000,4.000000,4.000000,4.000000,4.000000,4.000000,4.000000,4.000000,4.000000,4.000000,100.000000,,,,,,,,,,,,,,,,,,,,,,,,,,,,,,,,,,,,,,,,,,,,,,,,,,,,,,,,,,,,,,,,,,,,,,,,,,,,,,,,,,,,,,,,,,,,,,,,,,,,,,,,,,,,,,,,,,,,,,,,,,,,,,,,,
1739354625.169124,1739354625.169512,0.000000,0.000000,4290.641113,4262.692383,4324.615234,4339.230957,4243.205078,4244.743652,4234.743652,4282.563965,4258.205078,4368.205078,4725.897461,4689.615234,4438.974121,4533.077148,5198.000000,1.000000,17.000000,,,,0.000000,4.000000,4.000000,4.000000,4.000000,4.000000,4.000000,4.000000,4.000000,4.000000,4.000000,4.000000,4.000000,4.000000,4.000000,100.000000,,,,,,,,,,,,,,,,,0.000000,0.000000,0.403017,0.436157,-0.526917,0.608032,0.933219,-0.300330,0.076670,-38.464943,-29.723946,44.599247,,,,,,,,,,,,,,,,,,,,,,,,,,,,,,,,,,,,,,,,,,,,,,,,,,,,,,,,,,,,,,,,,,,,,,,,,,,,,,,,,,,,,,,,,,,,,,,,,,,,,
1739354625.176932,1739354625.177420,1.000000,0.000000,4255.384766,4228.077148,4296.538574,4307.692383,4225.641113,4227.820313,4213.461426,4269.230957,4232.307617,4345.000000,4692.820313,4653.974121,4407.692383,4504.358887,5559.000000,1.000000,17.000000,,,,0.000000,4.000000,4.000000,4.000000,4.000000,4.000000,4.000000,4.000000,4.000000,4.000000,4.000000,4.000000,4.000000,4.000000,4.000000,100.000000,,,,,,,,,,,,,,,,,,,,,,,,,,,,,,,,,,,,,,,,,,,,,,,,,,,,,,,,,,,,,,,,,,,,,,,,,,,,,,,,,,,,,,,,,,,,,,,,,,,,,,,,,,,,,,,,,,,,,,,,,,,,,,,,,
1739354625.184740,1739354625.185228,2.000000,0.000000,4262.179688,4233.717773,4298.974121,4310.256348,4230.000000,4232.563965,4212.307617,4275.897461,4233.077148,4355.641113,4705.128418,4657.179688,4425.256348,4512.820313,5592.000000,1.000000,17.000000,,,,0.000000,4.000000,4.000000,4.000000,4.000000,4.000000,4.000000,4.000000,4.000000,4.000000,4.000000,4.000000,4.000000,4.000000,4.000000,100.000000,,,,,,,,,,,,,,,,,,,,,,,,,,,,,,,,,,,,,,,,,,,,,,,,,,,,,,,,,,,,,,,,,,,,,,,,,,,,,,,,,,,,,,,,,,,,,,,,,,,,,,,,,,,,,,,,,,,,,,,,,,,,,,,,,
1739354625.192548,1739354625.193136,3.000000,0.000000,4283.589844,4252.948730,4309.230957,4326.538574,4234.743652,4230.769043,4206.153809,4278.846191,4238.461426,4372.436035,4721.794922,4667.692383,4442.563965,4531.410156,5511.000000,1.000000,17.000000,,,,0.000000,4.000000,4.000000,4.000000,4.000000,4.000000,4.000000,4.000000,4.000000,4.000000,4.000000,4.000000,4.000000,4.000000,4.000000,100.000000,,,,,,,,,,,,,,,,,,,,,,,,,,,,,,,,,,,,,,,,,,,,,,,,,,,,,,,,,,,,,,,,,,,,,,,,,,,,,,,,,,,,,,,,,,,,,,,,,,,,,,,,,,,,,,,,,,,,,,,,,,,,,,,,,
1739354625.200357,1739354625.200944,4.000000,0.000000,4263.846191,4232.051270,4291.794922,4309.487305,4215.000000,4203.333496,4179.487305,4264.743652,4214.487305,4347.563965,4693.589844,4641.410156,4418.589844,4512.692383,5479.000000,1.000000,17.000000,,,,0.000000,4.000000,4.000000,4.000000,4.000000,4.000000,4.000000,4.000000,4.000000,4.000000,4.000000,4.000000,4.000000,4.000000,4.000000,100.000000,,,,,,,,,,,,,,,,,1.000000,0.000000,0.402923,0.436096,-0.527039,0.608032,0.959590,-0.282261,0.069833,-38.585114,-29.851551,44.489323,,,,,,,,,,,,,,,,,,,,,,,,,,,,,,,,,,,,,,,,,,,,,,,,,,,,,,,,,,,,,,,,,,,,,,,,,,,,,,,,,,,,,,,,,,,,,,,,,,,,,
1739354625.208165,1739354625.208752,5.000000,0.000000,4269.615234,4232.563965,4298.461426,4311.538574,4220.128418,4208.077148,4184.358887,4265.769043,4213.974121,4350.512695,4695.641113,4645.769043,4425.769043,4519.230957,5499.000000,1.000000,17.000000,,,,0.000000,4.000000,4.000000,4.000000,4.000000,4.000000,4.000000,4.000000,4.000000,4.000000,4.000000,4.000000,4.000000,4.000000,4.000000,100.000000,,,,,,,,,,,,,,,,,,,,,,,,,,,,,,,,,,,,,,,,,,,,,,,,,,,,,,,,,,,,,,,,,,,,,,,,,,,,,,,,,,,,,,,,,,,,,,,,,,,,,,,,,,,,,,,,,,,,,,,,,,,,,,,,,
1739354625.215973,1739354625.216461,6.000000,0.000000,4305.128418,4264.487305,4327.692383,4341.922852,4246.025879,4232.820313,4205.256348,4277.051270,4235.641113,4383.461426,4729.487305,4682.307617,4455.897461,4549.871582,5479.000000,1.000000,17.000000,,,,0.000000,4.000000,4.000000,4.000000,4.000000,4.000000,4.000000,4.000000,4.000000,4.000000,4.000000,4.000000,4.000000,4.000000,4.000000,100.000000,,,,,,,,,,,,,,,,,,,,,,,,,,,,,,,,,,,,,,,,,,,,,,,,,,,,,,,,,,,,,,,,,,,,,,,,,,,,,,,,,,,,,,,,,,,,,,,,,,,,,,,,,,,,,,,,,,,,,,,,,,,,,,,,,
1739354625.223781,1739354625.224369,7.000000,0.000000,4308.717773,4269.743652,4332.307617,4346.794922,4246.794922,4229.230957,4203.846191,4273.974121,4237.179688,4385.897461,4729.871582,4691.538574,4452.436035,4551.410156,2620.000000,1.000000,17.000000,,,,0.000000,4.000000,4.000000,4.000000,4.000000,4.000000,4.000000,4.000000,4.000000,4.000000,4.000000,4.000000,4.000000,4.000000,4.000000,100.000000,,,,,,,,,,,,,,,,,,,,,,,,,,,,,,,,,,,,,,,,,,,,,,,,,,,,,,,,,,,,,,,,,,,,,,,,,,,,,,,,,,,,,,,,,,,,,,,,,,,,,,,,,,,,,,,,,,,,,,,,,,,,,,,,,
1739354625.231589,1739354625.232177,8.000000,0.000000,4289.615234,4249.487305,4319.230957,4328.461426,4230.512695,4212.179688,4190.512695,4263.077148,4225.000000,4365.256348,4711.025879,4676.538574,4434.615234,4537.820313,5267.000000,1.000000,17.000000,,,,0.000000,4.000000,4.000000,4.000000,4.000000,4.000000,4.000000,4.000000,4.000000,4.000000,4.000000,4.000000,4.000000,4.000000,4.000000,100.000000,,,,,,,,,,,,,,,,,2.000000,0.000000,0.403017,0.436157,-0.526917,0.608032,0.950311,-0.304725,0.073739,-38.676601,-29.983063,44.490391,,,,,,,,,,,,,,,,,,,,,,,,,,,,,,,,,,,,,,,,,,,,,,,,,,,,,,,,,,,,,,,,,,,,,,,,,,,,,,,,,,,,,,,,,,,,,,,,,,,,,
1739354625.239397,1739354625.240085,9.000000,0.000000,4298.589844,4252.179688,4330.128418,4337.051270,4239.230957,4219.230957,4199.230957,4268.846191,4229.743652,4371.794922,4719.487305,4683.077148,4443.077148,4545.641113,5579.000000,1.000000,17.000000,,,,0.000000,4.000000,4.000000,4.000000,4.000000,4.000000,4.000000,4.000000,4.000000,4.000000,4.000000,4.000000,4.000000,4.000000,4.000000,100.000000,,,,,,,,,,,,,,,,,,,,,,,,,,,,,,,,,,,,,,,,,,,,,,,,,,,,,,,,,,,,,,,,,,,,,,,,,,,,,,,,,,,,,,,,,,,,,,,,,,,,,,,,,,,,,,,,,,,,,,,,,,,,,,,,,
1739354625.247205,1739354625.247893,10.000000,0.000000,4301.025879,4254.743652,4332.692383,4341.538574,4243.205078,4224.487305,4211.282227,4274.487305,4234.487305,4379.230957,4720.641113,4683.846191,4441.025879,4541.922852,5103.000000,1.000000,17.000000,,,,0.000000,4.000000,4.000000,4.000000,4.000000,4.000000,4.000000,4.000000,4.000000,4.000000,4.000000,4.000000,4.000000,4.000000,4.000000,100.000000,1.000000,41.666668,4.000000,4.000000,3.000000,4.000000,4.000000,4.000000,4.000000,4.000000,4.000000,1.000000,3.000000,1.000000,4.000000,4.000000,,,,,,,,,,,,,,,,,,,,,,,,,,,,,,,,,,,,,,,,,,,,1.159565,1.162012,0.878050,1.626349,1.446198,0.674286,1.395566,0.992306,1.535334,1.439046,0.643873,0.679029,0.844107,1.482656,1.127581,0.821132,1.010902,0.842755,1.735271,1.201220,0.883575,0.795156,0.327751,1.115133,0.982244,1.151619,0.649297,0.410019,1.163305,1.034940,1.245021,0.587524,0.641098,1.286151,1.089625,0.273956,0.499507,0.281299,0.308930,0.299325,1.364317,1.795291,0.723003,1.463871,1.104703,12.421515,1.730376,0.804240,1.726117,1.485618,2.433905,2.235756,0.472656,1.479896,1.501928,1.397587,1.196581,0.901269,2.078706,1.643368,0.812701,1.297271,0.348556,1.047411,1.362184,0.816707,0.711928,0.698829,1.410113,1.441162
1739354625.255013,1739354625.255801,11.000000,0.000000,4272.179688,4231.794922,4303.205078,4312.948730,4220.897461,4211.666504,4206.282227,4267.692383,4226.025879,4361.666504,4696.153809,4653.589844,4416.282227,4512.948730,5544.000000,1.000000,17.000000,,,,0.000000,4.000000,4.000000,4.000000,4.000000,4.000000,4.000000,4.000000,4.000000,4.000000,4.000000,4.000000,4.000000,4.000000,4.000000,100.000000,,,,,,,,,,,,,,,,,,,,,,,,,,,,,,,,,,,,,,,,,,,,,,,,,,,,,,,,,,,,,,,,,,,,,,,,,,,,,,,,,,,,,,,,,,,,,,,,,,,,,,,,,,,,,,,,,,,,,,,,,,,,,,,,,
1739354625.262821,1739354625.263609,12.000000,0.000000,4267.948730,4229.358887,4296.922852,4308.589844,4220.769043,4221.538574,4219.743652,4269.102539,4237.436035,4371.153809,4698.974121,4647.051270,4419.871582,4514.615234,5634.000000,1.000000,17.000000,,,,0.000000,4.000000,4.000000,4.000000,4.000000,4.000000,4.000000,4.000000,4.000000,4.000000,4.000000,4.000000,4.000000,4.000000,4.000000,100.000000,,,,,,,,,,,,,,,,,3.000000,0.000000,0.402987,0.436462,-0.527039,0.607727,0.967403,-0.279331,0.077158,-38.742275,-29.984756,44.591351,,,,,,,,,,,,,,,,,,,,,,,,,,,,,,,,,,,,,,,,,,,,,,,,,,,,,,,,,,,,,,,,,,,,,,,,,,,,,,,,,,,,,,,,,,,,,,,,,,,,,
1739354625.270629,1739354625.271517,13.000000,0.000000,4286.153809,4247.948730,4314.102539,4328.846191,4239.743652,4243.461426,4242.051270,4274.871582,4257.563965,4398.333496,4718.846191,4662.948730,4442.179688,4533.589844,6624.000000,1.000000,17.000000,,,,0.000000,4.000000,4.000000,4.000000,4.000000,4.000000,4.000000,4.000000,4.000000,4.000000,4.000000,4.000000,4.000000,4.000000,4.000000,100.000000,,,,,,,,,,,,,,,,,,,,,,,,,,,,,,,,,,,,,,,,,,,,,,,,,,,,,,,,,,,,,,,,,,,,,,,,,,,,,,,,,,,,,,,,,,,,,,,,,,,,,,,,,,,,,,,,,,,,,,,,,,,,,,,,,
1739354625.278437,1739354625.279325,14.000000,0.000000,4277.948730,4242.051270,4307.051270,4321.538574,4236.410156,4238.589844,4235.641113,4268.461426,4256.025879,4392.820313,4709.743652,4652.179688,4436.794922,4521.922852,5103.000000,1.000000,17.000000,,,,0.000000,4.000000,4.000000,4.000000,4.000000,4.000000,4.000000,4.000000,4.000000,4.000000,4.000000,4.000000,4.000000,4.000000,4.000000,100.000000,,,,,,,,,,,,,,,,,,,,,,,,,,,,,,,,,,,,,,,,,,,,,,,,,,,,,,,,,,,,,,,,,,,,,,,,,,,,,,,,,,,,,,,,,,,,,,,,,,,,,,,,,,,,,,,,,,,,,,,,,,,,,,,,,
1739354625.286245,1739354625.287233,15.000000,0.000000,4255.128418,4222.436035,4289.487305,4300.769043,4220.128418,4218.333496,4216.666504,4255.256348,4240.256348,4370.384766,4690.000000,4625.769043,4418.333496,4502.307617,5544.000000,1.000000,17.000000,,,,0.000000,4.000000,4.000000,4.000000,4.000000,4.000000,4.000000,4.000000,4.000000,4.000000,4.000000,4.000000,4.000000,4.000000,4.000000,100.000000,,,,,,,,,,,,,,,,,,,,,,,,,,,,,,,,,,,,,,,,,,,,,,,,,,,,,,,,,,,,,,,,,,,,,,,,,,,,,,,,,,,,,,,,,,,,,,,,,,,,,,,,,,,,,,,,,,,,,,,,,,,,,,,,,
1739354625.294053,1739354625.295041,16.000000,0.000000,4263.589844,4231.538574,4295.769043,4310.512695,4221.025879,4218.589844,4217.307617,4255.000000,4239.230957,4375.769043,4696.410156,4626.666504,4423.846191,4509.871582,0.000000,1.000000,17.000000,,,,0.000000,4.000000,4.000000,4.000000,4.000000,4.000000,4.000000,4.000000,4.000000,4.000000,4.000000,4.000000,4.000000,4.000000,4.000000,100.000000,,,,,,,,,,,,,,,,,4.000000,0.000000,0.402625,0.437012,-0.527283,0.607361,0.961055,-0.294958,0.064949,-38.668049,-29.952948,44.565548,,,,,,,,,,,,,,,,,,,,,,,,,,,,,,,,,,,,,,,,,,,,,,,,,,,,,,,,,,,,,,,,,,,,,,,,,,,,,,,,,,,,,,,,,,,,,,,,,,,,,
1739354625.301862,1739354625.302749,17.000000,0.000000,4262.820313,4230.769043,4288.205078,4309.871582,4214.230957,4213.589844,4203.077148,4246.153809,4223.974121,4368.846191,4689.358887,4614.230957,4419.102539,4503.846191,0.000000,1.000000,17.000000,,,,0.000000,4.000000,4.000000,4.000000,4.000000,4.000000,4.000000,4.000000,4.000000,4.000000,4.000000,4.000000,4.000000,4.000000,4.000000,100.000000,,,,,,,,,,,,,,,,,,,,,,,,,,,,,,,,,,,,,,,,,,,,,,,,,,,,,,,,,,,,,,,,,,,,,,,,,,,,,,,,,,,,,,,,,,,,,,,,,,,,,,,,,,,,,,,,,,,,,,,,,,,,,,,,,
1739354625.309670,1739354625.310557,18.000000,0.000000,4243.077148,4214.615234,4272.436035,4294.615234,4202.179688,4196.153809,4179.358887,4230.769043,4197.179688,4343.205078,4672.820313,4592.436035,4405.128418,4490.512695,0.000000,1.000000,17.000000,,,,0.000000,4.000000,4.000000,4.000000,4.000000,4.000000,4.000000,4.000000,4.000000,4.000000,4.000000,4.000000,4.000000,4.000000,4.000000,100.000000,,,,,,,,,,,,,,,,,,,,,,,,,,,,,,,,,,,,,,,,,,,,,,,,,,,,,,,,,,,,,,,,,,,,,,,,,,,,,,,,,,,,,,,,,,,,,,,,,,,,,,,,,,,,,,,,,,,,,,,,,,,,,,,,,
1739354625.317478,1739354625.318265,19.000000,0.000000,4260.769043,4231.922852,4294.743652,4312.563965,4218.589844,4205.769043,4191.666504,4236.794922,4208.333496,4353.589844,4692.692383,4615.897461,4421.282227,4512.948730,0.000000,1.000000,17.000000,,,,0.000000,4.000000,4.000000,4.000000,4.000000,4.000000,4.000000,4.000000,4.000000,4.000000,4.000000,4.000000,4.000000,4.000000,4.000000,100.000000,,,,,,,,,,,,,,,,,,,,,,,,,,,,,,,,,,,,,,,,,,,,,,,,,,,,,,,,,,,,,,,,,,,,,,,,,,,,,,,,,,,,,,,,,,,,,,,,,,,,,,,,,,,,,,,,,,,,,,,,,,,,,,,,,
1739354625.325286,1739354625.326073,20.000000,0.000000,4286.538574,4253.461426,4320.128418,4335.641113,4238.846191,4223.333496,4207.436035,4247.948730,4225.256348,4370.641113,4712.692383,4645.769043,4435.641113,4528.333496,0.000000,1.000000,17.000000,,,,0.000000,4.000000,4.000000,4.000000,4.000000,4.000000,4.000000,4.000000,4.000000,4.000000,4.000000,4.000000,4.000000,4.000000,4.000000,100.000000,,,,,,,,,,,,,,,,,5.000000,0.000000,0.402475,0.437805,-0.527161,0.606995,0.954706,-0.280308,0.061531,-38.667912,-30.024319,44.558994,,,,,,,,,,,,,,,,,,,,,,,,,,,,,,,,,,,,,,,,,,,,,,,,,,,,,,,,,,,,,,,,,,,,,,,,,,,,,,,,,,,,,,,,,,,,,,,,,,,,,
1739354625.333094,1739354625.333781,21.000000,0.000000,4278.205078,4242.948730,4313.077148,4330.256348,4229.487305,4219.230957,4201.922852,4247.436035,4219.871582,4362.563965,4704.358887,4637.563965,4424.871582,4516.922852,0.000000,1.000000,17.000000,,,,0.000000,4.000000,4.000000,4.000000,4.000000,4.000000,4.000000,4.000000,4.000000,4.000000,4.000000,4.000000,4.000000,4.000000,4.000000,100.000000,,,,,,,,,,,,,,,,,,,,,,,,,,,,,,,,,,,,,,,,,,,,,,,,,,,,,,,,,,,,,,,,,,,,,,,,,,,,,,,,,,,,,,,,,,,,,,,,,,,,,,,,,,,,,,,,,,,,,,,,,,,,,,,,,
1739354625.340902,1739354625.341589,22.000000,0.000000,4257.307617,4223.717773,4294.487305,4312.692383,4213.846191,4208.589844,4201.922852,4247.948730,4216.794922,4351.282227,4691.922852,4614.487305,4407.820313,4502.436035,0.000000,1.000000,17.000000,,,,0.000000,4.000000,4.000000,4.000000,4.000000,4.000000,4.000000,4.000000,4.000000,4.000000,4.000000,4.000000,4.000000,4.000000,4.000000,100.000000,,,,,,,,,,,,,,,,,,,,,,,,,,,,,,,,,,,,,,,,,,,,,,,,,,,,,,,,,,,,,,,,,,,,,,,,,,,,,,,,,,,,,,,,,,,,,,,,,,,,,,,,,,,,,,,,,,,,,,,,,,,,,,,,,
1739354625.348710,1739354625.349297,23.000000,0.000000,4261.153809,4227.820313,4295.769043,4312.307617,4223.846191,4220.769043,4224.871582,4261.538574,4231.282227,4355.384766,4696.282227,4616.538574,4412.563965,4503.717773,0.000000,1.000000,17.000000,,,,0.000000,4.000000,4.000000,4.000000,4.000000,4.000000,4.000000,4.000000,4.000000,4.000000,4.000000,4.000000,4.000000,4.000000,4.000000,100.000000,,,,,,,,,,,,,,,,,,,,,,,,,,,,,,,,,,,,,,,,,,,,,,,,,,,,,,,,,,,,,,,,,,,,,,,,,,,,,,,,,,,,,,,,,,,,,,,,,,,,,,,,,,,,,,,,,,,,,,,,,,,,,,,,,
1739354625.356518,1739354625.357105,24.000000,0.000000,4269.615234,4233.717773,4304.358887,4316.153809,4231.794922,4237.179688,4241.794922,4270.769043,4244.871582,4358.461426,4702.051270,4627.436035,4423.333496,4514.487305,0.000000,1.000000,17.000000,,,,0.000000,4.000000,4.000000,4.000000,4.000000,4.000000,4.000000,4.000000,4.000000,4.000000,4.000000,4.000000,4.000000,4.000000,4.000000,100.000000,,,,,,,,,,,,,,,,,6.000000,0.000000,0.402351,0.438782,-0.526794,0.606689,0.965450,-0.272494,0.057624,-38.717785,-29.921886,44.553097,,,,,,,,,,,,,,,,,,,,,,,,,,,,,,,,,,,,,,,,,,,,,,,,,,,,,,,,,,,,,,,,,,,,,,,,,,,,,,,,,,,,,,,,,,,,,,,,,,,,,
1739354625.364326,1739354625.364813,25.000000,0.000000,4247.307617,4209.358887,4285.769043,4296.153809,4209.102539,4219.230957,4226.922852,4264.743652,4231.666504,4334.487305,4684.871582,4608.077148,4402.948730,4503.333496,0.000000,1.000000,17.000000,,,,0.000000,4.000000,4.000000,4.000000,4.000000,4.000000,4.000000,4.000000,4.000000,4.000000,4.000000,4.000000,4.000000,4.000000,4.000000,100.000000,,,,,,,,,,,,,,,,,,,,,,,,,,,,,,,,,,,,,,,,,,,,,,,,,,,,,,,,,,,,,,,,,,,,,,,,,,,,,,,,,,,,,,,,,,,,,,,,,,,,,,,,,,,,,,,,,,,,,,,,,,,,,,,,,
1739354625.372134,1739354625.372621,26.000000,0.000000,4232.692383,4194.102539,4272.692383,4284.102539,4200.128418,4204.358887,4213.717773,4259.615234,4213.974121,4312.179688,4674.743652,4590.897461,4385.384766,4491.922852,0.000000,1.000000,17.000000,,,,0.000000,4.000000,4.000000,4.000000,4.000000,4.000000,4.000000,4.000000,4.000000,4.000000,4.000000,4.000000,4.000000,4.000000,4.000000,100.000000,,,,,,,,,,,,,,,,,,,,,,,,,,,,,,,,,,,,,,,,,,,,,,,,,,,,,,,,,,,,1.138192,1.131754,0.691997,1.545438,1.380458,0.563033,1.284775,0.691821,1.555129,1.375744,0.560595,0.738701,0.629627,1.480666,1.062645,0.846968,0.943998,0.651797,1.686402,1.147482,0.765523,0.729938,0.272670,1.208250,0.921602,0.962293,0.570801,0.383717,1.286818,0.957428,0.932477,0.540388,0.651136,1.396996,1.004524,0.366714,0.737844,0.316607,0.334636,0.294718,1.291886,2.250477,0.851155,1.523394,1.050502,8.501761,1.814941,0.749661,1.771221,1.390545,2.697580,2.748106,0.503146,1.544317,1.461999,1.418307,1.190171,0.726586,2.120155,1.570596,0.744364,1.317655,0.337859,1.046822,1.302908,0.789420,0.700831,0.602434,1.368298,1.362123
1739354625.379942,1739354625.380329,27.000000,0.000000,4255.256348,4215.512695,4295.000000,4304.615234,4223.333496,4224.615234,4228.717773,4267.051270,4221.282227,4319.230957,4694.871582,4609.615234,4406.666504,4510.000000,0.000000,1.000000,17.000000,,,,0.000000,4.000000,4.000000,4.000000,4.000000,4.000000,4.000000,4.000000,4.000000,4.000000,4.000000,4.000000,4.000000,4.000000,4.000000,100.000000,,,,,,,,,,,,,,,,,,,,,,,,,,,,,,,,,,,,,,,,,,,,,,,,,,,,,,,,,,,,,,,,,,,,,,,,,,,,,,,,,,,,,,,,,,,,,,,,,,,,,,,,,,,,,,,,,,,,,,,,,,,,,,,,,
1739354625.387751,1739354625.388137,28.000000,0.000000,4271.666504,4228.974121,4309.230957,4317.948730,4232.051270,4235.128418,4239.102539,4273.974121,4233.205078,4324.871582,4706.282227,4625.256348,4419.871582,4524.743652,0.000000,1.000000,17.000000,,,,0.000000,4.000000,4.000000,4.000000,4.000000,4.000000,4.000000,4.000000,4.000000,4.000000,4.000000,4.000000,4.000000,4.000000,4.000000,100.000000,,,,,,,,,,,,,,,,,7.000000,0.000000,0.402308,0.439575,-0.526306,0.606567,0.948358,-0.284703,0.059089,-38.862675,-29.929699,44.481117,,,,,,,,,,,,,,,,,,,,,,,,,,,,,,,,,,,,,,,,,,,,,,,,,,,,,,,,,,,,,,,,,,,,,,,,,,,,,,,,,,,,,,,,,,,,,,,,,,,,,
1739354625.395558,1739354625.395845,29.000000,0.000000,4255.769043,4212.307617,4290.128418,4301.794922,4214.871582,4216.794922,4225.512695,4267.179688,4224.487305,4308.974121,4690.641113,4606.666504,4397.948730,4508.846191,0.000000,1.000000,17.000000,,,,0.000000,4.000000,4.000000,4.000000,4.000000,4.000000,4.000000,4.000000,4.000000,4.000000,4.000000,4.000000,4.000000,4.000000,4.000000,100.000000,,,,,,,,,,,,,,,,,,,,,,,,,,,,,,,,,,,,,,,,,,,,,,,,,,,,,,,,,,,,,,,,,,,,,,,,,,,,,,,,,,,,,,,,,,,,,,,,,,,,,,,,,,,,,,,,,,,,,,,,,,,,,,,,,
1739354625.403367,1739354625.403653,30.000000,0.000000,4251.410156,4213.717773,4282.563965,4299.102539,4210.128418,4212.051270,4221.153809,4268.461426,4220.384766,4300.512695,4688.077148,4593.846191,4394.743652,4504.615234,0.000000,1.000000,17.000000,,,,0.000000,4.000000,4.000000,4.000000,4.000000,4.000000,4.000000,4.000000,4.000000,4.000000,4.000000,4.000000,4.000000,4.000000,4.000000,100.000000,,,,,,,,,,,,,,,,,,,,,,,,,,,,,,,,,,,,,,,,,,,,,,,,,,,,,,,,,,,,,,,,,,,,,,,,,,,,,,,,,,,,,,,,,,,,,,,,,,,,,,,,,,,,,,,,,,,,,,,,,,,,,,,,,
1739354625.411175,1739354625.411361,31.000000,0.000000,4270.128418,4237.692383,4299.871582,4319.743652,4224.358887,4224.871582,4235.256348,4278.846191,4236.025879,4306.410156,4703.461426,4607.692383,4419.230957,4521.282227,0.000000,1.000000,17.000000,,,,0.000000,4.000000,4.000000,4.000000,4.000000,4.000000,4.000000,4.000000,4.000000,4.000000,4.000000,4.000000,4.000000,4.000000,4.000000,100.000000,,,,,,,,,,,,,,,,,,,,,,,,,,,,,,,,,,,,,,,,,,,,,,,,,,,,,,,,,,,,,,,,,,,,,,,,,,,,,,,,,,,,,,,,,,,,,,,,,,,,,,,,,,,,,,,,,,,,,,,,,,,,,,,,,
1739354625.418983,1739354625.419269,32.000000,0.000000,4264.102539,4233.717773,4298.589844,4320.000000,4226.025879,4219.487305,4232.307617,4273.461426,4233.205078,4297.820313,4697.051270,4607.948730,4416.025879,4514.102539,0.000000,1.000000,17.000000,,,,0.000000,4.000000,4.000000,4.000000,4.000000,4.000000,4.000000,4.000000,4.000000,4.000000,4.000000,4.000000,4.000000,4.000000,4.000000,100.000000,,,,,,,,,,,,,,,,,8.000000,0.000000,0.402490,0.439880,-0.526123,0.606384,0.959590,-0.270541,0.051276,-38.859741,-29.770061,44.499672,,,,,,,,,,,,,,,,,,,,,,,,,,,,,,,,,,,,,,,,,,,,,,,,,,,,,,,,,,,,,,,,,,,,,,,,,,,,,,,,,,,,,,,,,,,,,,,,,,,,,
1739354625.426791,1739354625.427077,33.000000,0.000000,4248.461426,4219.871582,4285.384766,4306.282227,4216.410156,4206.025879,4216.922852,4266.666504,4213.589844,4279.102539,4682.051270,4592.563965,4395.128418,4500.641113,0.000000,1.000000,17.000000,,,,0.000000,4.000000,4.000000,4.000000,4.000000,4.000000,4.000000,4.000000,4.000000,4.000000,4.000000,4.000000,4.000000,4.000000,4.000000,100.000000,,,,,,,,,,,,,,,,,,,,,,,,,,,,,,,,,,,,,,,,,,,,,,,,,,,,,,,,,,,,,,,,,,,,,,,,,,,,,,,,,,,,,,,,,,,,,,,,,,,,,,,,,,,,,,,,,,,,,,,,,,,,,,,,,
1739354625.434599,1739354625.434985,34.000000,0.000000,4269.871582,4244.358887,4301.025879,4323.461426,4222.563965,4215.769043,4228.205078,4277.436035,4221.025879,4286.282227,4695.128418,4603.974121,4408.077148,4521.282227,0.000000,1.000000,17.000000,,,,0.000000,4.000000,4.000000,4.000000,4.000000,4.000000,4.000000,4.000000,4.000000,4.000000,4.000000,4.000000,4.000000,4.000000,4.000000,100.000000,,,,,,,,,,,,,,,,,,,,,,,,,,,,,,,,,,,,,,,,,,,,,,,,,,,,,,,,,,,,,,,,,,,,,,,,,,,,,,,,,,,,,,,,,,,,,,,,,,,,,,,,,,,,,,,,,,,,,,,,,,,,,,,,,
1739354625.442407,1739354625.442794,35.000000,0.000000,4298.717773,4273.974121,4323.077148,4349.230957,4237.307617,4235.000000,4254.102539,4285.128418,4245.769043,4308.333496,4715.897461,4628.717773,4438.846191,4549.743652,0.000000,1.000000,17.000000,,,,0.000000,4.000000,4.000000,4.000000,4.000000,4.000000,4.000000,4.000000,4.000000,4.000000,4.000000,4.000000,4.000000,4.000000,4.000000,100.000000,,,,,,,,,,,,,,,,,,,,,,,,,,,,,,,,,,,,,,,,,,,,,,,,,,,,,,,,,,,,,,,,,,,,,,,,,,,,,,,,,,,,,,,,,,,,,,,,,,,,,,,,,,,,,,,,,,,,,,,,,,,,,,,,,
1739354625.450215,1739354625.450702,36.000000,0.000000,4281.282227,4254.230957,4303.333496,4331.922852,4234.615234,4227.948730,4249.871582,4273.333496,4240.128418,4291.025879,4701.153809,4606.538574,4429.871582,4533.461426,0.000000,1.000000,17.000000,,,,0.000000,4.000000,4.000000,4.000000,4.000000,4.000000,4.000000,4.000000,4.000000,4.000000,4.000000,4.000000,4.000000,4.000000,4.000000,100.000000,,,,,,,,,,,,,,,,,9.000000,0.000000,0.402650,0.440552,-0.526001,0.605896,0.960566,-0.273959,0.060066,-38.907101,-29.676390,44.516373,,,,,,,,,,,,,,,,,,,,,,,,,,,,,,,,,,,,,,,,,,,,,,,,,,,,,,,,,,,,,,,,,,,,,,,,,,,,,,,,,,,,,,,,,,,,,,,,,,,,,
1739354625.458023,1739354625.458509,37.000000,0.000000,4255.384766,4230.128418,4277.948730,4305.512695,4226.666504,4214.102539,4239.102539,4269.487305,4222.692383,4252.820313,4679.871582,4571.282227,4406.410156,4505.512695,0.000000,1.000000,17.000000,,,,0.000000,4.000000,4.000000,4.000000,4.000000,4.000000,4.000000,4.000000,4.000000,4.000000,4.000000,4.000000,4.000000,4.000000,4.000000,100.000000,,,,,,,,,,,,,,,,,,,,,,,,,,,,,,,,,,,,,,,,,,,,,,,,,,,,,,,,,,,,,,,,,,,,,,,,,,,,,,,,,,,,,,,,,,,,,,,,,,,,,,,,,,,,,,,,,,,,,,,,,,,,,,,,,
1739354625.465831,1739354625.466417,38.000000,0.000000,4253.077148,4231.666504,4279.615234,4304.230957,4226.922852,4221.025879,4245.384766,4275.128418,4224.230957,4237.436035,4677.820313,4570.384766,4404.358887,4503.333496,0.000000,1.000000,17.000000,,,,0.000000,4.000000,4.000000,4.000000,4.000000,4.000000,4.000000,4.000000,4.000000,4.000000,4.000000,4.000000,4.000000,4.000000,4.000000,100.000000,,,,,,,,,,,,,,,,,,,,,,,,,,,,,,,,,,,,,,,,,,,,,,,,,,,,,,,,,,,,,,,,,,,,,,,,,,,,,,,,,,,,,,,,,,,,,,,,,,,,,,,,,,,,,,,,,,,,,,,,,,,,,,,,,
1739354625.473639,1739354625.474225,39.000000,0.000000,4236.410156,4214.230957,4268.461426,4293.974121,4213.974121,4215.641113,4232.948730,4263.077148,4205.769043,4206.025879,4657.948730,4552.051270,4386.025879,4488.205078,0.000000,1.000000,17.000000,,,,0.000000,4.000000,4.000000,4.000000,4.000000,4.000000,4.000000,4.000000,4.000000,4.000000,4.000000,4.000000,4.000000,4.000000,4.000000,100.000000,,,,,,,,,,,,,,,,,,,,,,,,,,,,,,,,,,,,,,,,,,,,,,,,,,,,,,,,,,,,,,,,,,,,,,,,,,,,,,,,,,,,,,,,,,,,,,,,,,,,,,,,,,,,,,,,,,,,,,,,,,,,,,,,,
1739354625.481447,1739354625.482133,40.000000,0.000000,4237.179688,4210.000000,4267.179688,4295.641113,4213.589844,4214.102539,4228.461426,4258.461426,4193.333496,4180.641113,4653.077148,4541.922852,4376.922852,4485.512695,0.000000,1.000000,17.000000,,,,0.000000,4.000000,4.000000,4.000000,4.000000,4.000000,4.000000,4.000000,4.000000,4.000000,4.000000,4.000000,4.000000,4.000000,4.000000,100.000000,,,,,,,,,,,,,,,,,10.000000,0.000000,0.402825,0.440979,-0.526001,0.605469,0.968868,-0.272983,0.057624,-38.983055,-29.592083,44.531403,,,,,,,,,,,,,,,,,,,,,,,,,,,,,,,,,,,,,,,,,,,,,,,,,,,,,,,,,,,,,,,,,,,,,,,,,,,,,,,,,,,,,,,,,,,,,,,,,,,,,
1739354625.489256,1739354625.489941,41.000000,0.000000,4270.000000,4241.282227,4294.743652,4321.538574,4234.102539,4231.025879,4250.000000,4272.692383,4218.717773,4207.820313,4687.179688,4575.769043,4409.615234,4516.282227,0.000000,1.000000,17.000000,,,,0.000000,4.000000,4.000000,4.000000,4.000000,4.000000,4.000000,4.000000,4.000000,4.000000,4.000000,4.000000,4.000000,4.000000,4.000000,100.000000,,,,,,,,,,,,,,,,,,,,,,,,,,,,,,,,,,,,,,,,,,,,,,,,,,,,,,,,,,,,,,,,,,,,,,,,,,,,,,,,,,,,,,,,,,,,,,,,,,,,,,,,,,,,,,,,,,,,,,,,,,,,,,,,,
1739354625.497064,1739354625.497649,42.000000,0.000000,4274.615234,4245.256348,4299.230957,4321.922852,4228.205078,4226.153809,4244.871582,4276.025879,4226.538574,4221.922852,4698.461426,4587.948730,4424.487305,4523.717773,0.000000,1.000000,17.000000,,,,0.000000,4.000000,4.000000,4.000000,4.000000,4.000000,4.000000,4.000000,4.000000,4.000000,4.000000,4.000000,4.000000,4.000000,4.000000,100.000000,,,,,,,,,,,,,,,,,,,,,,,,,,,,,,,,,,,,,,,,,,,,,,,,,,,,,,,,,,,,1.093620,1.083201,0.546039,1.479555,1.311050,0.492566,1.129156,0.459711,1.599888,1.313511,0.524486,0.854784,0.447581,1.492342,1.000000,0.849213,0.853091,0.517625,1.645941,1.122555,0.583501,0.655480,0.244461,1.302017,0.863747,0.770986,0.568959,0.387914,1.399905,0.893106,0.662972,0.694356,0.742150,1.486924,0.931323,0.599448,1.105336,0.345923,0.383341,0.293452,1.329648,2.651941,0.968840,1.606418,1.013796,4.870054,1.812707,0.759938,1.858792,1.314655,2.860574,3.247992,0.573931,1.615583,1.417563,1.420776,1.272896,0.606480,2.191834,1.508619,0.735191,1.257922,0.295192,1.076102,1.236294,0.717243,0.747173,0.539786,1.374348,1.274471
1739354625.504872,1739354625.505457,43.000000,0.000000,4262.051270,4228.974121,4288.077148,4306.922852,4212.436035,4212.179688,4229.230957,4273.333496,4218.205078,4201.794922,4686.794922,4574.615234,4410.000000,4512.436035,0.000000,1.000000,17.000000,,,,0.000000,4.000000,4.000000,4.000000,4.000000,4.000000,4.000000,4.000000,4.000000,4.000000,4.000000,4.000000,4.000000,4.000000,4.000000,100.000000,,,,,,,,,,,,,,,,,,,,,,,,,,,,,,,,,,,,,,,,,,,,,,,,,,,,,,,,,,,,,,,,,,,,,,,,,,,,,,,,,,,,,,,,,,,,,,,,,,,,,,,,,,,,,,,,,,,,,,,,,,,,,,,,,
1739354625.512680,1739354625.513165,44.000000,0.000000,4269.871582,4233.205078,4295.128418,4309.102539,4220.512695,4217.563965,4239.358887,4274.615234,4229.743652,4198.974121,4689.358887,4579.743652,4413.974121,4517.820313,0.000000,1.000000,17.000000,,,,0.000000,4.000000,4.000000,4.000000,4.000000,4.000000,4.000000,4.000000,4.000000,4.000000,4.000000,4.000000,4.000000,4.000000,4.000000,100.000000,,,,,,,,,,,,,,,,,11.000000,0.000000,0.403000,0.441467,-0.525879,0.605103,0.975217,-0.254426,0.058113,-38.951416,-29.616209,44.328262,,,,,,,,,,,,,,,,,,,,,,,,,,,,,,,,,,,,,,,,,,,,,,,,,,,,,,,,,,,,,,,,,,,,,,,,,,,,,,,,,,,,,,,,,,,,,,,,,,,,,
1739354625.520488,1739354625.520973,45.000000,0.000000,4276.794922,4237.563965,4300.897461,4317.307617,4229.615234,4220.641113,4246.410156,4270.769043,4233.077148,4201.794922,4694.615234,4584.102539,4429.871582,4522.563965,0.000000,1.000000,17.000000,,,,0.000000,4.000000,4.000000,4.000000,4.000000,4.000000,4.000000,4.000000,4.000000,4.000000,4.000000,4.000000,4.000000,4.000000,4.000000,100.000000,,,,,,,,,,,,,,,,,,,,,,,,,,,,,,,,,,,,,,,,,,,,,,,,,,,,,,,,,,,,,,,,,,,,,,,,,,,,,,,,,,,,,,,,,,,,,,,,,,,,,,,,,,,,,,,,,,,,,,,,,,,,,,,,,
1739354625.528296,1739354625.528681,46.000000,0.000000,4275.256348,4237.436035,4301.153809,4325.512695,4232.436035,4221.794922,4245.512695,4269.230957,4223.589844,4193.974121,4697.820313,4579.871582,4430.769043,4523.333496,0.000000,1.000000,17.000000,,,,0.000000,4.000000,4.000000,4.000000,4.000000,4.000000,4.000000,4.000000,4.000000,4.000000,4.000000,4.000000,4.000000,4.000000,4.000000,100.000000,,,,,,,,,,,,,,,,,,,,,,,,,,,,,,,,,,,,,,,,,,,,,,,,,,,,,,,,,,,,,,,,,,,,,,,,,,,,,,,,,,,,,,,,,,,,,,,,,,,,,,,,,,,,,,,,,,,,,,,,,,,,,,,,,
1739354625.536104,1739354625.536489,47.000000,0.000000,4265.512695,4232.692383,4295.256348,4316.410156,4230.000000,4220.256348,4243.333496,4268.846191,4218.077148,4181.282227,4688.717773,4568.717773,4413.846191,4517.179688,0.000000,1.000000,17.000000,,,,0.000000,4.000000,4.000000,4.000000,4.000000,4.000000,4.000000,4.000000,4.000000,4.000000,4.000000,4.000000,4.000000,4.000000,4.000000,100.000000,,,,,,,,,,,,,,,,,,,,,,,,,,,,,,,,,,,,,,,,,,,,,,,,,,,,,,,,,,,,,,,,,,,,,,,,,,,,,,,,,,,,,,,,,,,,,,,,,,,,,,,,,,,,,,,,,,,,,,,,,,,,,,,,,
1739354625.543912,1739354625.544197,48.000000,0.000000,4245.256348,4220.128418,4278.589844,4292.692383,4218.589844,4205.512695,4232.051270,4259.743652,4204.487305,4160.256348,4666.025879,4544.230957,4396.025879,4495.641113,0.000000,1.000000,17.000000,,,,0.000000,4.000000,4.000000,4.000000,4.000000,4.000000,4.000000,4.000000,4.000000,4.000000,4.000000,4.000000,4.000000,4.000000,4.000000,100.000000,,,,,,,,,,,,,,,,,12.000000,0.000000,0.402797,0.442444,-0.525635,0.604736,0.954218,-0.251984,0.056648,-38.856274,-29.704588,44.362103,,,,,,,,,,,,,,,,,,,,,,,,,,,,,,,,,,,,,,,,,,,,,,,,,,,,,,,,,,,,,,,,,,,,,,,,,,,,,,,,,,,,,,,,,,,,,,,,,,,,,
1739354625.551720,1739354625.552005,49.000000,0.000000,4251.794922,4231.922852,4283.974121,4302.436035,4223.333496,4213.461426,4238.846191,4263.205078,4206.538574,4156.153809,4671.922852,4545.512695,4407.307617,4498.205078,0.000000,1.000000,17.000000,,,,0.000000,4.000000,4.000000,4.000000,4.000000,4.000000,4.000000,4.000000,4.000000,4.000000,4.000000,4.000000,4.000000,4.000000,4.000000,100.000000,,,,,,,,,,,,,,,,,,,,,,,,,,,,,,,,,,,,,,,,,,,,,,,,,,,,,,,,,,,,,,,,,,,,,,,,,,,,,,,,,,,,,,,,,,,,,,,,,,,,,,,,,,,,,,,,,,,,,,,,,,,,,,,,,
1739354625.559528,1739354625.559713,50.000000,0.000000,4269.358887,4253.974121,4297.820313,4325.641113,4238.333496,4235.512695,4256.410156,4269.230957,4228.077148,4172.820313,4690.000000,4560.128418,4427.692383,4516.666504,0.000000,1.000000,17.000000,,,,0.000000,4.000000,4.000000,4.000000,4.000000,4.000000,4.000000,4.000000,4.000000,4.000000,4.000000,4.000000,4.000000,4.000000,4.000000,100.000000,,,,,,,,,,,,,,,,,,,,,,,,,,,,,,,,,,,,,,,,,,,,,,,,,,,,,,,,,,,,,,,,,,,,,,,,,,,,,,,,,,,,,,,,,,,,,,,,,,,,,,,,,,,,,,,,,,,,,,,,,,,,,,,,,
1739354625.567336,1739354625.567521,51.000000,0.000000,4254.743652,4246.538574,4285.128418,4316.410156,4232.179688,4226.794922,4243.717773,4262.436035,4225.512695,4169.487305,4679.358887,4543.461426,4422.051270,4506.410156,0.000000,1.000000,17.000000,,,,0.000000,4.000000,4.000000,4.000000,4.000000,4.000000,4.000000,4.000000,4.000000,4.000000,4.000000,4.000000,4.000000,4.000000,4.000000,100.000000,,,,,,,,,,,,,,,,,,,,,,,,,,,,,,,,,,,,,,,,,,,,,,,,,,,,,,,,,,,,,,,,,,,,,,,,,,,,,,,,,,,,,,,,,,,,,,,,,,,,,,,,,,,,,,,,,,,,,,,,,,,,,,,,,
1739354625.575144,1739354625.575229,52.000000,0.000000,4242.051270,4235.641113,4273.077148,4303.205078,4224.230957,4213.077148,4228.077148,4261.922852,4215.384766,4154.358887,4668.717773,4528.205078,4416.025879,4491.794922,0.000000,1.000000,17.000000,,,,0.000000,4.000000,4.000000,4.000000,4.000000,4.000000,4.000000,4.000000,4.000000,4.000000,4.000000,4.000000,4.000000,4.000000,4.000000,100.000000,,,,,,,,,,,,,,,,,13.000000,0.000000,0.402659,0.443481,-0.525146,0.604492,0.947381,-0.259309,0.046881,-38.853981,-29.650795,44.275890,,,,,,,,,,,,,,,,,,,,,,,,,,,,,,,,,,,,,,,,,,,,,,,,,,,,,,,,,,,,,,,,,,,,,,,,,,,,,,,,,,,,,,,,,,,,,,,,,,,,,
1739354625.582952,1739354625.583037,53.000000,0.000000,4256.794922,4244.615234,4283.717773,4310.641113,4228.589844,4218.974121,4232.948730,4265.769043,4226.666504,4161.153809,4678.974121,4540.897461,4425.512695,4501.282227,0.000000,1.000000,17.000000,,,,0.000000,4.000000,4.000000,4.000000,4.000000,4.000000,4.000000,4.000000,4.000000,4.000000,4.000000,4.000000,4.000000,4.000000,4.000000,100.000000,,,,,,,,,,,,,,,,,,,,,,,,,,,,,,,,,,,,,,,,,,,,,,,,,,,,,,,,,,,,,,,,,,,,,,,,,,,,,,,,,,,,,,,,,,,,,,,,,,,,,,,,,,,,,,,,,,,,,,,,,,,,,,,,,
1739354625.590761,1739354625.590745,54.000000,0.000000,4268.589844,4248.333496,4292.307617,4318.846191,4224.487305,4215.769043,4222.051270,4261.794922,4236.922852,4168.846191,4686.794922,4551.282227,4425.384766,4515.000000,0.000000,1.000000,17.000000,,,,0.000000,4.000000,4.000000,4.000000,4.000000,4.000000,4.000000,4.000000,4.000000,4.000000,4.000000,4.000000,4.000000,4.000000,4.000000,100.000000,,,,,,,,,,,,,,,,,,,,,,,,,,,,,,,,,,,,,,,,,,,,,,,,,,,,,,,,,,,,,,,,,,,,,,,,,,,,,,,,,,,,,,,,,,,,,,,,,,,,,,,,,,,,,,,,,,,,,,,,,,,,,,,,,
1739354625.598569,1739354625.598654,55.000000,0.000000,4278.974121,4251.922852,4299.487305,4329.615234,4228.461426,4213.717773,4214.743652,4264.102539,4243.333496,4172.948730,4697.692383,4560.641113,4431.794922,4527.820313,0.000000,1.000000,17.000000,,,,0.000000,4.000000,4.000000,4.000000,4.000000,4.000000,4.000000,4.000000,4.000000,4.000000,4.000000,4.000000,4.000000,4.000000,4.000000,100.000000,,,,,,,,,,,,,,,,,,,,,,,,,,,,,,,,,,,,,,,,,,,,,,,,,,,,,,,,,,,,,,,,,,,,,,,,,,,,,,,,,,,,,,,,,,,,,,,,,,,,,,,,,,,,,,,,,,,,,,,,,,,,,,,,,
1739354625.606377,1739354625.606462,56.000000,0.000000,4282.563965,4252.820313,4301.922852,4332.307617,4235.512695,4219.358887,4227.307617,4266.538574,4244.487305,4173.974121,4699.615234,4563.589844,4440.641113,4528.205078,0.000000,1.000000,17.000000,,,,0.000000,4.000000,4.000000,4.000000,4.000000,4.000000,4.000000,4.000000,4.000000,4.000000,4.000000,4.000000,4.000000,4.000000,4.000000,100.000000,,,,,,,,,,,,,,,,,14.000000,0.000000,0.402642,0.443909,-0.524658,0.604614,0.975705,-0.270541,0.059578,-38.885250,-29.719049,44.348305,,,,,,,,,,,,,,,,,,,,,,,,,,,,,,,,,,,,,,,,,,,,,,,,,,,,,,,,,,,,,,,,,,,,,,,,,,,,,,,,,,,,,,,,,,,,,,,,,,,,,
1739354625.614185,1739354625.614370,57.000000,0.000000,4254.230957,4227.692383,4279.743652,4308.333496,4216.025879,4205.256348,4221.282227,4253.461426,4218.974121,4147.948730,4672.692383,4532.307617,4418.205078,4500.769043,0.000000,1.000000,17.000000,,,,0.000000,4.000000,4.000000,4.000000,4.000000,4.000000,4.000000,4.000000,4.000000,4.000000,4.000000,4.000000,4.000000,4.000000,4.000000,100.000000,,,,,,,,,,,,,,,,,,,,,,,,,,,,,,,,,,,,,,,,,,,,,,,,,,,,,,,,,,,,,,,,,,,,,,,,,,,,,,,,,,,,,,,,,,,,,,,,,,,,,,,,,,,,,,,,,,,,,,,,,,,,,,,,,
1739354625.621993,1739354625.622178,58.000000,0.000000,4245.128418,4219.358887,4272.307617,4303.974121,4215.641113,4209.358887,4228.077148,4253.461426,4211.666504,4135.897461,4674.615234,4520.897461,4413.333496,4497.179688,0.000000,1.000000,17.000000,,,,0.000000,4.000000,4.000000,4.000000,4.000000,4.000000,4.000000,4.000000,4.000000,4.000000,4.000000,4.000000,4.000000,4.000000,4.000000,100.000000,,,,,,,,,,,,,,,,,,,,,,,,,,,,,,,,,,,,,,,,,,,,,,,,,,,,,,,,,,,,1.046181,1.078549,0.482374,1.464748,1.256369,0.454082,0.987440,0.323358,1.671663,1.271767,0.532775,1.054656,0.345682,1.525954,0.953142,0.794221,0.787997,0.458477,1.643562,1.123851,0.393119,0.609622,0.244892,1.381798,0.819889,0.636846,0.672350,0.418396,1.486145,0.853004,0.510026,1.183951,0.915824,1.545944,0.884578,0.988774,1.624777,0.365678,0.457524,0.297009,1.489802,3.020171,1.087808,1.699118,0.995069,2.494153,1.696701,0.850175,1.968790,1.268458,2.943535,3.611490,0.680415,1.682633,1.381205,1.497067,1.520353,0.581933,2.295949,1.466739,0.782467,1.128818,0.244437,1.139148,1.182451,0.710924,0.864464,0.526786,1.431444,1.202616
1739354625.629801,1739354625.630086,59.000000,0.000000,4268.974121,4241.666504,4290.000000,4322.563965,4243.461426,4238.077148,4261.666504,4266.025879,4230.512695,4154.487305,4700.128418,4543.205078,4437.051270,4520.512695,0.000000,1.000000,17.000000,,,,0.000000,4.000000,4.000000,4.000000,4.000000,4.000000,4.000000,4.000000,4.000000,4.000000,4.000000,4.000000,4.000000,4.000000,4.000000,100.000000,,,,,,,,,,,,,,,,,,,,,,,,,,,,,,,,,,,,,,,,,,,,,,,,,,,,,,,,,,,,,,,,,,,,,,,,,,,,,,,,,,,,,,,,,,,,,,,,,,,,,,,,,,,,,,,,,,,,,,,,,,,,,,,,,
1739354625.637609,1739354625.637894,60.000000,0.000000,4271.282227,4251.153809,4297.307617,4319.358887,4245.512695,4244.358887,4266.922852,4263.077148,4227.948730,4156.666504,4695.384766,4546.922852,4440.128418,4519.871582,0.000000,1.000000,17.000000,,,,0.000000,4.000000,4.000000,4.000000,4.000000,4.000000,4.000000,4.000000,4.000000,4.000000,4.000000,4.000000,4.000000,4.000000,4.000000,100.000000,,,,,,,,,,,,,,,,,15.000000,0.000000,0.402483,0.443970,-0.524658,0.604675,0.959590,-0.261751,0.055671,-38.963390,-29.847145,44.263474,,,,,,,,,,,,,,,,,,,,,,,,,,,,,,,,,,,,,,,,,,,,,,,,,,,,,,,,,,,,,,,,,,,,,,,,,,,,,,,,,,,,,,,,,,,,,,,,,,,,,
1739354625.645417,1739354625.645802,61.000000,0.000000,4259.743652,4242.692383,4291.922852,4307.948730,4230.897461,4231.025879,4247.051270,4256.922852,4218.717773,4144.102539,4685.000000,4536.666504,4433.974121,4508.717773,0.000000,1.000000,17.000000,,,,0.000000,4.000000,4.000000,4.000000,4.000000,4.000000,4.000000,4.000000,4.000000,4.000000,4.000000,4.000000,4.000000,4.000000,4.000000,100.000000,,,,,,,,,,,,,,,,,,,,,,,,,,,,,,,,,,,,,,,,,,,,,,,,,,,,,,,,,,,,,,,,,,,,,,,,,,,,,,,,,,,,,,,,,,,,,,,,,,,,,,,,,,,,,,,,,,,,,,,,,,,,,,,,,
1739354625.653225,1739354625.653610,62.000000,0.000000,4268.333496,4241.153809,4290.641113,4313.461426,4237.436035,4228.333496,4244.102539,4261.666504,4225.128418,4146.666504,4694.871582,4538.461426,4444.230957,4517.948730,0.000000,1.000000,17.000000,,,,0.000000,4.000000,4.000000,4.000000,4.000000,4.000000,4.000000,4.000000,4.000000,4.000000,4.000000,4.000000,4.000000,4.000000,4.000000,100.000000,,,,,,,,,,,,,,,,,,,,,,,,,,,,,,,,,,,,,,,,,,,,,,,,,,,,,,,,,,,,,,,,,,,,,,,,,,,,,,,,,,,,,,,,,,,,,,,,,,,,,,,,,,,,,,,,,,,,,,,,,,,,,,,,,
1739354625.661033,1739354625.661518,63.000000,0.000000,4283.205078,4253.077148,4302.307617,4325.128418,4251.538574,4237.307617,4253.333496,4267.563965,4232.820313,4156.025879,4703.589844,4548.077148,4456.666504,4535.000000,0.000000,1.000000,17.000000,,,,0.000000,4.000000,4.000000,4.000000,4.000000,4.000000,4.000000,4.000000,4.000000,4.000000,4.000000,4.000000,4.000000,4.000000,4.000000,100.000000,,,,,,,,,,,,,,,,,,,,,,,,,,,,,,,,,,,,,,,,,,,,,,,,,,,,,,,,,,,,,,,,,,,,,,,,,,,,,,,,,,,,,,,,,,,,,,,,,,,,,,,,,,,,,,,,,,,,,,,,,,,,,,,,,
1739354625.668841,1739354625.669326,64.000000,0.000000,4283.077148,4262.563965,4310.128418,4324.102539,4248.846191,4239.358887,4249.102539,4264.487305,4235.384766,4158.974121,4701.794922,4548.205078,4459.102539,4535.128418,5202.000000,1.000000,17.000000,,,,0.000000,4.000000,4.000000,4.000000,4.000000,4.000000,4.000000,4.000000,4.000000,4.000000,4.000000,4.000000,4.000000,4.000000,4.000000,100.000000,,,,,,,,,,,,,,,,,16.000000,0.000000,0.402146,0.444153,-0.524902,0.604553,0.953241,-0.264681,0.051276,-39.033718,-29.829096,44.353790,,,,,,,,,,,,,,,,,,,,,,,,,,,,,,,,,,,,,,,,,,,,,,,,,,,,,,,,,,,,,,,,,,,,,,,,,,,,,,,,,,,,,,,,,,,,,,,,,,,,,
1739354625.676649,1739354625.677234,65.000000,0.000000,4267.820313,4252.051270,4292.692383,4306.666504,4231.538574,4223.205078,4226.538574,4256.025879,4227.692383,4150.512695,4691.025879,4530.641113,4448.077148,4515.897461,5561.000000,1.000000,17.000000,,,,0.000000,4.000000,4.000000,4.000000,4.000000,4.000000,4.000000,4.000000,4.000000,4.000000,4.000000,4.000000,4.000000,4.000000,4.000000,100.000000,,,,,,,,,,,,,,,,,,,,,,,,,,,,,,,,,,,,,,,,,,,,,,,,,,,,,,,,,,,,,,,,,,,,,,,,,,,,,,,,,,,,,,,,,,,,,,,,,,,,,,,,,,,,,,,,,,,,,,,,,,,,,,,,,
1739354625.684457,1739354625.685041,66.000000,0.000000,4264.102539,4246.025879,4286.922852,4303.974121,4227.179688,4213.333496,4212.820313,4259.102539,4225.897461,4145.769043,4685.512695,4522.179688,4443.077148,4513.077148,5592.000000,1.000000,17.000000,,,,0.000000,4.000000,4.000000,4.000000,4.000000,4.000000,4.000000,4.000000,4.000000,4.000000,4.000000,4.000000,4.000000,4.000000,4.000000,100.000000,,,,,,,,,,,,,,,,,,,,,,,,,,,,,,,,,,,,,,,,,,,,,,,,,,,,,,,,,,,,,,,,,,,,,,,,,,,,,,,,,,,,,,,,,,,,,,,,,,,,,,,,,,,,,,,,,,,,,,,,,,,,,,,,,
1739354625.692266,1739354625.692750,67.000000,0.000000,4289.358887,4270.128418,4317.692383,4328.974121,4248.077148,4230.641113,4229.487305,4277.307617,4246.153809,4166.794922,4704.871582,4548.205078,4463.461426,4541.025879,5504.000000,1.000000,17.000000,,,,0.000000,4.000000,4.000000,4.000000,4.000000,4.000000,4.000000,4.000000,4.000000,4.000000,4.000000,4.000000,4.000000,4.000000,4.000000,100.000000,,,,,,,,,,,,,,,,,,,,,,,,,,,,,,,,,,,,,,,,,,,,,,,,,,,,,,,,,,,,,,,,,,,,,,,,,,,,,,,,,,,,,,,,,,,,,,,,,,,,,,,,,,,,,,,,,,,,,,,,,,,,,,,,,
1739354625.700074,1739354625.700558,68.000000,0.000000,4302.051270,4282.692383,4330.128418,4338.333496,4253.205078,4238.974121,4237.692383,4281.794922,4254.358887,4180.000000,4716.282227,4563.205078,4471.538574,4551.922852,5475.000000,1.000000,17.000000,,,,0.000000,4.000000,4.000000,4.000000,4.000000,4.000000,4.000000,4.000000,4.000000,4.000000,4.000000,4.000000,4.000000,4.000000,4.000000,100.000000,,,,,,,,,,,,,,,,,17.000000,0.000000,0.402096,0.444397,-0.525085,0.604248,0.950800,-0.254426,0.056648,-39.063679,-29.846188,44.518414,,,,,,,,,,,,,,,,,,,,,,,,,,,,,,,,,,,,,,,,,,,,,,,,,,,,,,,,,,,,,,,,,,,,,,,,,,,,,,,,,,,,,,,,,,,,,,,,,,,,,
1739354625.707882,1739354625.708266,69.000000,0.000000,4285.256348,4262.179688,4312.563965,4321.538574,4233.974121,4228.461426,4224.487305,4268.846191,4236.538574,4160.769043,4701.153809,4544.615234,4455.384766,4534.102539,5489.000000,1.000000,17.000000,,,,0.000000,4.000000,4.000000,4.000000,4.000000,4.000000,4.000000,4.000000,4.000000,4.000000,4.000000,4.000000,4.000000,4.000000,4.000000,100.000000,,,,,,,,,,,,,,,,,,,,,,,,,,,,,,,,,,,,,,,,,,,,,,,,,,,,,,,,,,,,,,,,,,,,,,,,,,,,,,,,,,,,,,,,,,,,,,,,,,,,,,,,,,,,,,,,,,,,,,,,,,,,,,,,,
1739354625.715690,1739354625.716074,70.000000,0.000000,4273.589844,4248.974121,4305.384766,4314.102539,4231.538574,4231.410156,4230.769043,4265.641113,4226.794922,4144.743652,4687.692383,4527.179688,4450.256348,4523.461426,5459.000000,1.000000,17.000000,,,,0.000000,4.000000,4.000000,4.000000,4.000000,4.000000,4.000000,4.000000,4.000000,4.000000,4.000000,4.000000,4.000000,4.000000,4.000000,100.000000,,,,,,,,,,,,,,,,,,,,,,,,,,,,,,,,,,,,,,,,,,,,,,,,,,,,,,,,,,,,,,,,,,,,,,,,,,,,,,,,,,,,,,,,,,,,,,,,,,,,,,,,,,,,,,,,,,,,,,,,,,,,,,,,,
1739354625.723498,1739354625.723782,71.000000,0.000000,4264.102539,4246.794922,4297.692383,4308.974121,4235.512695,4235.769043,4243.974121,4265.000000,4219.102539,4137.436035,4675.000000,4508.589844,4445.384766,4510.769043,2601.000000,1.000000,17.000000,,,,0.000000,4.000000,4.000000,4.000000,4.000000,4.000000,4.000000,4.000000,4.000000,4.000000,4.000000,4.000000,4.000000,4.000000,4.000000,100.000000,,,,,,,,,,,,,,,,,,,,,,,,,,,,,,,,,,,,,,,,,,,,,,,,,,,,,,,,,,,,,,,,,,,,,,,,,,,,,,,,,,,,,,,,,,,,,,,,,,,,,,,,,,,,,,,,,,,,,,,,,,,,,,,,,
1739354625.731306,1739354625.731590,72.000000,0.000000,4255.641113,4243.589844,4287.820313,4302.563965,4231.153809,4233.589844,4246.794922,4258.333496,4211.410156,4132.436035,4670.128418,4497.948730,4440.384766,4502.179688,5237.000000,1.000000,17.000000,,,,0.000000,4.000000,4.000000,4.000000,4.000000,4.000000,4.000000,4.000000,4.000000,4.000000,4.000000,4.000000,4.000000,4.000000,4.000000,100.000000,,,,,,,,,,,,,,,,,18.000000,0.000000,0.402137,0.444824,-0.524902,0.604065,0.959101,-0.265169,0.047857,-39.107311,-29.978235,44.483238,,,,,,,,,,,,,,,,,,,,,,,,,,,,,,,,,,,,,,,,,,,,,,,,,,,,,,,,,,,,,,,,,,,,,,,,,,,,,,,,,,,,,,,,,,,,,,,,,,,,,
1739354625.739114,1739354625.739298,73.000000,0.000000,4270.256348,4252.436035,4299.358887,4311.538574,4233.589844,4240.256348,4250.384766,4261.666504,4220.897461,4141.794922,4683.333496,4511.922852,4452.307617,4521.922852,5572.000000,1.000000,17.000000,,,,0.000000,4.000000,4.000000,4.000000,4.000000,4.000000,4.000000,4.000000,4.000000,4.000000,4.000000,4.000000,4.000000,4.000000,4.000000,100.000000,,,,,,,,,,,,,,,,,,,,,,,,,,,,,,,,,,,,,,,,,,,,,,,,,,,,,,,,,,,,,,,,,,,,,,,,,,,,,,,,,,,,,,,,,,,,,,,,,,,,,,,,,,,,,,,,,,,,,,,,,,,,,,,,,
1739354625.746922,1739354625.747206,74.000000,0.000000,4267.051270,4242.820313,4294.358887,4299.230957,4222.307617,4228.333496,4232.051270,4257.820313,4211.410156,4130.512695,4673.333496,4500.256348,4444.230957,4516.538574,5058.000000,1.000000,17.000000,,,,0.000000,4.000000,4.000000,4.000000,4.000000,4.000000,4.000000,4.000000,4.000000,4.000000,4.000000,4.000000,4.000000,4.000000,4.000000,100.000000,1.000000,25.000000,3.000000,3.000000,1.000000,4.000000,4.000000,3.000000,3.000000,4.000000,4.000000,1.000000,3.000000,1.000000,3.000000,3.000000,,,,,,,,,,,,,,,,,,,,,,,,,,,,,,,,,,,,,,,,,,,,1.056464,1.209694,0.500777,1.512466,1.239005,0.480318,0.958258,0.264489,1.750675,1.266685,0.602727,1.370507,0.330724,1.574498,0.939023,0.690040,0.846884,0.460905,1.681218,1.149740,0.266785,0.616290,0.266716,1.427819,0.801238,0.599036,0.866298,0.463258,1.526680,0.845133,0.521771,2.058718,1.129976,1.564586,0.873421,1.507182,2.245628,0.376163,0.543736,0.305246,1.718889,3.415750,1.231548,1.779339,0.992186,1.378095,1.538344,1.016658,2.075896,1.257158,2.821359,3.751907,0.784507,1.730089,1.364602,1.685112,2.013235,0.651364,2.413183,1.456957,0.851404,1.001436,0.221854,1.225111,1.164116,0.823297,1.067991,0.559125,1.525285,1.166977
1739354625.754730,1739354625.755014,75.000000,0.000000,4252.436035,4231.025879,4281.538574,4284.743652,4211.153809,4211.794922,4213.077148,4247.692383,4195.384766,4115.000000,4659.871582,4482.307617,4430.512695,4496.410156,5505.000000,1.000000,17.000000,,,,0.000000,4.000000,4.000000,4.000000,4.000000,4.000000,4.000000,4.000000,4.000000,4.000000,4.000000,4.000000,4.000000,4.000000,4.000000,100.000000,,,,,,,,,,,,,,,,,,,,,,,,,,,,,,,,,,,,,,,,,,,,,,,,,,,,,,,,,,,,,,,,,,,,,,,,,,,,,,,,,,,,,,,,,,,,,,,,,,,,,,,,,,,,,,,,,,,,,,,,,,,,,,,,,
1739354625.762538,1739354625.762922,76.000000,0.000000,4271.666504,4253.461426,4300.641113,4306.666504,4227.563965,4225.000000,4227.051270,4256.410156,4215.897461,4137.820313,4683.974121,4506.282227,4450.000000,4516.922852,5587.000000,1.000000,17.000000,,,,0.000000,4.000000,4.000000,4.000000,4.000000,4.000000,4.000000,4.000000,4.000000,4.000000,4.000000,4.000000,4.000000,4.000000,4.000000,100.000000,,,,,,,,,,,,,,,,,19.000000,0.000000,0.402253,0.445068,-0.524536,0.604126,0.956171,-0.274936,0.047857,-39.063248,-29.880411,44.451580,,,,,,,,,,,,,,,,,,,,,,,,,,,,,,,,,,,,,,,,,,,,,,,,,,,,,,,,,,,,,,,,,,,,,,,,,,,,,,,,,,,,,,,,,,,,,,,,,,,,,
1739354625.770346,1739354625.770730,77.000000,0.000000,4294.871582,4273.333496,4323.205078,4326.666504,4240.512695,4239.871582,4240.641113,4269.743652,4240.641113,4164.230957,4706.922852,4531.153809,4470.512695,4543.077148,6588.000000,1.000000,17.000000,,,,0.000000,4.000000,4.000000,4.000000,4.000000,4.000000,4.000000,4.000000,4.000000,4.000000,4.000000,4.000000,4.000000,4.000000,4.000000,100.000000,,,,,,,,,,,,,,,,,,,,,,,,,,,,,,,,,,,,,,,,,,,,,,,,,,,,,,,,,,,,,,,,,,,,,,,,,,,,,,,,,,,,,,,,,,,,,,,,,,,,,,,,,,,,,,,,,,,,,,,,,,,,,,,,,
1739354625.778154,1739354625.778539,78.000000,0.000000,4293.717773,4267.692383,4320.384766,4322.307617,4235.641113,4230.769043,4228.974121,4268.717773,4236.538574,4158.974121,4699.487305,4524.487305,4464.615234,4537.692383,5058.000000,1.000000,17.000000,,,,0.000000,4.000000,4.000000,4.000000,4.000000,4.000000,4.000000,4.000000,4.000000,4.000000,4.000000,4.000000,4.000000,4.000000,4.000000,100.000000,,,,,,,,,,,,,,,,,,,,,,,,,,,,,,,,,,,,,,,,,,,,,,,,,,,,,,,,,,,,,,,,,,,,,,,,,,,,,,,,,,,,,,,,,,,,,,,,,,,,,,,,,,,,,,,,,,,,,,,,,,,,,,,,,
1739354625.785962,1739354625.786247,79.000000,0.000000,4289.487305,4266.282227,4315.000000,4322.179688,4240.128418,4226.666504,4225.384766,4268.974121,4230.128418,4152.051270,4690.641113,4515.256348,4456.538574,4528.846191,5505.000000,1.000000,17.000000,,,,0.000000,4.000000,4.000000,4.000000,4.000000,4.000000,4.000000,4.000000,4.000000,4.000000,4.000000,4.000000,4.000000,4.000000,4.000000,100.000000,,,,,,,,,,,,,,,,,,,,,,,,,,,,,,,,,,,,,,,,,,,,,,,,,,,,,,,,,,,,,,,,,,,,,,,,,,,,,,,,,,,,,,,,,,,,,,,,,,,,,,,,,,,,,,,,,,,,,,,,,,,,,,,,,
1739354625.793770,1739354625.794155,80.000000,0.000000,4289.358887,4272.692383,4321.282227,4331.410156,4250.641113,4242.179688,4237.051270,4271.282227,4233.589844,4155.897461,4690.897461,4515.256348,4456.282227,4531.666504,5587.000000,1.000000,17.000000,,,,0.000000,4.000000,4.000000,4.000000,4.000000,4.000000,4.000000,4.000000,4.000000,4.000000,4.000000,4.000000,4.000000,4.000000,4.000000,100.000000,,,,,,,,,,,,,,,,,20.000000,0.000000,0.402106,0.445313,-0.524231,0.604309,0.965938,-0.271029,0.054694,-39.090256,-30.109037,44.523090,,,,,,,,,,,,,,,,,,,,,,,,,,,,,,,,,,,,,,,,,,,,,,,,,,,,,,,,,,,,,,,,,,,,,,,,,,,,,,,,,,,,,,,,,,,,,,,,,,,,,
1739354625.801579,1739354625.801963,81.000000,0.000000,4279.487305,4263.205078,4318.461426,4326.282227,4247.307617,4246.922852,4235.769043,4266.025879,4228.974121,4148.461426,4683.974121,4508.205078,4446.282227,4522.563965,6588.000000,1.000000,17.000000,,,,0.000000,4.000000,4.000000,4.000000,4.000000,4.000000,4.000000,4.000000,4.000000,4.000000,4.000000,4.000000,4.000000,4.000000,4.000000,100.000000,,,,,,,,,,,,,,,,,,,,,,,,,,,,,,,,,,,,,,,,,,,,,,,,,,,,,,,,,,,,,,,,,,,,,,,,,,,,,,,,,,,,,,,,,,,,,,,,,,,,,,,,,,,,,,,,,,,,,,,,,,,,,,,,,
1739354625.809387,1739354625.809871,82.000000,0.000000,4275.769043,4260.000000,4315.512695,4323.589844,4245.384766,4243.846191,4238.717773,4266.282227,4228.974121,4145.897461,4683.846191,4505.256348,4440.769043,4521.025879,5058.000000,1.000000,17.000000,,,,0.000000,4.000000,4.000000,4.000000,4.000000,4.000000,4.000000,4.000000,4.000000,4.000000,4.000000,4.000000,4.000000,4.000000,4.000000,100.000000,,,,,,,,,,,,,,,,,,,,,,,,,,,,,,,,,,,,,,,,,,,,,,,,,,,,,,,,,,,,,,,,,,,,,,,,,,,,,,,,,,,,,,,,,,,,,,,,,,,,,,,,,,,,,,,,,,,,,,,,,,,,,,,,,
1739354625.817195,1739354625.817679,83.000000,0.000000,4285.000000,4269.743652,4323.205078,4330.384766,4250.000000,4247.948730,4252.436035,4272.051270,4234.230957,4153.589844,4690.512695,4511.538574,4448.205078,4533.205078,5505.000000,1.000000,17.000000,,,,0.000000,4.000000,4.000000,4.000000,4.000000,4.000000,4.000000,4.000000,4.000000,4.000000,4.000000,4.000000,4.000000,4.000000,4.000000,100.000000,,,,,,,,,,,,,,,,,,,,,,,,,,,,,,,,,,,,,,,,,,,,,,,,,,,,,,,,,,,,,,,,,,,,,,,,,,,,,,,,,,,,,,,,,,,,,,,,,,,,,,,,,,,,,,,,,,,,,,,,,,,,,,,,,
1739354625.825003,1739354625.825587,84.000000,0.000000,4291.666504,4272.436035,4325.769043,4332.948730,4250.769043,4249.487305,4254.230957,4270.769043,4231.025879,4152.307617,4686.538574,4512.436035,4455.128418,4535.897461,5587.000000,1.000000,17.000000,,,,0.000000,4.000000,4.000000,4.000000,4.000000,4.000000,4.000000,4.000000,4.000000,4.000000,4.000000,4.000000,4.000000,4.000000,4.000000,100.000000,,,,,,,,,,,,,,,,,21.000000,0.000000,0.401811,0.445496,-0.524231,0.604370,0.942498,-0.266634,0.052252,-39.064564,-30.064800,44.337448,,,,,,,,,,,,,,,,,,,,,,,,,,,,,,,,,,,,,,,,,,,,,,,,,,,,,,,,,,,,,,,,,,,,,,,,,,,,,,,,,,,,,,,,,,,,,,,,,,,,,
1739354625.832811,1739354625.833395,85.000000,0.000000,4297.948730,4276.410156,4327.948730,4340.256348,4251.282227,4250.384766,4253.333496,4270.897461,4234.102539,4153.589844,4690.256348,4514.358887,4462.436035,4537.179688,6588.000000,1.000000,17.000000,,,,0.000000,4.000000,4.000000,4.000000,4.000000,4.000000,4.000000,4.000000,4.000000,4.000000,4.000000,4.000000,4.000000,4.000000,4.000000,100.000000,,,,,,,,,,,,,,,,,,,,,,,,,,,,,,,,,,,,,,,,,,,,,,,,,,,,,,,,,,,,,,,,,,,,,,,,,,,,,,,,,,,,,,,,,,,,,,,,,,,,,,,,,,,,,,,,,,,,,,,,,,,,,,,,,
1739354625.840619,1739354625.841302,86.000000,0.000000,4293.846191,4274.358887,4329.615234,4341.538574,4249.871582,4248.333496,4252.563965,4272.436035,4236.666504,4157.692383,4693.461426,4511.666504,4464.102539,4538.846191,5058.000000,1.000000,17.000000,,,,0.000000,4.000000,4.000000,4.000000,4.000000,4.000000,4.000000,4.000000,4.000000,4.000000,4.000000,4.000000,4.000000,4.000000,4.000000,100.000000,,,,,,,,,,,,,,,,,,,,,,,,,,,,,,,,,,,,,,,,,,,,,,,,,,,,,,,,,,,,,,,,,,,,,,,,,,,,,,,,,,,,,,,,,,,,,,,,,,,,,,,,,,,,,,,,,,,,,,,,,,,,,,,,,
1739354625.848427,1739354625.849110,87.000000,0.000000,4280.512695,4261.666504,4321.410156,4326.922852,4244.487305,4239.102539,4240.128418,4265.512695,4227.948730,4151.282227,4678.333496,4493.846191,4455.512695,4529.871582,5505.000000,1.000000,17.000000,,,,0.000000,4.000000,4.000000,4.000000,4.000000,4.000000,4.000000,4.000000,4.000000,4.000000,4.000000,4.000000,4.000000,4.000000,4.000000,100.000000,,,,,,,,,,,,,,,,,,,,,,,,,,,,,,,,,,,,,,,,,,,,,,,,,,,,,,,,,,,,,,,,,,,,,,,,,,,,,,,,,,,,,,,,,,,,,,,,,,,,,,,,,,,,,,,,,,,,,,,,,,,,,,,,,
1739354625.856235,1739354625.856918,88.000000,0.000000,4288.717773,4265.512695,4323.717773,4326.410156,4247.820313,4238.333496,4235.256348,4265.000000,4235.000000,4157.307617,4680.256348,4493.717773,4462.563965,4530.384766,5587.000000,1.000000,17.000000,,,,0.000000,4.000000,4.000000,4.000000,4.000000,4.000000,4.000000,4.000000,4.000000,4.000000,4.000000,4.000000,4.000000,4.000000,4.000000,100.000000,,,,,,,,,,,,,,,,,22.000000,0.000000,0.401708,0.445435,-0.524292,0.604431,0.964473,-0.272494,0.056159,-39.174774,-30.158319,44.420368,,,,,,,,,,,,,,,,,,,,,,,,,,,,,,,,,,,,,,,,,,,,,,,,,,,,,,,,,,,,,,,,,,,,,,,,,,,,,,,,,,,,,,,,,,,,,,,,,,,,,
1739354625.864043,1739354625.864726,89.000000,0.000000,4318.974121,4291.153809,4348.974121,4353.077148,4262.692383,4248.846191,4243.077148,4275.512695,4256.922852,4185.128418,4713.589844,4526.282227,4487.307617,4557.948730,6588.000000,1.000000,17.000000,,,,0.000000,4.000000,4.000000,4.000000,4.000000,4.000000,4.000000,4.000000,4.000000,4.000000,4.000000,4.000000,4.000000,4.000000,4.000000,100.000000,,,,,,,,,,,,,,,,,,,,,,,,,,,,,,,,,,,,,,,,,,,,,,,,,,,,,,,,,,,,,,,,,,,,,,,,,,,,,,,,,,,,,,,,,,,,,,,,,,,,,,,,,,,,,,,,,,,,,,,,,,,,,,,,,
1739354625.871851,1739354625.872634,90.000000,0.000000,4325.384766,4295.512695,4355.897461,4363.974121,4268.205078,4248.717773,4237.307617,4274.487305,4256.922852,4194.358887,4720.000000,4536.922852,4489.487305,4567.436035,5058.000000,1.000000,17.000000,,,,0.000000,4.000000,4.000000,4.000000,4.000000,4.000000,4.000000,4.000000,4.000000,4.000000,4.000000,4.000000,4.000000,4.000000,4.000000,100.000000,,,,,,,,,,,,,,,,,,,,,,,,,,,,,,,,,,,,,,,,,,,,,,,,,,,,,,,,,,,,1.146633,1.525289,0.573295,1.600887,1.273940,0.595527,1.127303,0.255277,1.800792,1.303566,0.710067,1.796520,0.374741,1.615181,0.967874,0.593520,1.096995,0.488311,1.728071,1.199526,0.225470,0.672486,0.297394,1.418084,0.814011,0.626050,1.095250,0.509366,1.504404,0.871101,0.682294,3.227995,1.324184,1.533741,0.898716,2.037159,2.838857,0.383192,0.614563,0.316098,1.934237,3.865049,1.420596,1.817287,1.000739,1.182787,1.469262,1.259860,2.149428,1.276539,2.600284,3.661248,0.856674,1.738873,1.371807,2.043620,2.759114,0.784224,2.503891,1.486143,0.933529,0.949673,0.264999,1.308458,1.195816,1.090530,1.347797,0.628650,1.623992,1.176180
1739354625.879659,1739354625.880542,91.000000,0.000000,4307.179688,4275.769043,4340.000000,4351.538574,4260.512695,4242.692383,4227.179688,4266.153809,4245.256348,4184.615234,4697.820313,4513.461426,4473.461426,4548.717773,5505.000000,1.000000,17.000000,,,,0.000000,4.000000,4.000000,4.000000,4.000000,4.000000,4.000000,4.000000,4.000000,4.000000,4.000000,4.000000,4.000000,4.000000,4.000000,100.000000,,,,,,,,,,,,,,,,,,,,,,,,,,,,,,,,,,,,,,,,,,,,,,,,,,,,,,,,,,,,,,,,,,,,,,,,,,,,,,,,,,,,,,,,,,,,,,,,,,,,,,,,,,,,,,,,,,,,,,,,,,,,,,,,,
1739354625.887468,1739354625.888351,92.000000,0.000000,4308.846191,4276.153809,4341.922852,4354.230957,4264.615234,4244.743652,4232.948730,4268.974121,4244.487305,4181.666504,4697.563965,4507.307617,4474.358887,4546.794922,5587.000000,1.000000,17.000000,,,,0.000000,4.000000,4.000000,4.000000,4.000000,4.000000,4.000000,4.000000,4.000000,4.000000,4.000000,4.000000,4.000000,4.000000,4.000000,100.000000,,,,,,,,,,,,,,,,,23.000000,0.000000,0.401604,0.445313,-0.524475,0.604431,0.969357,-0.269076,0.048834,-39.173965,-30.042488,44.478333,,,,,,,,,,,,,,,,,,,,,,,,,,,,,,,,,,,,,,,,,,,,,,,,,,,,,,,,,,,,,,,,,,,,,,,,,,,,,,,,,,,,,,,,,,,,,,,,,,,,,
1739354625.895275,1739354625.896159,93.000000,0.000000,4317.563965,4288.974121,4350.512695,4367.563965,4279.487305,4252.051270,4239.230957,4272.051270,4242.948730,4179.871582,4704.743652,4514.230957,4477.051270,4554.487305,6588.000000,1.000000,17.000000,,,,0.000000,4.000000,4.000000,4.000000,4.000000,4.000000,4.000000,4.000000,4.000000,4.000000,4.000000,4.000000,4.000000,4.000000,4.000000,100.000000,,,,,,,,,,,,,,,,,,,,,,,,,,,,,,,,,,,,,,,,,,,,,,,,,,,,,,,,,,,,,,,,,,,,,,,,,,,,,,,,,,,,,,,,,,,,,,,,,,,,,,,,,,,,,,,,,,,,,,,,,,,,,,,,,
1739354625.903084,1739354625.903867,94.000000,0.000000,4300.256348,4279.102539,4337.948730,4358.333496,4275.256348,4253.205078,4234.615234,4262.051270,4229.358887,4166.282227,4686.410156,4498.461426,4463.589844,4539.358887,5058.000000,1.000000,17.000000,,,,0.000000,4.000000,4.000000,4.000000,4.000000,4.000000,4.000000,4.000000,4.000000,4.000000,4.000000,4.000000,4.000000,4.000000,4.000000,100.000000,,,,,,,,,,,,,,,,,,,,,,,,,,,,,,,,,,,,,,,,,,,,,,,,,,,,,,,,,,,,,,,,,,,,,,,,,,,,,,,,,,,,,,,,,,,,,,,,,,,,,,,,,,,,,,,,,,,,,,,,,,,,,,,,,
1739354625.910892,1739354625.911675,95.000000,0.000000,4283.205078,4263.461426,4325.128418,4339.230957,4260.769043,4247.563965,4231.538574,4257.051270,4214.102539,4153.077148,4669.230957,4482.051270,4454.358887,4519.743652,5505.000000,1.000000,17.000000,,,,0.000000,4.000000,4.000000,4.000000,4.000000,4.000000,4.000000,4.000000,4.000000,4.000000,4.000000,4.000000,4.000000,4.000000,4.000000,100.000000,,,,,,,,,,,,,,,,,,,,,,,,,,,,,,,,,,,,,,,,,,,,,,,,,,,,,,,,,,,,,,,,,,,,,,,,,,,,,,,,,,,,,,,,,,,,,,,,,,,,,,,,,,,,,,,,,,,,,,,,,,,,,,,,,
1739354625.918700,1739354625.919383,96.000000,0.000000,4300.641113,4278.717773,4340.512695,4354.487305,4274.358887,4256.666504,4248.846191,4265.128418,4222.948730,4165.128418,4685.512695,4499.230957,4466.282227,4533.589844,5587.000000,1.000000,17.000000,,,,0.000000,4.000000,4.000000,4.000000,4.000000,4.000000,4.000000,4.000000,4.000000,4.000000,4.000000,4.000000,4.000000,4.000000,4.000000,100.000000,,,,,,,,,,,,,,,,,24.000000,0.000000,0.401580,0.445068,-0.524841,0.604309,0.965450,-0.272494,0.055183,-39.139900,-30.088240,44.547165,,,,,,,,,,,,,,,,,,,,,,,,,,,,,,,,,,,,,,,,,,,,,,,,,,,,,,,,,,,,,,,,,,,,,,,,,,,,,,,,,,,,,,,,,,,,,,,,,,,,,
1739354625.926508,1739354625.927191,97.000000,0.000000,4310.769043,4291.025879,4349.615234,4370.384766,4285.769043,4263.333496,4257.436035,4265.897461,4236.538574,4174.615234,4691.153809,4506.666504,4467.051270,4543.333496,6588.000000,1.000000,17.000000,,,,0.000000,4.000000,4.000000,4.000000,4.000000,4.000000,4.000000,4.000000,4.000000,4.000000,4.000000,4.000000,4.000000,4.000000,4.000000,100.000000,,,,,,,,,,,,,,,,,,,,,,,,,,,,,,,,,,,,,,,,,,,,,,,,,,,,,,,,,,,,,,,,,,,,,,,,,,,,,,,,,,,,,,,,,,,,,,,,,,,,,,,,,,,,,,,,,,,,,,,,,,,,,,,,,
1739354625.934316,1739354625.934899,98.000000,0.000000,4273.589844,4258.589844,4318.589844,4335.000000,4252.820313,4234.102539,4225.000000,4254.871582,4218.333496,4144.743652,4653.974121,4461.410156,4433.589844,4508.077148,5058.000000,1.000000,17.000000,,,,0.000000,4.000000,4.000000,4.000000,4.000000,4.000000,4.000000,4.000000,4.000000,4.000000,4.000000,4.000000,4.000000,4.000000,4.000000,100.000000,,,,,,,,,,,,,,,,,,,,,,,,,,,,,,,,,,,,,,,,,,,,,,,,,,,,,,,,,,,,,,,,,,,,,,,,,,,,,,,,,,,,,,,,,,,,,,,,,,,,,,,,,,,,,,,,,,,,,,,,,,,,,,,,,
1739354625.942124,1739354625.942707,99.000000,0.000000,4255.769043,4237.051270,4303.077148,4311.666504,4233.077148,4218.974121,4209.743652,4256.538574,4215.384766,4136.666504,4642.692383,4440.897461,4422.307617,4494.230957,5505.000000,1.000000,17.000000,,,,0.000000,4.000000,4.000000,4.000000,4.000000,4.000000,4.000000,4.000000,4.000000,4.000000,4.000000,4.000000,4.000000,4.000000,4.000000,100.000000,,,,,,,,,,,,,,,,,,,,,,,,,,,,,,,,,,,,,,,,,,,,,,,,,,,,,,,,,,,,,,,,,,,,,,,,,,,,,,,,,,,,,,,,,,,,,,,,,,,,,,,,,,,,,,,,,,,,,,,,,,,,,,,,,
1739354625.949932,1739354625.950415,100.000000,0.000000,4288.846191,4263.717773,4330.256348,4341.538574,4259.102539,4245.256348,4236.282227,4270.897461,4245.512695,4173.333496,4677.436035,4478.589844,4450.641113,4527.948730,5587.000000,1.000000,17.000000,,,,0.000000,4.000000,4.000000,4.000000,4.000000,4.000000,4.000000,4.000000,4.000000,4.000000,4.000000,4.000000,4.000000,4.000000,4.000000,100.000000,,,,,,,,,,,,,,,,,25.000000,0.000000,0.401378,0.444641,-0.525146,0.604492,0.944451,-0.273471,0.049811,-39.192577,-29.996082,44.559116,,,,,,,,,,,,,,,,,,,,,,,,,,,,,,,,,,,,,,,,,,,,,,,,,,,,,,,,,,,,,,,,,,,,,,,,,,,,,,,,,,,,,,,,,,,,,,,,,,,,,
1739354625.957740,1739354625.958323,101.000000,0.000000,4309.102539,4286.538574,4347.563965,4362.179688,4275.128418,4258.589844,4248.461426,4273.974121,4256.410156,4188.846191,4696.410156,4499.230957,4468.205078,4545.256348,6588.000000,1.000000,17.000000,,,,0.000000,4.000000,4.000000,4.000000,4.000000,4.000000,4.000000,4.000000,4.000000,4.000000,4.000000,4.000000,4.000000,4.000000,4.000000,100.000000,,,,,,,,,,,,,,,,,,,,,,,,,,,,,,,,,,,,,,,,,,,,,,,,,,,,,,,,,,,,,,,,,,,,,,,,,,,,,,,,,,,,,,,,,,,,,,,,,,,,,,,,,,,,,,,,,,,,,,,,,,,,,,,,,
1739354625.965548,1739354625.966131,102.000000,0.000000,4285.897461,4267.307617,4329.615234,4341.666504,4254.615234,4239.102539,4224.871582,4262.179688,4234.743652,4166.794922,4672.948730,4468.974121,4451.410156,4523.846191,5058.000000,1.000000,17.000000,,,,0.000000,4.000000,4.000000,4.000000,4.000000,4.000000,4.000000,4.000000,4.000000,4.000000,4.000000,4.000000,4.000000,4.000000,4.000000,100.000000,,,,,,,,,,,,,,,,,,,,,,,,,,,,,,,,,,,,,,,,,,,,,,,,,,,,,,,,,,,,,,,,,,,,,,,,,,,,,,,,,,,,,,,,,,,,,,,,,,,,,,,,,,,,,,,,,,,,,,,,,,,,,,,,,
1739354625.973356,1739354625.974039,103.000000,0.000000,4278.846191,4258.333496,4325.384766,4336.410156,4248.846191,4235.512695,4218.333496,4261.794922,4233.333496,4165.641113,4664.615234,4456.922852,4442.051270,4517.307617,5505.000000,1.000000,17.000000,,,,0.000000,4.000000,4.000000,4.000000,4.000000,4.000000,4.000000,4.000000,4.000000,4.000000,4.000000,4.000000,4.000000,4.000000,4.000000,100.000000,,,,,,,,,,,,,,,,,,,,,,,,,,,,,,,,,,,,,,,,,,,,,,,,,,,,,,,,,,,,,,,,,,,,,,,,,,,,,,,,,,,,,,,,,,,,,,,,,,,,,,,,,,,,,,,,,,,,,,,,,,,,,,,,,
1739354625.981164,1739354625.981848,104.000000,0.000000,4310.512695,4287.307617,4347.820313,4361.538574,4274.358887,4258.205078,4243.461426,4276.153809,4258.589844,4192.692383,4690.128418,4484.615234,4461.282227,4541.025879,5587.000000,1.000000,17.000000,,,,0.000000,4.000000,4.000000,4.000000,4.000000,4.000000,4.000000,4.000000,4.000000,4.000000,4.000000,4.000000,4.000000,4.000000,4.000000,100.000000,,,,,,,,,,,,,,,,,26.000000,0.000000,0.401097,0.444336,-0.525269,0.604797,0.963497,-0.267611,0.052741,-38.889988,-29.879807,44.619869,,,,,,,,,,,,,,,,,,,,,,,,,,,,,,,,,,,,,,,,,,,,,,,,,,,,,,,,,,,,,,,,,,,,,,,,,,,,,,,,,,,,,,,,,,,,,,,,,,,,,
1739354625.988973,1739354625.989756,105.000000,0.000000,4320.641113,4296.153809,4353.077148,4369.871582,4282.692383,4266.538574,4251.922852,4274.615234,4261.153809,4200.769043,4699.487305,4489.102539,4470.769043,4550.256348,6588.000000,1.000000,17.000000,,,,0.000000,4.000000,4.000000,4.000000,4.000000,4.000000,4.000000,4.000000,4.000000,4.000000,4.000000,4.000000,4.000000,4.000000,4.000000,100.000000,,,,,,,,,,,,,,,,,,,,,,,,,,,,,,,,,,,,,,,,,,,,,,,,,,,,,,,,,,,,,,,,,,,,,,,,,,,,,,,,,,,,,,,,,,,,,,,,,,,,,,,,,,,,,,,,,,,,,,,,,,,,,,,,,
1739354625.996781,1739354625.997564,106.000000,0.000000,4312.307617,4286.153809,4350.000000,4366.922852,4276.666504,4261.666504,4245.000000,4266.025879,4253.846191,4199.743652,4695.512695,4480.256348,4469.743652,4546.153809,5058.000000,1.000000,17.000000,,,,0.000000,4.000000,4.000000,4.000000,4.000000,4.000000,4.000000,4.000000,4.000000,4.000000,4.000000,4.000000,4.000000,4.000000,4.000000,100.000000,,,,,,,,,,,,,,,,,,,,,,,,,,,,,,,,,,,,,,,,,,,,,,,,,,,,,,,,,,,,1.294916,2.010021,0.676823,1.689274,1.356006,0.814105,1.526195,0.289305,1.788085,1.371167,0.847942,2.277591,0.446588,1.621889,1.034216,0.540613,1.529382,0.513604,1.740012,1.266813,0.286566,0.754517,0.327890,1.337760,0.855608,0.683054,1.288014,0.549804,1.408876,0.922545,0.936173,4.476615,1.444762,1.447134,0.951378,2.471148,3.237138,0.392795,0.641508,0.326616,2.053324,4.323901,1.636982,1.789090,1.013327,1.584509,1.625415,1.566998,2.164463,1.311838,2.234202,3.409648,0.890591,1.698236,1.395344,2.559131,3.659805,0.949572,2.528730,1.546952,0.996113,1.017736,0.405030,1.359832,1.271356,1.412688,1.677255,0.734763,1.694432,1.223491
1739354626.004589,1739354626.005472,107.000000,0.000000,4321.538574,4291.410156,4358.205078,4375.384766,4283.974121,4267.179688,4251.282227,4271.922852,4258.974121,4206.538574,4702.563965,4490.641113,4473.461426,4552.051270,5505.000000,1.000000,17.000000,,,,0.000000,4.000000,4.000000,4.000000,4.000000,4.000000,4.000000,4.000000,4.000000,4.000000,4.000000,4.000000,4.000000,4.000000,4.000000,100.000000,,,,,,,,,,,,,,,,,,,,,,,,,,,,,,,,,,,,,,,,,,,,,,,,,,,,,,,,,,,,,,,,,,,,,,,,,,,,,,,,,,,,,,,,,,,,,,,,,,,,,,,,,,,,,,,,,,,,,,,,,,,,,,,,,
1739354626.012397,1739354626.013280,108.000000,0.000000,4314.102539,4283.717773,4346.794922,4368.974121,4279.358887,4260.512695,4247.436035,4271.666504,4248.333496,4190.897461,4693.589844,4479.871582,4460.769043,4542.948730,5587.000000,1.000000,17.000000,,,,0.000000,4.000000,4.000000,4.000000,4.000000,4.000000,4.000000,4.000000,4.000000,4.000000,4.000000,4.000000,4.000000,4.000000,4.000000,100.000000,,,,,,,,,,,,,,,,,27.000000,0.000000,0.401361,0.443848,-0.525269,0.604980,0.957148,-0.277866,0.055671,-39.017654,-29.775160,44.541218,,,,,,,,,,,,,,,,,,,,,,,,,,,,,,,,,,,,,,,,,,,,,,,,,,,,,,,,,,,,,,,,,,,,,,,,,,,,,,,,,,,,,,,,,,,,,,,,,,,,,
1739354626.020205,1739354626.021188,109.000000,0.000000,4295.256348,4270.384766,4330.128418,4355.128418,4266.666504,4250.641113,4236.282227,4266.153809,4236.410156,4168.333496,4675.384766,4454.743652,4442.179688,4525.384766,6588.000000,1.000000,17.000000,,,,0.000000,4.000000,4.000000,4.000000,4.000000,4.000000,4.000000,4.000000,4.000000,4.000000,4.000000,4.000000,4.000000,4.000000,4.000000,100.000000,,,,,,,,,,,,,,,,,,,,,,,,,,,,,,,,,,,,,,,,,,,,,,,,,,,,,,,,,,,,,,,,,,,,,,,,,,,,,,,,,,,,,,,,,,,,,,,,,,,,,,,,,,,,,,,,,,,,,,,,,,,,,,,,,
1739354626.028013,1739354626.028996,110.000000,0.000000,4320.641113,4296.410156,4352.820313,4379.358887,4285.769043,4274.743652,4262.692383,4279.358887,4264.743652,4190.641113,4696.153809,4477.948730,4466.794922,4548.974121,5058.000000,1.000000,17.000000,,,,0.000000,4.000000,4.000000,4.000000,4.000000,4.000000,4.000000,4.000000,4.000000,4.000000,4.000000,4.000000,4.000000,4.000000,4.000000,100.000000,,,,,,,,,,,,,,,,,,,,,,,,,,,,,,,,,,,,,,,,,,,,,,,,,,,,,,,,,,,,,,,,,,,,,,,,,,,,,,,,,,,,,,,,,,,,,,,,,,,,,,,,,,,,,,,,,,,,,,,,,,,,,,,,,
1739354626.035821,1739354626.036903,111.000000,0.000000,4347.948730,4322.692383,4372.692383,4405.000000,4304.102539,4294.230957,4289.615234,4288.974121,4290.000000,4220.512695,4719.358887,4506.025879,4500.641113,4572.436035,5505.000000,1.000000,17.000000,,,,0.000000,4.000000,4.000000,4.000000,4.000000,4.000000,4.000000,4.000000,4.000000,4.000000,4.000000,4.000000,4.000000,4.000000,4.000000,100.000000,,,,,,,,,,,,,,,,,,,,,,,,,,,,,,,,,,,,,,,,,,,,,,,,,,,,,,,,,,,,,,,,,,,,,,,,,,,,,,,,,,,,,,,,,,,,,,,,,,,,,,,,,,,,,,,,,,,,,,,,,,,,,,,,,
1739354626.043629,1739354626.044711,112.000000,0.000000,4334.102539,4311.410156,4357.948730,4394.743652,4295.512695,4281.025879,4276.410156,4282.948730,4278.974121,4213.846191,4707.051270,4488.333496,4489.615234,4553.333496,5587.000000,1.000000,17.000000,,,,0.000000,4.000000,4.000000,4.000000,4.000000,4.000000,4.000000,4.000000,4.000000,4.000000,4.000000,4.000000,4.000000,4.000000,4.000000,100.000000,,,,,,,,,,,,,,,,,28.000000,0.000000,0.401599,0.443176,-0.525513,0.605103,0.961055,-0.275424,0.045416,-39.065887,-29.697643,44.670429,,,,,,,,,,,,,,,,,,,,,,,,,,,,,,,,,,,,,,,,,,,,,,,,,,,,,,,,,,,,,,,,,,,,,,,,,,,,,,,,,,,,,,,,,,,,,,,,,,,,,
1739354626.051437,1739354626.052419,113.000000,0.000000,4326.153809,4300.384766,4349.487305,4387.563965,4289.615234,4275.897461,4265.512695,4280.512695,4279.743652,4212.563965,4698.461426,4472.692383,4472.948730,4543.974121,6588.000000,1.000000,17.000000,,,,0.000000,4.000000,4.000000,4.000000,4.000000,4.000000,4.000000,4.000000,4.000000,4.000000,4.000000,4.000000,4.000000,4.000000,4.000000,100.000000,,,,,,,,,,,,,,,,,,,,,,,,,,,,,,,,,,,,,,,,,,,,,,,,,,,,,,,,,,,,,,,,,,,,,,,,,,,,,,,,,,,,,,,,,,,,,,,,,,,,,,,,,,,,,,,,,,,,,,,,,,,,,,,,,
1739354626.059245,1739354626.060227,114.000000,0.000000,4322.692383,4293.589844,4343.333496,4385.000000,4282.051270,4275.384766,4257.692383,4273.846191,4282.563965,4212.307617,4693.589844,4462.436035,4473.333496,4543.205078,5058.000000,1.000000,17.000000,,,,0.000000,4.000000,4.000000,4.000000,4.000000,4.000000,4.000000,4.000000,4.000000,4.000000,4.000000,4.000000,4.000000,4.000000,4.000000,100.000000,,,,,,,,,,,,,,,,,,,,,,,,,,,,,,,,,,,,,,,,,,,,,,,,,,,,,,,,,,,,,,,,,,,,,,,,,,,,,,,,,,,,,,,,,,,,,,,,,,,,,,,,,,,,,,,,,,,,,,,,,,,,,,,,,
1739354626.067053,1739354626.067936,115.000000,0.000000,4322.563965,4298.205078,4340.128418,4388.589844,4284.102539,4274.487305,4250.769043,4271.025879,4277.051270,4205.256348,4692.820313,4458.333496,4475.256348,4540.641113,5505.000000,1.000000,17.000000,,,,0.000000,4.000000,4.000000,4.000000,4.000000,4.000000,4.000000,4.000000,4.000000,4.000000,4.000000,4.000000,4.000000,4.000000,4.000000,100.000000,,,,,,,,,,,,,,,,,,,,,,,,,,,,,,,,,,,,,,,,,,,,,,,,,,,,,,,,,,,,,,,,,,,,,,,,,,,,,,,,,,,,,,,,,,,,,,,,,,,,,,,,,,,,,,,,,,,,,,,,,,,,,,,,,
1739354626.074861,1739354626.075743,116.000000,0.000000,4342.436035,4314.743652,4352.179688,4405.128418,4302.948730,4287.179688,4261.153809,4278.717773,4281.538574,4209.487305,4702.307617,4469.743652,4474.487305,4551.410156,5587.000000,1.000000,17.000000,,,,0.000000,4.000000,4.000000,4.000000,4.000000,4.000000,4.000000,4.000000,4.000000,4.000000,4.000000,4.000000,4.000000,4.000000,4.000000,100.000000,,,,,,,,,,,,,,,,,29.000000,0.000000,0.402204,0.442505,-0.525757,0.604980,0.955195,-0.284703,0.053717,-38.909302,-29.777880,44.836720,,,,,,,,,,,,,,,,,,,,,,,,,,,,,,,,,,,,,,,,,,,,,,,,,,,,,,,,,,,,,,,,,,,,,,,,,,,,,,,,,,,,,,,,,,,,,,,,,,,,,
1739354626.082669,1739354626.083452,117.000000,0.000000,4357.820313,4313.589844,4359.102539,4413.589844,4306.666504,4293.333496,4271.153809,4279.615234,4285.641113,4216.666504,4711.282227,4478.461426,4481.410156,4561.282227,6588.000000,1.000000,17.000000,,,,0.000000,4.000000,4.000000,4.000000,4.000000,4.000000,4.000000,4.000000,4.000000,4.000000,4.000000,4.000000,4.000000,4.000000,4.000000,100.000000,,,,,,,,,,,,,,,,,,,,,,,,,,,,,,,,,,,,,,,,,,,,,,,,,,,,,,,,,,,,,,,,,,,,,,,,,,,,,,,,,,,,,,,,,,,,,,,,,,,,,,,,,,,,,,,,,,,,,,,,,,,,,,,,,
1739354626.090478,1739354626.091260,118.000000,0.000000,4367.307617,4315.128418,4366.410156,4419.743652,4310.769043,4299.743652,4279.358887,4283.077148,4297.692383,4230.897461,4729.615234,4491.025879,4502.820313,4571.538574,5058.000000,1.000000,17.000000,,,,0.000000,4.000000,4.000000,4.000000,4.000000,4.000000,4.000000,4.000000,4.000000,4.000000,4.000000,4.000000,4.000000,4.000000,4.000000,100.000000,,,,,,,,,,,,,,,,,,,,,,,,,,,,,,,,,,,,,,,,,,,,,,,,,,,,,,,,,,,,,,,,,,,,,,,,,,,,,,,,,,,,,,,,,,,,,,,,,,,,,,,,,,,,,,,,,,,,,,,,,,,,,,,,,
1739354626.098286,1739354626.098968,119.000000,0.000000,4366.153809,4316.538574,4366.025879,4419.871582,4313.077148,4301.410156,4283.717773,4285.769043,4303.974121,4237.436035,4733.846191,4488.974121,4502.307617,4571.922852,5505.000000,1.000000,17.000000,,,,0.000000,4.000000,4.000000,4.000000,4.000000,4.000000,4.000000,4.000000,4.000000,4.000000,4.000000,4.000000,4.000000,4.000000,4.000000,100.000000,,,,,,,,,,,,,,,,,,,,,,,,,,,,,,,,,,,,,,,,,,,,,,,,,,,,,,,,,,,,,,,,,,,,,,,,,,,,,,,,,,,,,,,,,,,,,,,,,,,,,,,,,,,,,,,,,,,,,,,,,,,,,,,,,
1739354626.106094,1739354626.106776,120.000000,0.000000,4353.974121,4301.282227,4349.358887,4408.461426,4294.230957,4284.871582,4273.205078,4276.025879,4292.179688,4223.461426,4713.461426,4464.230957,4482.179688,4556.794922,5587.000000,1.000000,17.000000,,,,0.000000,4.000000,4.000000,4.000000,4.000000,4.000000,4.000000,4.000000,4.000000,4.000000,4.000000,4.000000,4.000000,4.000000,4.000000,100.000000,,,,,,,,,,,,,,,,,30.000000,0.000000,0.402484,0.442261,-0.525818,0.604919,0.958125,-0.268587,0.076181,-39.051704,-29.700092,45.019714,,,,,,,,,,,,,,,,,,,,,,,,,,,,,,,,,,,,,,,,,,,,,,,,,,,,,,,,,,,,,,,,,,,,,,,,,,,,,,,,,,,,,,,,,,,,,,,,,,,,,
1739354626.113902,1739354626.114484,121.000000,0.000000,4380.128418,4316.282227,4364.743652,4426.410156,4304.743652,4296.410156,4287.436035,4280.769043,4304.743652,4235.384766,4729.102539,4482.948730,4503.846191,4571.922852,6588.000000,1.000000,17.000000,,,,0.000000,4.000000,4.000000,4.000000,4.000000,4.000000,4.000000,4.000000,4.000000,4.000000,4.000000,4.000000,4.000000,4.000000,4.000000,100.000000,,,,,,,,,,,,,,,,,,,,,,,,,,,,,,,,,,,,,,,,,,,,,,,,,,,,,,,,,,,,,,,,,,,,,,,,,,,,,,,,,,,,,,,,,,,,,,,,,,,,,,,,,,,,,,,,,,,,,,,,,,,,,,,,,
1739354626.121710,1739354626.122292,122.000000,0.000000,4420.769043,4350.512695,4398.077148,4459.615234,4335.256348,4325.000000,4320.512695,4295.512695,4332.179688,4266.538574,4766.025879,4521.410156,4536.282227,4601.282227,5058.000000,1.000000,17.000000,,,,0.000000,4.000000,4.000000,4.000000,4.000000,4.000000,4.000000,4.000000,4.000000,4.000000,4.000000,4.000000,4.000000,4.000000,4.000000,100.000000,,,,,,,,,,,,,,,,,,,,,,,,,,,,,,,,,,,,,,,,,,,,,,,,,,,,,,,,,,,,1.475840,2.585581,0.792578,1.746832,1.458412,1.067900,2.085214,0.373009,1.705589,1.445552,1.012003,2.726671,0.520413,1.582658,1.117701,0.589038,2.059355,0.527211,1.688658,1.337221,0.437754,0.849874,0.355361,1.190141,0.913668,0.731105,1.404833,0.589142,1.246604,0.980770,1.189941,5.535323,1.461509,1.309440,1.014343,2.664693,3.306688,0.402503,0.611592,0.333962,2.051214,4.687529,1.803562,1.692671,1.021937,1.916403,2.062803,1.885653,2.118495,1.343819,2.003690,3.126136,0.896915,1.619345,1.421576,3.112748,4.545333,1.115251,2.479387,1.619463,1.078793,1.206367,0.634257,1.364077,1.363540,1.812224,2.022227,0.866573,1.721998,1.292146
1739354626.129518,1739354626.130000,123.000000,0.000000,4424.743652,4359.102539,4400.384766,4471.282227,4332.436035,4325.256348,4321.666504,4296.410156,4335.897461,4268.461426,4765.384766,4515.769043,4528.461426,4600.641113,5505.000000,1.000000,17.000000,,,,0.000000,4.000000,4.000000,4.000000,4.000000,4.000000,4.000000,4.000000,4.000000,4.000000,4.000000,4.000000,4.000000,4.000000,4.000000,100.000000,,,,,,,,,,,,,,,,,,,,,,,,,,,,,,,,,,,,,,,,,,,,,,,,,,,,,,,,,,,,,,,,,,,,,,,,,,,,,,,,,,,,,,,,,,,,,,,,,,,,,,,,,,,,,,,,,,,,,,,,,,,,,,,,,
1739354626.137326,1739354626.137808,124.000000,0.000000,4429.487305,4362.307617,4398.846191,4478.205078,4326.666504,4321.153809,4313.333496,4296.794922,4338.461426,4265.000000,4762.051270,4512.563965,4523.077148,4601.282227,5587.000000,1.000000,17.000000,,,,0.000000,4.000000,4.000000,4.000000,4.000000,4.000000,4.000000,4.000000,4.000000,4.000000,4.000000,4.000000,4.000000,4.000000,4.000000,100.000000,,,,,,,,,,,,,,,,,31.000000,0.000000,0.403011,0.441406,-0.526062,0.604980,0.966427,-0.276889,0.060554,-39.013199,-29.763416,44.851074,,,,,,,,,,,,,,,,,,,,,,,,,,,,,,,,,,,,,,,,,,,,,,,,,,,,,,,,,,,,,,,,,,,,,,,,,,,,,,,,,,,,,,,,,,,,,,,,,,,,,
1739354626.145134,1739354626.145516,125.000000,0.000000,4432.948730,4360.897461,4395.128418,4472.692383,4327.307617,4316.410156,4306.025879,4293.717773,4334.743652,4257.436035,4762.948730,4511.666504,4523.717773,4600.897461,6588.000000,1.000000,17.000000,,,,0.000000,4.000000,4.000000,4.000000,4.000000,4.000000,4.000000,4.000000,4.000000,4.000000,4.000000,4.000000,4.000000,4.000000,4.000000,100.000000,,,,,,,,,,,,,,,,,,,,,,,,,,,,,,,,,,,,,,,,,,,,,,,,,,,,,,,,,,,,,,,,,,,,,,,,,,,,,,,,,,,,,,,,,,,,,,,,,,,,,,,,,,,,,,,,,,,,,,,,,,,,,,,,,
1739354626.152942,1739354626.153424,126.000000,0.000000,4416.538574,4347.307617,4374.615234,4467.179688,4315.256348,4301.025879,4287.436035,4280.512695,4311.282227,4233.717773,4743.461426,4482.820313,4506.922852,4581.666504,5058.000000,1.000000,17.000000,,,,0.000000,4.000000,4.000000,4.000000,4.000000,4.000000,4.000000,4.000000,4.000000,4.000000,4.000000,4.000000,4.000000,4.000000,4.000000,100.000000,,,,,,,,,,,,,,,,,,,,,,,,,,,,,,,,,,,,,,,,,,,,,,,,,,,,,,,,,,,,,,,,,,,,,,,,,,,,,,,,,,,,,,,,,,,,,,,,,,,,,,,,,,,,,,,,,,,,,,,,,,,,,,,,,
1739354626.160750,1739354626.161232,127.000000,0.000000,4428.077148,4362.948730,4387.436035,4508.461426,4326.410156,4316.410156,4298.333496,4285.897461,4322.563965,4243.333496,4748.205078,4487.692383,4516.282227,4592.179688,17.000000,1.000000,17.000000,,,,0.000000,4.000000,4.000000,4.000000,4.000000,4.000000,4.000000,4.000000,4.000000,4.000000,4.000000,4.000000,4.000000,4.000000,4.000000,100.000000,,,,,,,,,,,,,,,,,,,,,,,,,,,,,,,,,,,,,,,,,,,,,,,,,,,,,,,,,,,,,,,,,,,,,,,,,,,,,,,,,,,,,,,,,,,,,,,,,,,,,,,,,,,,,,,,,,,,,,,,,,,,,,,,,
1739354626.168558,1739354626.169140,0.000000,0.000000,4454.230957,4387.307617,4416.666504,4546.538574,4350.897461,4341.410156,4325.512695,4300.897461,4357.692383,4276.282227,4774.615234,4519.615234,4541.025879,4617.948730,5073.000000,1.000000,17.000000,,,,0.000000,4.000000,4.000000,4.000000,4.000000,4.000000,4.000000,4.000000,4.000000,4.000000,4.000000,4.000000,4.000000,4.000000,4.000000,100.000000,,,,,,,,,,,,,,,,,0.000000,0.000000,0.403488,0.440857,-0.526367,0.604797,0.960078,-0.276401,0.054694,-38.895214,-29.770407,44.782635,,,,,,,,,,,,,,,,,,,,,,,,,,,,,,,,,,,,,,,,,,,,,,,,,,,,,,,,,,,,,,,,,,,,,,,,,,,,,,,,,,,,,,,,,,,,,,,,,,,,,
1739354626.176366,1739354626.176948,1.000000,0.000000,4446.794922,4375.384766,4409.615234,4531.153809,4344.615234,4330.512695,4321.282227,4301.538574,4360.641113,4278.589844,4773.589844,4514.230957,4529.358887,4609.358887,5427.000000,1.000000,17.000000,,,,0.000000,4.000000,4.000000,4.000000,4.000000,4.000000,4.000000,4.000000,4.000000,4.000000,4.000000,4.000000,4.000000,4.000000,4.000000,100.000000,,,,,,,,,,,,,,,,,,,,,,,,,,,,,,,,,,,,,,,,,,,,,,,,,,,,,,,,,,,,,,,,,,,,,,,,,,,,,,,,,,,,,,,,,,,,,,,,,,,,,,,,,,,,,,,,,,,,,,,,,,,,,,,,,
1739354626.184174,1739354626.184856,2.000000,0.000000,4441.153809,4365.769043,4405.000000,4520.769043,4338.717773,4327.948730,4320.000000,4304.487305,4359.230957,4277.051270,4773.589844,4511.025879,4524.358887,4605.128418,5445.000000,1.000000,17.000000,,,,0.000000,4.000000,4.000000,4.000000,4.000000,4.000000,4.000000,4.000000,4.000000,4.000000,4.000000,4.000000,4.000000,4.000000,4.000000,100.000000,,,,,,,,,,,,,,,,,,,,,,,,,,,,,,,,,,,,,,,,,,,,,,,,,,,,,,,,,,,,,,,,,,,,,,,,,,,,,,,,,,,,,,,,,,,,,,,,,,,,,,,,,,,,,,,,,,,,,,,,,,,,,,,,,
1739354626.191983,1739354626.192665,3.000000,0.000000,4449.615234,4370.769043,4415.128418,4530.641113,4345.128418,4342.179688,4333.205078,4306.025879,4366.153809,4284.743652,4785.769043,4523.974121,4544.487305,4615.384766,5362.000000,1.000000,17.000000,,,,0.000000,4.000000,4.000000,4.000000,4.000000,4.000000,4.000000,4.000000,4.000000,4.000000,4.000000,4.000000,4.000000,4.000000,4.000000,100.000000,,,,,,,,,,,,,,,,,,,,,,,,,,,,,,,,,,,,,,,,,,,,,,,,,,,,,,,,,,,,,,,,,,,,,,,,,,,,,,,,,,,,,,,,,,,,,,,,,,,,,,,,,,,,,,,,,,,,,,,,,,,,,,,,,
1739354626.199791,1739354626.200573,4.000000,0.000000,4440.897461,4364.743652,4404.743652,4528.205078,4338.333496,4338.589844,4327.948730,4300.000000,4356.025879,4275.769043,4778.205078,4509.871582,4541.538574,4607.948730,5364.000000,1.000000,17.000000,,,,0.000000,4.000000,4.000000,4.000000,4.000000,4.000000,4.000000,4.000000,4.000000,4.000000,4.000000,4.000000,4.000000,4.000000,4.000000,100.000000,,,,,,,,,,,,,,,,,1.000000,0.000000,0.403899,0.440430,-0.526550,0.604675,0.972287,-0.267611,0.055183,-38.972359,-29.710033,44.854370,,,,,,,,,,,,,,,,,,,,,,,,,,,,,,,,,,,,,,,,,,,,,,,,,,,,,,,,,,,,,,,,,,,,,,,,,,,,,,,,,,,,,,,,,,,,,,,,,,,,,
1739354626.207599,1739354626.208381,5.000000,0.000000,4438.974121,4366.538574,4403.974121,4526.794922,4340.512695,4337.948730,4326.282227,4305.769043,4360.897461,4278.717773,4778.846191,4507.307617,4538.846191,4611.666504,5402.000000,1.000000,17.000000,,,,0.000000,4.000000,4.000000,4.000000,4.000000,4.000000,4.000000,4.000000,4.000000,4.000000,4.000000,4.000000,4.000000,4.000000,4.000000,100.000000,,,,,,,,,,,,,,,,,,,,,,,,,,,,,,,,,,,,,,,,,,,,,,,,,,,,,,,,,,,,,,,,,,,,,,,,,,,,,,,,,,,,,,,,,,,,,,,,,,,,,,,,,,,,,,,,,,,,,,,,,,,,,,,,,
1739354626.215407,1739354626.216288,6.000000,0.000000,4433.333496,4362.563965,4406.666504,4515.769043,4338.717773,4332.307617,4318.717773,4304.358887,4367.051270,4284.102539,4780.641113,4507.307617,4539.743652,4616.794922,5357.000000,1.000000,17.000000,,,,0.000000,4.000000,4.000000,4.000000,4.000000,4.000000,4.000000,4.000000,4.000000,4.000000,4.000000,4.000000,4.000000,4.000000,4.000000,100.000000,,,,,,,,,,,,,,,,,,,,,,,,,,,,,,,,,,,,,,,,,,,,,,,,,,,,,,,,,,,,,,,,,,,,,,,,,,,,,,,,,,,,,,,,,,,,,,,,,,,,,,,,,,,,,,,,,,,,,,,,,,,,,,,,,
1739354626.223215,1739354626.224096,7.000000,0.000000,4414.102539,4342.948730,4390.128418,4498.461426,4317.051270,4311.282227,4295.128418,4290.512695,4347.563965,4265.641113,4764.615234,4484.743652,4527.563965,4602.820313,2528.000000,1.000000,17.000000,,,,0.000000,4.000000,4.000000,4.000000,4.000000,4.000000,4.000000,4.000000,4.000000,4.000000,4.000000,4.000000,4.000000,4.000000,4.000000,100.000000,,,,,,,,,,,,,,,,,,,,,,,,,,,,,,,,,,,,,,,,,,,,,,,,,,,,,,,,,,,,,,,,,,,,,,,,,,,,,,,,,,,,,,,,,,,,,,,,,,,,,,,,,,,,,,,,,,,,,,,,,,,,,,,,,
1739354626.231023,1739354626.231804,8.000000,0.000000,4419.615234,4346.538574,4394.102539,4506.282227,4315.512695,4313.461426,4298.717773,4293.461426,4345.512695,4259.358887,4763.077148,4484.615234,4530.512695,4602.307617,5146.000000,1.000000,17.000000,,,,0.000000,4.000000,4.000000,4.000000,4.000000,4.000000,4.000000,4.000000,4.000000,4.000000,4.000000,4.000000,4.000000,4.000000,4.000000,100.000000,,,,,,,,,,,,,,,,,2.000000,0.000000,0.404020,0.440308,-0.526489,0.604736,0.964473,-0.257844,0.074228,-38.941788,-29.722363,44.985600,,,,,,,,,,,,,,,,,,,,,,,,,,,,,,,,,,,,,,,,,,,,,,,,,,,,,,,,,,,,,,,,,,,,,,,,,,,,,,,,,,,,,,,,,,,,,,,,,,,,,
1739354626.238831,1739354626.239612,9.000000,0.000000,4438.333496,4364.871582,4414.358887,4518.077148,4335.641113,4333.846191,4320.000000,4304.358887,4360.641113,4269.871582,4772.179688,4505.000000,4540.897461,4616.410156,5489.000000,1.000000,17.000000,,,,0.000000,4.000000,4.000000,4.000000,4.000000,4.000000,4.000000,4.000000,4.000000,4.000000,4.000000,4.000000,4.000000,4.000000,4.000000,100.000000,,,,,,,,,,,,,,,,,,,,,,,,,,,,,,,,,,,,,,,,,,,,,,,,,,,,,,,,,,,,,,,,,,,,,,,,,,,,,,,,,,,,,,,,,,,,,,,,,,,,,,,,,,,,,,,,,,,,,,,,,,,,,,,,,
1739354626.246639,1739354626.247320,10.000000,0.000000,4428.461426,4352.436035,4405.128418,4499.615234,4330.512695,4327.563965,4312.179688,4301.025879,4351.922852,4259.102539,4760.641113,4495.897461,4525.512695,4607.948730,4959.000000,1.000000,17.000000,,,,0.000000,4.000000,4.000000,4.000000,4.000000,4.000000,4.000000,4.000000,4.000000,4.000000,4.000000,4.000000,4.000000,4.000000,4.000000,100.000000,1.000000,41.666668,3.000000,4.000000,3.000000,3.000000,4.000000,4.000000,3.000000,4.000000,4.000000,1.000000,3.000000,1.000000,4.000000,3.000000,,,,,,,,,,,,,,,,,,,,,,,,,,,,,,,,,,,,,,,,,,,,1.658637,3.144134,0.901072,1.767971,1.548273,1.322073,2.656518,0.499876,1.577625,1.501483,1.177313,3.055183,0.578556,1.506364,1.193573,0.762572,2.556744,0.531643,1.578733,1.396860,0.666529,0.959097,0.380392,1.001607,0.972140,0.764305,1.439039,0.638876,1.045446,1.024652,1.406778,6.167302,1.390337,1.142395,1.070072,2.600103,3.014235,0.404547,0.533891,0.336725,1.972004,4.852519,1.846145,1.548391,1.021187,2.413947,2.736981,2.123636,2.023241,1.356748,1.882249,2.943989,0.885974,1.526265,1.439695,3.638838,5.239738,1.256717,2.386711,1.683502,1.207085,1.487283,0.905889,1.324241,1.436480,2.166444,2.349314,0.995475,1.710097,1.363644
1739354626.254447,1739354626.255128,11.000000,0.000000,4405.384766,4328.717773,4384.358887,4477.563965,4308.717773,4309.102539,4296.538574,4297.436035,4335.256348,4239.743652,4745.769043,4472.563965,4509.102539,4587.820313,5407.000000,1.000000,17.000000,,,,0.000000,4.000000,4.000000,4.000000,4.000000,4.000000,4.000000,4.000000,4.000000,4.000000,4.000000,4.000000,4.000000,4.000000,4.000000,100.000000,,,,,,,,,,,,,,,,,,,,,,,,,,,,,,,,,,,,,,,,,,,,,,,,,,,,,,,,,,,,,,,,,,,,,,,,,,,,,,,,,,,,,,,,,,,,,,,,,,,,,,,,,,,,,,,,,,,,,,,,,,,,,,,,,
1739354626.262255,1739354626.262837,12.000000,0.000000,4398.717773,4327.436035,4379.358887,4474.358887,4302.051270,4306.794922,4295.641113,4296.794922,4332.948730,4234.487305,4741.538574,4465.256348,4510.128418,4581.666504,5495.000000,1.000000,17.000000,,,,0.000000,4.000000,4.000000,4.000000,4.000000,4.000000,4.000000,4.000000,4.000000,4.000000,4.000000,4.000000,4.000000,4.000000,4.000000,100.000000,,,,,,,,,,,,,,,,,3.000000,0.000000,0.403684,0.440186,-0.526428,0.605103,0.955683,-0.270541,0.051276,-39.047611,-29.566793,44.987041,,,,,,,,,,,,,,,,,,,,,,,,,,,,,,,,,,,,,,,,,,,,,,,,,,,,,,,,,,,,,,,,,,,,,,,,,,,,,,,,,,,,,,,,,,,,,,,,,,,,,
1739354626.270063,1739354626.270644,13.000000,0.000000,4386.282227,4318.461426,4368.461426,4458.461426,4290.512695,4294.615234,4279.871582,4286.410156,4318.461426,4213.717773,4721.794922,4446.282227,4493.589844,4567.436035,6513.000000,1.000000,17.000000,,,,0.000000,4.000000,4.000000,4.000000,4.000000,4.000000,4.000000,4.000000,4.000000,4.000000,4.000000,4.000000,4.000000,4.000000,4.000000,100.000000,,,,,,,,,,,,,,,,,,,,,,,,,,,,,,,,,,,,,,,,,,,,,,,,,,,,,,,,,,,,,,,,,,,,,,,,,,,,,,,,,,,,,,,,,,,,,,,,,,,,,,,,,,,,,,,,,,,,,,,,,,,,,,,,,
1739354626.277871,1739354626.278353,14.000000,0.000000,4377.692383,4308.717773,4363.846191,4446.538574,4283.205078,4286.922852,4270.641113,4284.487305,4307.948730,4195.384766,4709.615234,4434.358887,4478.589844,4559.871582,4959.000000,1.000000,17.000000,,,,0.000000,4.000000,4.000000,4.000000,4.000000,4.000000,4.000000,4.000000,4.000000,4.000000,4.000000,4.000000,4.000000,4.000000,4.000000,100.000000,,,,,,,,,,,,,,,,,,,,,,,,,,,,,,,,,,,,,,,,,,,,,,,,,,,,,,,,,,,,,,,,,,,,,,,,,,,,,,,,,,,,,,,,,,,,,,,,,,,,,,,,,,,,,,,,,,,,,,,,,,,,,,,,,
1739354626.285679,1739354626.286161,15.000000,0.000000,4388.461426,4321.410156,4378.589844,4458.205078,4295.000000,4304.615234,4291.282227,4297.307617,4323.717773,4209.487305,4725.128418,4453.333496,4490.256348,4578.461426,5407.000000,1.000000,17.000000,,,,0.000000,4.000000,4.000000,4.000000,4.000000,4.000000,4.000000,4.000000,4.000000,4.000000,4.000000,4.000000,4.000000,4.000000,4.000000,100.000000,,,,,,,,,,,,,,,,,,,,,,,,,,,,,,,,,,,,,,,,,,,,,,,,,,,,,,,,,,,,,,,,,,,,,,,,,,,,,,,,,,,,,,,,,,,,,,,,,,,,,,,,,,,,,,,,,,,,,,,,,,,,,,,,,
1739354626.293488,1739354626.293869,16.000000,0.000000,4380.769043,4321.025879,4373.333496,4449.230957,4294.615234,4306.282227,4289.230957,4294.871582,4322.436035,4208.077148,4720.384766,4448.205078,4484.615234,4577.820313,0.000000,1.000000,17.000000,,,,0.000000,4.000000,4.000000,4.000000,4.000000,4.000000,4.000000,4.000000,4.000000,4.000000,4.000000,4.000000,4.000000,4.000000,4.000000,100.000000,,,,,,,,,,,,,,,,,4.000000,0.000000,0.403196,0.440247,-0.526611,0.605225,0.952265,-0.280308,0.041021,-39.092850,-29.643448,45.021671,,,,,,,,,,,,,,,,,,,,,,,,,,,,,,,,,,,,,,,,,,,,,,,,,,,,,,,,,,,,,,,,,,,,,,,,,,,,,,,,,,,,,,,,,,,,,,,,,,,,,
1739354626.301296,1739354626.301677,17.000000,0.000000,4363.974121,4308.717773,4357.051270,4426.025879,4287.051270,4289.871582,4265.128418,4282.051270,4303.333496,4186.282227,4699.487305,4423.589844,4467.948730,4555.128418,0.000000,1.000000,17.000000,,,,0.000000,4.000000,4.000000,4.000000,4.000000,4.000000,4.000000,4.000000,4.000000,4.000000,4.000000,4.000000,4.000000,4.000000,4.000000,100.000000,,,,,,,,,,,,,,,,,,,,,,,,,,,,,,,,,,,,,,,,,,,,,,,,,,,,,,,,,,,,,,,,,,,,,,,,,,,,,,,,,,,,,,,,,,,,,,,,,,,,,,,,,,,,,,,,,,,,,,,,,,,,,,,,,
1739354626.309104,1739354626.309385,18.000000,0.000000,4367.307617,4312.563965,4358.717773,4426.538574,4291.410156,4287.563965,4264.230957,4280.512695,4296.794922,4181.666504,4700.256348,4423.974121,4471.666504,4552.948730,0.000000,1.000000,17.000000,,,,0.000000,4.000000,4.000000,4.000000,4.000000,4.000000,4.000000,4.000000,4.000000,4.000000,4.000000,4.000000,4.000000,4.000000,4.000000,100.000000,,,,,,,,,,,,,,,,,,,,,,,,,,,,,,,,,,,,,,,,,,,,,,,,,,,,,,,,,,,,,,,,,,,,,,,,,,,,,,,,,,,,,,,,,,,,,,,,,,,,,,,,,,,,,,,,,,,,,,,,,,,,,,,,,
1739354626.316912,1739354626.317293,19.000000,0.000000,4360.897461,4306.025879,4354.487305,4422.436035,4279.743652,4281.794922,4262.307617,4276.666504,4286.025879,4174.358887,4696.153809,4418.717773,4465.512695,4554.487305,0.000000,1.000000,17.000000,,,,0.000000,4.000000,4.000000,4.000000,4.000000,4.000000,4.000000,4.000000,4.000000,4.000000,4.000000,4.000000,4.000000,4.000000,4.000000,100.000000,,,,,,,,,,,,,,,,,,,,,,,,,,,,,,,,,,,,,,,,,,,,,,,,,,,,,,,,,,,,,,,,,,,,,,,,,,,,,,,,,,,,,,,,,,,,,,,,,,,,,,,,,,,,,,,,,,,,,,,,,,,,,,,,,
1739354626.324720,1739354626.325101,20.000000,0.000000,4339.230957,4285.769043,4342.563965,4397.820313,4257.179688,4268.333496,4247.436035,4269.615234,4268.846191,4157.563965,4677.820313,4396.025879,4447.051270,4538.717773,0.000000,1.000000,17.000000,,,,0.000000,4.000000,4.000000,4.000000,4.000000,4.000000,4.000000,4.000000,4.000000,4.000000,4.000000,4.000000,4.000000,4.000000,4.000000,100.000000,,,,,,,,,,,,,,,,,5.000000,0.000000,0.402772,0.440186,-0.526917,0.605286,0.964473,-0.271029,0.068368,-39.116898,-29.595770,44.952835,,,,,,,,,,,,,,,,,,,,,,,,,,,,,,,,,,,,,,,,,,,,,,,,,,,,,,,,,,,,,,,,,,,,,,,,,,,,,,,,,,,,,,,,,,,,,,,,,,,,,
1739354626.332528,1739354626.333009,21.000000,0.000000,4346.666504,4292.948730,4354.102539,4393.077148,4266.153809,4278.974121,4258.077148,4280.000000,4276.282227,4166.282227,4687.563965,4407.307617,4461.025879,4547.051270,0.000000,1.000000,17.000000,,,,0.000000,4.000000,4.000000,4.000000,4.000000,4.000000,4.000000,4.000000,4.000000,4.000000,4.000000,4.000000,4.000000,4.000000,4.000000,100.000000,,,,,,,,,,,,,,,,,,,,,,,,,,,,,,,,,,,,,,,,,,,,,,,,,,,,,,,,,,,,,,,,,,,,,,,,,,,,,,,,,,,,,,,,,,,,,,,,,,,,,,,,,,,,,,,,,,,,,,,,,,,,,,,,,
1739354626.340336,1739354626.340817,22.000000,0.000000,4360.384766,4309.615234,4364.230957,4399.358887,4276.153809,4288.077148,4273.333496,4288.205078,4290.128418,4178.974121,4702.692383,4427.051270,4479.358887,4568.205078,0.000000,1.000000,17.000000,,,,0.000000,4.000000,4.000000,4.000000,4.000000,4.000000,4.000000,4.000000,4.000000,4.000000,4.000000,4.000000,4.000000,4.000000,4.000000,100.000000,,,,,,,,,,,,,,,,,,,,,,,,,,,,,,,,,,,,,,,,,,,,,,,,,,,,,,,,,,,,,,,,,,,,,,,,,,,,,,,,,,,,,,,,,,,,,,,,,,,,,,,,,,,,,,,,,,,,,,,,,,,,,,,,,
1739354626.348144,1739354626.348725,23.000000,0.000000,4327.692383,4282.051270,4335.512695,4371.666504,4247.563965,4263.717773,4247.563965,4273.974121,4266.153809,4151.153809,4671.538574,4389.487305,4449.871582,4543.205078,0.000000,1.000000,17.000000,,,,0.000000,4.000000,4.000000,4.000000,4.000000,4.000000,4.000000,4.000000,4.000000,4.000000,4.000000,4.000000,4.000000,4.000000,4.000000,100.000000,,,,,,,,,,,,,,,,,,,,,,,,,,,,,,,,,,,,,,,,,,,,,,,,,,,,,,,,,,,,,,,,,,,,,,,,,,,,,,,,,,,,,,,,,,,,,,,,,,,,,,,,,,,,,,,,,,,,,,,,,,,,,,,,,
