title:Yousef Rihani1739354691161, start timestamp:1739354692.584000, stop timestamp:1739354755.524912, headset type:EPOCX, headset serial:E50208A5, headset firmware:720, channels:168, sampling rate:eeg_128;mot_32;pm_0.1;pow_8, samples:8062      , version:2.2, 
Timestamp,OriginalTimestamp,EEG.Counter,EEG.Interpolated,EEG.AF3,EEG.F7,EEG.F3,EEG.FC5,EEG.T7,EEG.P7,EEG.O1,EEG.O2,EEG.P8,EEG.T8,EEG.FC6,EEG.F4,EEG.F8,EEG.AF4,EEG.RawCq,EEG.Battery,EEG.BatteryPercent,MarkerIndex,MarkerType,MarkerValueInt,EEG.MarkerHardware,CQ.AF3,CQ.F7,CQ.F3,CQ.FC5,CQ.T7,CQ.P7,CQ.O1,CQ.O2,CQ.P8,CQ.T8,CQ.FC6,CQ.F4,CQ.F8,CQ.AF4,CQ.Overall,EQ.SampleRateQuality,EQ.OVERALL,EQ.AF3,EQ.F7,EQ.F3,EQ.FC5,EQ.T7,EQ.P7,EQ.O1,EQ.O2,EQ.P8,EQ.T8,EQ.FC6,EQ.F4,EQ.F8,EQ.AF4,MOT.CounterMems,MOT.InterpolatedMems,MOT.Q0,MOT.Q1,MOT.Q2,MOT.Q3,MOT.AccX,MOT.AccY,MOT.AccZ,MOT.MagX,MOT.MagY,MOT.MagZ,PM.Attention.IsActive,PM.Attention.Scaled,PM.Attention.Raw,PM.Attention.Min,PM.Attention.Max,PM.Engagement.IsActive,PM.Engagement.Scaled,PM.Engagement.Raw,PM.Engagement.Min,PM.Engagement.Max,PM.Excitement.IsActive,PM.Excitement.Scaled,PM.Excitement.Raw,PM.Excitement.Min,PM.Excitement.Max,PM.LongTermExcitement,PM.Stress.IsActive,PM.Stress.Scaled,PM.Stress.Raw,PM.Stress.Min,PM.Stress.Max,PM.Relaxation.IsActive,PM.Relaxation.Scaled,PM.Relaxation.Raw,PM.Relaxation.Min,PM.Relaxation.Max,PM.Interest.IsActive,PM.Interest.Scaled,PM.Interest.Raw,PM.Interest.Min,PM.Interest.Max,POW.AF3.Theta,POW.AF3.Alpha,POW.AF3.BetaL,POW.AF3.BetaH,POW.AF3.Gamma,POW.F7.Theta,POW.F7.Alpha,POW.F7.BetaL,POW.F7.BetaH,POW.F7.Gamma,POW.F3.Theta,POW.F3.Alpha,POW.F3.BetaL,POW.F3.BetaH,POW.F3.Gamma,POW.FC5.Theta,POW.FC5.Alpha,POW.FC5.BetaL,POW.FC5.BetaH,POW.FC5.Gamma,POW.T7.Theta,POW.T7.Alpha,POW.T7.BetaL,POW.T7.BetaH,POW.T7.Gamma,POW.P7.Theta,POW.P7.Alpha,POW.P7.BetaL,POW.P7.BetaH,POW.P7.Gamma,POW.O1.Theta,POW.O1.Alpha,POW.O1.BetaL,POW.O1.BetaH,POW.O1.Gamma,POW.O2.Theta,POW.O2.Alpha,POW.O2.BetaL,POW.O2.BetaH,POW.O2.Gamma,POW.P8.Theta,POW.P8.Alpha,POW.P8.BetaL,POW.P8.BetaH,POW.P8.Gamma,POW.T8.Theta,POW.T8.Alpha,POW.T8.BetaL,POW.T8.BetaH,POW.T8.Gamma,POW.FC6.Theta,POW.FC6.Alpha,POW.FC6.BetaL,POW.FC6.BetaH,POW.FC6.Gamma,POW.F4.Theta,POW.F4.Alpha,POW.F4.BetaL,POW.F4.BetaH,POW.F4.Gamma,POW.F8.Theta,POW.F8.Alpha,POW.F8.BetaL,POW.F8.BetaH,POW.F8.Gamma,POW.AF4.Theta,POW.AF4.Alpha,POW.AF4.BetaL,POW.AF4.BetaH,POW.AF4.Gamma
1739354692.584000,1739354692.584803,58.000000,0.000000,4251.282227,4247.307617,4286.922852,4288.589844,4226.282227,4252.436035,4191.666504,4280.000000,4230.512695,4191.538574,4546.282227,4479.487305,4388.974121,4475.641113,0.000000,1.000000,16.000000,,,,0.000000,4.000000,4.000000,4.000000,4.000000,4.000000,4.000000,4.000000,4.000000,4.000000,4.000000,4.000000,4.000000,4.000000,4.000000,100.000000,,,,,,,,,,,,,,,,,,,,,,,,,,,,,,,,,,,,,,,,,,,,,,,,,,,,,,,,,,,,6.178982,5.443943,2.904241,1.757482,1.383772,5.546769,3.787057,1.985330,1.459689,1.376627,1.981998,4.001893,1.948173,1.647919,1.208702,1.247056,3.148580,1.350812,1.358840,1.278415,0.972362,1.151912,0.857173,0.988726,1.046326,0.925954,0.626673,0.760983,1.066167,1.076925,1.921616,1.053397,0.970097,1.419367,1.307701,0.225770,0.811878,0.355177,0.263531,0.300144,2.067014,3.926873,1.713587,1.272889,1.183233,2.939692,5.584158,2.163602,1.817875,1.646790,2.520905,5.026479,2.010000,1.379638,1.403526,3.199517,6.645349,3.701077,2.515796,1.891233,3.546870,3.650061,2.145947,1.592140,1.372909,4.843719,4.707194,2.521114,1.519104,1.368259
1739354692.591808,1739354692.592511,59.000000,0.000000,4238.717773,4230.769043,4276.282227,4279.102539,4215.384766,4239.358887,4185.769043,4270.384766,4217.436035,4175.641113,4531.794922,4464.487305,4375.128418,4461.410156,0.000000,1.000000,16.000000,,,,0.000000,4.000000,4.000000,4.000000,4.000000,4.000000,4.000000,4.000000,4.000000,4.000000,4.000000,4.000000,4.000000,4.000000,4.000000,100.000000,,,,,,,,,,,,,,,,,,,,,,,,,,,,,,,,,,,,,,,,,,,,,,,,,,,,,,,,,,,,,,,,,,,,,,,,,,,,,,,,,,,,,,,,,,,,,,,,,,,,,,,,,,,,,,,,,,,,,,,,,,,,,,,,,
1739354692.599616,1739354692.600319,60.000000,0.000000,4236.410156,4227.692383,4270.384766,4272.051270,4214.358887,4232.692383,4179.743652,4269.615234,4211.410156,4162.820313,4527.307617,4453.717773,4365.769043,4450.384766,0.000000,1.000000,16.000000,,,,0.000000,4.000000,4.000000,4.000000,4.000000,4.000000,4.000000,4.000000,4.000000,4.000000,4.000000,4.000000,4.000000,4.000000,4.000000,100.000000,,,,,,,,,,,,,,,,,15.000000,0.000000,0.413734,0.413635,-0.548279,0.597595,0.951288,-0.316445,0.051276,-38.222111,-30.716326,44.405834,,,,,,,,,,,,,,,,,,,,,,,,,,,,,,,,,,,,,,,,,,,,,,,,,,,,,,,,,,,,,,,,,,,,,,,,,,,,,,,,,,,,,,,,,,,,,,,,,,,,,
1739354692.607424,1739354692.608027,61.000000,0.000000,4249.230957,4235.897461,4280.769043,4280.128418,4221.666504,4246.794922,4183.077148,4275.641113,4219.102539,4173.333496,4534.615234,4461.282227,4374.487305,4458.589844,0.000000,1.000000,16.000000,,,,0.000000,4.000000,4.000000,4.000000,4.000000,4.000000,4.000000,4.000000,4.000000,4.000000,4.000000,4.000000,4.000000,4.000000,4.000000,100.000000,,,,,,,,,,,,,,,,,,,,,,,,,,,,,,,,,,,,,,,,,,,,,,,,,,,,,,,,,,,,,,,,,,,,,,,,,,,,,,,,,,,,,,,,,,,,,,,,,,,,,,,,,,,,,,,,,,,,,,,,,,,,,,,,,
1739354692.615232,1739354692.615835,62.000000,0.000000,4251.282227,4227.948730,4280.128418,4284.102539,4220.256348,4247.179688,4181.410156,4274.102539,4221.153809,4175.897461,4530.128418,4463.333496,4376.666504,4459.871582,0.000000,1.000000,16.000000,,,,0.000000,4.000000,4.000000,4.000000,4.000000,4.000000,4.000000,4.000000,4.000000,4.000000,4.000000,4.000000,4.000000,4.000000,4.000000,100.000000,,,,,,,,,,,,,,,,,,,,,,,,,,,,,,,,,,,,,,,,,,,,,,,,,,,,,,,,,,,,,,,,,,,,,,,,,,,,,,,,,,,,,,,,,,,,,,,,,,,,,,,,,,,,,,,,,,,,,,,,,,,,,,,,,
1739354692.623041,1739354692.623543,63.000000,0.000000,4246.282227,4228.717773,4270.384766,4280.256348,4218.589844,4236.794922,4176.922852,4271.282227,4220.641113,4172.692383,4525.897461,4458.077148,4370.128418,4452.051270,0.000000,1.000000,16.000000,,,,0.000000,4.000000,4.000000,4.000000,4.000000,4.000000,4.000000,4.000000,4.000000,4.000000,4.000000,4.000000,4.000000,4.000000,4.000000,100.000000,,,,,,,,,,,,,,,,,,,,,,,,,,,,,,,,,,,,,,,,,,,,,,,,,,,,,,,,,,,,,,,,,,,,,,,,,,,,,,,,,,,,,,,,,,,,,,,,,,,,,,,,,,,,,,,,,,,,,,,,,,,,,,,,,
1739354692.630849,1739354692.631351,64.000000,0.000000,4232.820313,4220.256348,4253.717773,4260.512695,4203.461426,4219.487305,4158.589844,4267.563965,4204.615234,4162.692383,4516.538574,4440.897461,4357.436035,4438.077148,5187.000000,1.000000,16.000000,,,,0.000000,4.000000,4.000000,4.000000,4.000000,4.000000,4.000000,4.000000,4.000000,4.000000,4.000000,4.000000,4.000000,4.000000,4.000000,100.000000,,,,,,,,,,,,,,,,,16.000000,0.000000,0.413842,0.413696,-0.548218,0.597534,0.951776,-0.309120,0.058601,-38.216568,-30.678026,44.331917,,,,,,,,,,,,,,,,,,,,,,,,,,,,,,,,,,,,,,,,,,,,,,,,,,,,,,,,,,,,,,,,,,,,,,,,,,,,,,,,,,,,,,,,,,,,,,,,,,,,,
1739354692.638657,1739354692.639059,65.000000,0.000000,4233.717773,4210.897461,4256.410156,4256.153809,4197.179688,4214.871582,4155.769043,4271.922852,4203.974121,4164.230957,4521.025879,4446.794922,4361.282227,4442.820313,5551.000000,1.000000,16.000000,,,,0.000000,4.000000,4.000000,4.000000,4.000000,4.000000,4.000000,4.000000,4.000000,4.000000,4.000000,4.000000,4.000000,4.000000,4.000000,100.000000,,,,,,,,,,,,,,,,,,,,,,,,,,,,,,,,,,,,,,,,,,,,,,,,,,,,,,,,,,,,,,,,,,,,,,,,,,,,,,,,,,,,,,,,,,,,,,,,,,,,,,,,,,,,,,,,,,,,,,,,,,,,,,,,,
1739354692.646465,1739354692.646967,66.000000,0.000000,4256.025879,4228.461426,4284.230957,4282.692383,4217.051270,4234.871582,4179.230957,4282.051270,4233.461426,4187.948730,4543.717773,4477.051270,4382.179688,4467.692383,5577.000000,1.000000,16.000000,,,,0.000000,4.000000,4.000000,4.000000,4.000000,4.000000,4.000000,4.000000,4.000000,4.000000,4.000000,4.000000,4.000000,4.000000,4.000000,100.000000,,,,,,,,,,,,,,,,,,,,,,,,,,,,,,,,,,,,,,,,,,,,,,,,,,,,,,,,,,,,,,,,,,,,,,,,,,,,,,,,,,,,,,,,,,,,,,,,,,,,,,,,,,,,,,,,,,,,,,,,,,,,,,,,,
1739354692.654273,1739354692.654775,67.000000,0.000000,4254.102539,4229.102539,4282.179688,4282.563965,4212.692383,4233.333496,4175.512695,4274.230957,4230.256348,4183.717773,4535.769043,4470.384766,4372.436035,4462.436035,5497.000000,1.000000,16.000000,,,,0.000000,4.000000,4.000000,4.000000,4.000000,4.000000,4.000000,4.000000,4.000000,4.000000,4.000000,4.000000,4.000000,4.000000,4.000000,100.000000,,,,,,,,,,,,,,,,,,,,,,,,,,,,,,,,,,,,,,,,,,,,,,,,,,,,,,,,,,,,,,,,,,,,,,,,,,,,,,,,,,,,,,,,,,,,,,,,,,,,,,,,,,,,,,,,,,,,,,,,,,,,,,,,,
1739354692.662081,1739354692.662683,68.000000,0.000000,4241.410156,4213.589844,4265.000000,4266.282227,4200.128418,4217.436035,4156.794922,4264.743652,4211.153809,4165.512695,4519.230957,4454.871582,4354.743652,4446.666504,5474.000000,1.000000,16.000000,,,,0.000000,4.000000,4.000000,4.000000,4.000000,4.000000,4.000000,4.000000,4.000000,4.000000,4.000000,4.000000,4.000000,4.000000,4.000000,100.000000,,,,,,,,,,,,,,,,,17.000000,0.000000,0.413917,0.413452,-0.548279,0.597595,0.963497,-0.308143,0.067879,-38.278244,-30.660223,44.448727,,,,,,,,,,,,,,,,,,,,,,,,,,,,,,,,,,,,,,,,,,,,,,,,,,,,,,,,,,,,,,,,,,,,,,,,,,,,,,,,,,,,,,,,,,,,,,,,,,,,,
1739354692.669889,1739354692.670492,69.000000,0.000000,4238.846191,4212.820313,4264.230957,4266.538574,4205.769043,4217.820313,4157.820313,4264.743652,4213.846191,4168.077148,4521.410156,4457.179688,4356.794922,4447.820313,5487.000000,1.000000,16.000000,,,,0.000000,4.000000,4.000000,4.000000,4.000000,4.000000,4.000000,4.000000,4.000000,4.000000,4.000000,4.000000,4.000000,4.000000,4.000000,100.000000,,,,,,,,,,,,,,,,,,,,,,,,,,,,,,,,,,,,,,,,,,,,,,,,,,,,,,,,,,,,,,,,,,,,,,,,,,,,,,,,,,,,,,,,,,,,,,,,,,,,,,,,,,,,,,,,,,,,,,,,,,,,,,,,,
1739354692.677697,1739354692.678400,70.000000,0.000000,4220.897461,4201.282227,4251.794922,4250.897461,4193.461426,4211.794922,4153.077148,4258.205078,4200.769043,4156.538574,4505.769043,4436.666504,4344.615234,4434.743652,5462.000000,1.000000,16.000000,,,,0.000000,4.000000,4.000000,4.000000,4.000000,4.000000,4.000000,4.000000,4.000000,4.000000,4.000000,4.000000,4.000000,4.000000,4.000000,100.000000,,,,,,,,,,,,,,,,,,,,,,,,,,,,,,,,,,,,,,,,,,,,,,,,,,,,,,,,,,,,,,,,,,,,,,,,,,,,,,,,,,,,,,,,,,,,,,,,,,,,,,,,,,,,,,,,,,,,,,,,,,,,,,,,,
1739354692.685505,1739354692.686208,71.000000,0.000000,4216.666504,4192.948730,4245.769043,4239.743652,4191.282227,4212.948730,4156.282227,4262.179688,4190.641113,4148.077148,4500.641113,4429.102539,4336.410156,4427.307617,2548.000000,1.000000,16.000000,,,,0.000000,4.000000,4.000000,4.000000,4.000000,4.000000,4.000000,4.000000,4.000000,4.000000,4.000000,4.000000,4.000000,4.000000,4.000000,100.000000,,,,,,,,,,,,,,,,,,,,,,,,,,,,,,,,,,,,,,,,,,,,,,,,,,,,,,,,,,,,,,,,,,,,,,,,,,,,,,,,,,,,,,,,,,,,,,,,,,,,,,,,,,,,,,,,,,,,,,,,,,,,,,,,,
1739354692.693313,1739354692.694016,72.000000,0.000000,4245.128418,4216.922852,4271.282227,4263.205078,4224.615234,4241.410156,4185.128418,4275.384766,4215.769043,4176.282227,4530.256348,4462.179688,4360.641113,4448.589844,5250.000000,1.000000,16.000000,,,,0.000000,4.000000,4.000000,4.000000,4.000000,4.000000,4.000000,4.000000,4.000000,4.000000,4.000000,4.000000,4.000000,4.000000,4.000000,100.000000,,,,,,,,,,,,,,,,,18.000000,0.000000,0.413627,0.413147,-0.548462,0.597839,0.937614,-0.312050,0.059089,-38.167084,-30.810867,44.387184,,,,,,,,,,,,,,,,,,,,,,,,,,,,,,,,,,,,,,,,,,,,,,,,,,,,,,,,,,,,,,,,,,,,,,,,,,,,,,,,,,,,,,,,,,,,,,,,,,,,,
1739354692.701121,1739354692.701724,73.000000,0.000000,4250.256348,4222.436035,4281.410156,4270.512695,4230.897461,4252.436035,4191.538574,4269.487305,4222.307617,4189.615234,4531.922852,4470.641113,4367.820313,4455.384766,5597.000000,1.000000,16.000000,,,,0.000000,4.000000,4.000000,4.000000,4.000000,4.000000,4.000000,4.000000,4.000000,4.000000,4.000000,4.000000,4.000000,4.000000,4.000000,100.000000,,,,,,,,,,,,,,,,,,,,,,,,,,,,,,,,,,,,,,,,,,,,,,,,,,,,,,,,,,,,,,,,,,,,,,,,,,,,,,,,,,,,,,,,,,,,,,,,,,,,,,,,,,,,,,,,,,,,,,,,,,,,,,,,,
1739354692.708929,1739354692.709632,74.000000,0.000000,4246.025879,4218.333496,4277.051270,4264.743652,4219.230957,4240.641113,4185.128418,4267.563965,4212.692383,4181.922852,4521.282227,4463.974121,4361.025879,4455.384766,5063.000000,1.000000,16.000000,,,,0.000000,4.000000,4.000000,4.000000,4.000000,4.000000,4.000000,4.000000,4.000000,4.000000,4.000000,4.000000,4.000000,4.000000,4.000000,100.000000,1.000000,75.000000,3.000000,4.000000,3.000000,4.000000,4.000000,3.000000,3.000000,4.000000,4.000000,4.000000,4.000000,3.000000,4.000000,3.000000,,,,,,,,,,,,,,,,,,,,,,,,,,,,,,,,,,,,,,,,,,,,3.233539,4.067811,2.331552,1.875421,1.403681,4.590981,3.158703,1.506646,1.556203,1.446223,1.641777,3.295121,1.540558,1.755568,1.229292,0.864200,2.454995,1.052441,1.521594,1.332905,1.048367,0.903337,0.627193,1.046436,1.056425,1.010912,0.569601,0.549670,1.090337,1.079983,1.867072,1.032787,0.611869,1.403781,1.309317,0.288645,0.696391,0.296817,0.265246,0.324324,2.617236,3.427036,1.421904,1.345522,1.178116,3.544910,4.673455,1.648391,1.890801,1.673323,2.464261,3.933997,1.521653,1.410177,1.438511,2.949565,5.465513,3.042161,2.576672,1.881174,2.755909,2.366639,1.767378,1.711417,1.435106,2.348297,3.413891,1.968265,1.654089,1.423512
1739354692.716737,1739354692.717440,75.000000,0.000000,4243.974121,4215.128418,4274.102539,4261.025879,4218.589844,4235.256348,4185.128418,4272.436035,4211.666504,4175.769043,4522.692383,4462.948730,4358.717773,4452.436035,5536.000000,1.000000,16.000000,,,,0.000000,4.000000,4.000000,4.000000,4.000000,4.000000,4.000000,4.000000,4.000000,4.000000,4.000000,4.000000,4.000000,4.000000,4.000000,100.000000,,,,,,,,,,,,,,,,,,,,,,,,,,,,,,,,,,,,,,,,,,,,,,,,,,,,,,,,,,,,,,,,,,,,,,,,,,,,,,,,,,,,,,,,,,,,,,,,,,,,,,,,,,,,,,,,,,,,,,,,,,,,,,,,,
1739354692.724546,1739354692.725349,76.000000,0.000000,4217.179688,4182.820313,4258.846191,4240.000000,4206.538574,4229.230957,4174.487305,4265.512695,4202.307617,4161.153809,4507.051270,4443.333496,4342.179688,4426.282227,5631.000000,1.000000,16.000000,,,,0.000000,4.000000,4.000000,4.000000,4.000000,4.000000,4.000000,4.000000,4.000000,4.000000,4.000000,4.000000,4.000000,4.000000,4.000000,100.000000,,,,,,,,,,,,,,,,,19.000000,0.000000,0.413315,0.413025,-0.548523,0.598083,0.942498,-0.312050,0.068856,-38.150375,-30.829781,44.498466,,,,,,,,,,,,,,,,,,,,,,,,,,,,,,,,,,,,,,,,,,,,,,,,,,,,,,,,,,,,,,,,,,,,,,,,,,,,,,,,,,,,,,,,,,,,,,,,,,,,,
1739354692.732354,1739354692.733157,77.000000,0.000000,4220.641113,4192.563965,4263.077148,4245.897461,4209.615234,4234.871582,4176.538574,4270.256348,4207.179688,4167.179688,4507.692383,4450.256348,4346.282227,4435.000000,6621.000000,1.000000,16.000000,,,,0.000000,4.000000,4.000000,4.000000,4.000000,4.000000,4.000000,4.000000,4.000000,4.000000,4.000000,4.000000,4.000000,4.000000,4.000000,100.000000,,,,,,,,,,,,,,,,,,,,,,,,,,,,,,,,,,,,,,,,,,,,,,,,,,,,,,,,,,,,,,,,,,,,,,,,,,,,,,,,,,,,,,,,,,,,,,,,,,,,,,,,,,,,,,,,,,,,,,,,,,,,,,,,,
1739354692.740162,1739354692.741065,78.000000,0.000000,4267.563965,4257.820313,4290.128418,4285.897461,4234.743652,4250.128418,4192.051270,4281.410156,4225.384766,4188.205078,4532.307617,4481.794922,4372.179688,4475.897461,5063.000000,1.000000,16.000000,,,,0.000000,4.000000,4.000000,4.000000,4.000000,4.000000,4.000000,4.000000,4.000000,4.000000,4.000000,4.000000,4.000000,4.000000,4.000000,100.000000,,,,,,,,,,,,,,,,,,,,,,,,,,,,,,,,,,,,,,,,,,,,,,,,,,,,,,,,,,,,,,,,,,,,,,,,,,,,,,,,,,,,,,,,,,,,,,,,,,,,,,,,,,,,,,,,,,,,,,,,,,,,,,,,,
1739354692.747970,1739354692.748873,79.000000,0.000000,4282.307617,4284.487305,4292.307617,4295.384766,4231.410156,4243.974121,4185.128418,4272.436035,4213.846191,4172.820313,4524.230957,4472.692383,4361.794922,4477.436035,5536.000000,1.000000,16.000000,,,,0.000000,4.000000,4.000000,4.000000,4.000000,4.000000,4.000000,4.000000,4.000000,4.000000,4.000000,4.000000,4.000000,4.000000,4.000000,100.000000,,,,,,,,,,,,,,,,,,,,,,,,,,,,,,,,,,,,,,,,,,,,,,,,,,,,,,,,,,,,,,,,,,,,,,,,,,,,,,,,,,,,,,,,,,,,,,,,,,,,,,,,,,,,,,,,,,,,,,,,,,,,,,,,,
1739354692.755778,1739354692.756780,80.000000,0.000000,4284.615234,4293.333496,4292.436035,4301.538574,4229.615234,4242.948730,4179.615234,4266.666504,4203.589844,4157.179688,4511.025879,4467.051270,4344.615234,4476.794922,5631.000000,1.000000,16.000000,,,,0.000000,4.000000,4.000000,4.000000,4.000000,4.000000,4.000000,4.000000,4.000000,4.000000,4.000000,4.000000,4.000000,4.000000,4.000000,100.000000,,,,,,,,,,,,,,,,,20.000000,0.000000,0.413298,0.413086,-0.548157,0.598389,0.957636,-0.310585,0.069344,-38.152004,-30.896803,44.498619,,,,,,,,,,,,,,,,,,,,,,,,,,,,,,,,,,,,,,,,,,,,,,,,,,,,,,,,,,,,,,,,,,,,,,,,,,,,,,,,,,,,,,,,,,,,,,,,,,,,,
1739354692.763586,1739354692.764588,81.000000,0.000000,4299.358887,4314.615234,4295.897461,4315.384766,4238.333496,4241.666504,4175.512695,4262.948730,4200.384766,4154.102539,4508.461426,4473.461426,4341.538574,4491.153809,6621.000000,1.000000,16.000000,,,,0.000000,4.000000,4.000000,4.000000,4.000000,4.000000,4.000000,4.000000,4.000000,4.000000,4.000000,4.000000,4.000000,4.000000,4.000000,100.000000,,,,,,,,,,,,,,,,,,,,,,,,,,,,,,,,,,,,,,,,,,,,,,,,,,,,,,,,,,,,,,,,,,,,,,,,,,,,,,,,,,,,,,,,,,,,,,,,,,,,,,,,,,,,,,,,,,,,,,,,,,,,,,,,,
1739354692.771394,1739354692.772496,82.000000,0.000000,4286.794922,4305.512695,4277.563965,4296.410156,4221.410156,4221.922852,4156.282227,4251.922852,4178.717773,4134.358887,4489.743652,4447.948730,4328.589844,4478.846191,5063.000000,1.000000,16.000000,,,,0.000000,4.000000,4.000000,4.000000,4.000000,4.000000,4.000000,4.000000,4.000000,4.000000,4.000000,4.000000,4.000000,4.000000,4.000000,100.000000,,,,,,,,,,,,,,,,,,,,,,,,,,,,,,,,,,,,,,,,,,,,,,,,,,,,,,,,,,,,,,,,,,,,,,,,,,,,,,,,,,,,,,,,,,,,,,,,,,,,,,,,,,,,,,,,,,,,,,,,,,,,,,,,,
1739354692.779202,1739354692.780304,83.000000,0.000000,4277.820313,4297.051270,4275.769043,4286.666504,4217.948730,4227.948730,4165.641113,4256.282227,4182.436035,4135.128418,4490.512695,4441.538574,4331.922852,4474.230957,5536.000000,1.000000,16.000000,,,,0.000000,4.000000,4.000000,4.000000,4.000000,4.000000,4.000000,4.000000,4.000000,4.000000,4.000000,4.000000,4.000000,4.000000,4.000000,100.000000,,,,,,,,,,,,,,,,,,,,,,,,,,,,,,,,,,,,,,,,,,,,,,,,,,,,,,,,,,,,,,,,,,,,,,,,,,,,,,,,,,,,,,,,,,,,,,,,,,,,,,,,,,,,,,,,,,,,,,,,,,,,,,,,,
1739354692.787010,1739354692.788012,84.000000,0.000000,4288.077148,4306.538574,4289.230957,4301.538574,4235.512695,4251.666504,4189.230957,4265.128418,4204.102539,4155.641113,4506.282227,4463.717773,4341.153809,4483.974121,5631.000000,1.000000,16.000000,,,,0.000000,4.000000,4.000000,4.000000,4.000000,4.000000,4.000000,4.000000,4.000000,4.000000,4.000000,4.000000,4.000000,4.000000,4.000000,100.000000,,,,,,,,,,,,,,,,,21.000000,0.000000,0.413364,0.413086,-0.547974,0.598511,0.961543,-0.312050,0.063484,-38.270138,-30.773788,44.398758,,,,,,,,,,,,,,,,,,,,,,,,,,,,,,,,,,,,,,,,,,,,,,,,,,,,,,,,,,,,,,,,,,,,,,,,,,,,,,,,,,,,,,,,,,,,,,,,,,,,,
1739354692.794818,1739354692.795920,85.000000,0.000000,4283.333496,4299.871582,4283.461426,4304.743652,4236.153809,4248.717773,4186.410156,4259.871582,4195.769043,4154.487305,4502.820313,4462.179688,4330.897461,4472.948730,6621.000000,1.000000,16.000000,,,,0.000000,4.000000,4.000000,4.000000,4.000000,4.000000,4.000000,4.000000,4.000000,4.000000,4.000000,4.000000,4.000000,4.000000,4.000000,100.000000,,,,,,,,,,,,,,,,,,,,,,,,,,,,,,,,,,,,,,,,,,,,,,,,,,,,,,,,,,,,,,,,,,,,,,,,,,,,,,,,,,,,,,,,,,,,,,,,,,,,,,,,,,,,,,,,,,,,,,,,,,,,,,,,,
1739354692.802626,1739354692.803729,86.000000,0.000000,4279.487305,4297.436035,4279.358887,4305.641113,4231.025879,4239.487305,4182.307617,4258.589844,4185.641113,4151.153809,4503.333496,4458.333496,4333.077148,4467.692383,5063.000000,1.000000,16.000000,,,,0.000000,4.000000,4.000000,4.000000,4.000000,4.000000,4.000000,4.000000,4.000000,4.000000,4.000000,4.000000,4.000000,4.000000,4.000000,100.000000,,,,,,,,,,,,,,,,,,,,,,,,,,,,,,,,,,,,,,,,,,,,,,,,,,,,,,,,,,,,,,,,,,,,,,,,,,,,,,,,,,,,,,,,,,,,,,,,,,,,,,,,,,,,,,,,,,,,,,,,,,,,,,,,,
1739354692.810434,1739354692.811537,87.000000,0.000000,4269.487305,4290.769043,4275.384766,4292.820313,4218.846191,4229.358887,4174.102539,4260.641113,4185.897461,4144.358887,4495.641113,4452.436035,4328.461426,4461.025879,5536.000000,1.000000,16.000000,,,,0.000000,4.000000,4.000000,4.000000,4.000000,4.000000,4.000000,4.000000,4.000000,4.000000,4.000000,4.000000,4.000000,4.000000,4.000000,100.000000,,,,,,,,,,,,,,,,,,,,,,,,,,,,,,,,,,,,,,,,,,,,,,,,,,,,,,,,,,,,,,,,,,,,,,,,,,,,,,,,,,,,,,,,,,,,,,,,,,,,,,,,,,,,,,,,,,,,,,,,,,,,,,,,,
1739354692.818242,1739354692.819245,88.000000,0.000000,4257.948730,4277.820313,4269.230957,4279.615234,4208.717773,4220.769043,4166.922852,4263.461426,4187.563965,4136.153809,4486.153809,4444.615234,4316.794922,4451.153809,5631.000000,1.000000,16.000000,,,,0.000000,4.000000,4.000000,4.000000,4.000000,4.000000,4.000000,4.000000,4.000000,4.000000,4.000000,4.000000,4.000000,4.000000,4.000000,100.000000,,,,,,,,,,,,,,,,,22.000000,0.000000,0.413349,0.413086,-0.547852,0.598633,0.933708,-0.314492,0.069344,-38.293125,-30.796410,44.425549,,,,,,,,,,,,,,,,,,,,,,,,,,,,,,,,,,,,,,,,,,,,,,,,,,,,,,,,,,,,,,,,,,,,,,,,,,,,,,,,,,,,,,,,,,,,,,,,,,,,,
1739354692.826050,1739354692.827053,89.000000,0.000000,4276.153809,4293.333496,4287.179688,4305.128418,4225.384766,4238.205078,4189.358887,4277.307617,4207.179688,4156.794922,4508.974121,4469.102539,4339.230957,4470.769043,6621.000000,1.000000,16.000000,,,,0.000000,4.000000,4.000000,4.000000,4.000000,4.000000,4.000000,4.000000,4.000000,4.000000,4.000000,4.000000,4.000000,4.000000,4.000000,100.000000,,,,,,,,,,,,,,,,,,,,,,,,,,,,,,,,,,,,,,,,,,,,,,,,,,,,,,,,,,,,,,,,,,,,,,,,,,,,,,,,,,,,,,,,,,,,,,,,,,,,,,,,,,,,,,,,,,,,,,,,,,,,,,,,,
1739354692.833859,1739354692.834761,90.000000,0.000000,4289.487305,4306.025879,4301.666504,4319.615234,4237.563965,4250.512695,4206.410156,4279.102539,4221.538574,4170.000000,4521.922852,4482.820313,4350.769043,4481.794922,5063.000000,1.000000,16.000000,,,,0.000000,4.000000,4.000000,4.000000,4.000000,4.000000,4.000000,4.000000,4.000000,4.000000,4.000000,4.000000,4.000000,4.000000,4.000000,100.000000,,,,,,,,,,,,,,,,,,,,,,,,,,,,,,,,,,,,,,,,,,,,,,,,,,,,,,,,,,,,2.336505,3.274257,1.925869,1.959956,1.414944,4.553554,2.804488,1.128034,1.653053,1.487207,1.592813,2.786759,1.242721,1.812217,1.249131,0.800907,1.928978,0.802927,1.662339,1.379044,1.202531,0.727533,0.430680,1.105405,1.044552,1.157886,0.505110,0.382878,1.121834,1.068463,2.039939,1.000305,0.393220,1.391097,1.275437,0.381086,0.550025,0.236945,0.270631,0.350999,3.216292,2.757198,1.127394,1.416001,1.173275,4.155450,3.534679,1.215496,1.928010,1.679455,2.718928,2.842048,1.133404,1.450699,1.453573,3.208665,4.381957,2.423384,2.588735,1.868126,2.994230,1.383132,1.481698,1.758607,1.464340,1.676167,2.581623,1.577809,1.753306,1.455868
1739354692.841667,1739354692.842569,91.000000,0.000000,4276.538574,4295.641113,4292.051270,4301.410156,4230.256348,4244.358887,4200.256348,4266.794922,4212.692383,4157.563965,4507.436035,4465.897461,4332.051270,4466.538574,5536.000000,1.000000,16.000000,,,,0.000000,4.000000,4.000000,4.000000,4.000000,4.000000,4.000000,4.000000,4.000000,4.000000,4.000000,4.000000,4.000000,4.000000,4.000000,100.000000,,,,,,,,,,,,,,,,,,,,,,,,,,,,,,,,,,,,,,,,,,,,,,,,,,,,,,,,,,,,,,,,,,,,,,,,,,,,,,,,,,,,,,,,,,,,,,,,,,,,,,,,,,,,,,,,,,,,,,,,,,,,,,,,,
1739354692.849475,1739354692.850277,92.000000,0.000000,4268.846191,4290.512695,4283.205078,4297.051270,4229.230957,4244.358887,4199.358887,4264.615234,4205.512695,4151.666504,4501.025879,4453.717773,4323.589844,4461.410156,5631.000000,1.000000,16.000000,,,,0.000000,4.000000,4.000000,4.000000,4.000000,4.000000,4.000000,4.000000,4.000000,4.000000,4.000000,4.000000,4.000000,4.000000,4.000000,100.000000,,,,,,,,,,,,,,,,,23.000000,0.000000,0.413349,0.413086,-0.547852,0.598633,0.941033,-0.310096,0.058601,-38.263813,-30.850103,44.499660,,,,,,,,,,,,,,,,,,,,,,,,,,,,,,,,,,,,,,,,,,,,,,,,,,,,,,,,,,,,,,,,,,,,,,,,,,,,,,,,,,,,,,,,,,,,,,,,,,,,,
1739354692.857283,1739354692.858085,93.000000,0.000000,4252.948730,4280.512695,4263.974121,4287.179688,4219.102539,4232.179688,4188.461426,4257.692383,4184.358887,4132.307617,4482.692383,4427.692383,4307.948730,4446.538574,6621.000000,1.000000,16.000000,,,,0.000000,4.000000,4.000000,4.000000,4.000000,4.000000,4.000000,4.000000,4.000000,4.000000,4.000000,4.000000,4.000000,4.000000,4.000000,100.000000,,,,,,,,,,,,,,,,,,,,,,,,,,,,,,,,,,,,,,,,,,,,,,,,,,,,,,,,,,,,,,,,,,,,,,,,,,,,,,,,,,,,,,,,,,,,,,,,,,,,,,,,,,,,,,,,,,,,,,,,,,,,,,,,,
1739354692.865091,1739354692.865793,94.000000,0.000000,4246.282227,4280.512695,4255.256348,4281.922852,4213.717773,4225.128418,4183.205078,4255.000000,4170.384766,4116.538574,4472.436035,4413.974121,4302.307617,4436.282227,5063.000000,1.000000,16.000000,,,,0.000000,4.000000,4.000000,4.000000,4.000000,4.000000,4.000000,4.000000,4.000000,4.000000,4.000000,4.000000,4.000000,4.000000,4.000000,100.000000,,,,,,,,,,,,,,,,,,,,,,,,,,,,,,,,,,,,,,,,,,,,,,,,,,,,,,,,,,,,,,,,,,,,,,,,,,,,,,,,,,,,,,,,,,,,,,,,,,,,,,,,,,,,,,,,,,,,,,,,,,,,,,,,,
1739354692.872899,1739354692.873601,95.000000,0.000000,4271.922852,4304.358887,4281.410156,4306.410156,4234.871582,4250.769043,4206.538574,4266.666504,4193.974121,4143.717773,4500.641113,4443.717773,4331.538574,4462.051270,5536.000000,1.000000,16.000000,,,,0.000000,4.000000,4.000000,4.000000,4.000000,4.000000,4.000000,4.000000,4.000000,4.000000,4.000000,4.000000,4.000000,4.000000,4.000000,100.000000,,,,,,,,,,,,,,,,,,,,,,,,,,,,,,,,,,,,,,,,,,,,,,,,,,,,,,,,,,,,,,,,,,,,,,,,,,,,,,,,,,,,,,,,,,,,,,,,,,,,,,,,,,,,,,,,,,,,,,,,,,,,,,,,,
1739354692.880707,1739354692.881309,96.000000,0.000000,4272.820313,4297.563965,4289.871582,4307.436035,4236.025879,4255.384766,4208.333496,4258.974121,4199.487305,4160.641113,4509.615234,4457.563965,4334.487305,4469.358887,5631.000000,1.000000,16.000000,,,,0.000000,4.000000,4.000000,4.000000,4.000000,4.000000,4.000000,4.000000,4.000000,4.000000,4.000000,4.000000,4.000000,4.000000,4.000000,100.000000,,,,,,,,,,,,,,,,,24.000000,0.000000,0.413172,0.413086,-0.547852,0.598755,0.935661,-0.311073,0.057624,-38.154099,-30.765093,44.433029,,,,,,,,,,,,,,,,,,,,,,,,,,,,,,,,,,,,,,,,,,,,,,,,,,,,,,,,,,,,,,,,,,,,,,,,,,,,,,,,,,,,,,,,,,,,,,,,,,,,,
1739354692.888515,1739354692.889217,97.000000,0.000000,4255.641113,4274.743652,4275.000000,4288.461426,4217.692383,4232.051270,4186.538574,4242.307617,4183.077148,4146.794922,4496.153809,4448.717773,4315.128418,4448.589844,6621.000000,1.000000,16.000000,,,,0.000000,4.000000,4.000000,4.000000,4.000000,4.000000,4.000000,4.000000,4.000000,4.000000,4.000000,4.000000,4.000000,4.000000,4.000000,100.000000,,,,,,,,,,,,,,,,,,,,,,,,,,,,,,,,,,,,,,,,,,,,,,,,,,,,,,,,,,,,,,,,,,,,,,,,,,,,,,,,,,,,,,,,,,,,,,,,,,,,,,,,,,,,,,,,,,,,,,,,,,,,,,,,,
1739354692.896323,1739354692.897025,98.000000,0.000000,4264.871582,4282.820313,4283.846191,4296.666504,4221.153809,4233.589844,4189.230957,4251.794922,4198.333496,4155.384766,4508.205078,4462.948730,4327.948730,4454.230957,5063.000000,1.000000,16.000000,,,,0.000000,4.000000,4.000000,4.000000,4.000000,4.000000,4.000000,4.000000,4.000000,4.000000,4.000000,4.000000,4.000000,4.000000,4.000000,100.000000,,,,,,,,,,,,,,,,,,,,,,,,,,,,,,,,,,,,,,,,,,,,,,,,,,,,,,,,,,,,,,,,,,,,,,,,,,,,,,,,,,,,,,,,,,,,,,,,,,,,,,,,,,,,,,,,,,,,,,,,,,,,,,,,,
1739354692.904131,1739354692.904934,99.000000,0.000000,4257.051270,4274.871582,4284.102539,4293.846191,4215.769043,4230.000000,4183.589844,4262.820313,4205.512695,4158.589844,4508.717773,4460.256348,4330.000000,4455.000000,5536.000000,1.000000,16.000000,,,,0.000000,4.000000,4.000000,4.000000,4.000000,4.000000,4.000000,4.000000,4.000000,4.000000,4.000000,4.000000,4.000000,4.000000,4.000000,100.000000,,,,,,,,,,,,,,,,,,,,,,,,,,,,,,,,,,,,,,,,,,,,,,,,,,,,,,,,,,,,,,,,,,,,,,,,,,,,,,,,,,,,,,,,,,,,,,,,,,,,,,,,,,,,,,,,,,,,,,,,,,,,,,,,,
1739354692.911939,1739354692.912742,100.000000,0.000000,4240.000000,4258.589844,4269.871582,4281.153809,4202.948730,4214.871582,4169.871582,4262.051270,4192.436035,4145.512695,4497.179688,4446.153809,4314.102539,4442.179688,5631.000000,1.000000,16.000000,,,,0.000000,4.000000,4.000000,4.000000,4.000000,4.000000,4.000000,4.000000,4.000000,4.000000,4.000000,4.000000,4.000000,4.000000,4.000000,100.000000,,,,,,,,,,,,,,,,,25.000000,0.000000,0.413503,0.412659,-0.547791,0.598877,0.961055,-0.307655,0.062996,-38.088688,-30.788584,44.456390,,,,,,,,,,,,,,,,,,,,,,,,,,,,,,,,,,,,,,,,,,,,,,,,,,,,,,,,,,,,,,,,,,,,,,,,,,,,,,,,,,,,,,,,,,,,,,,,,,,,,
1739354692.919747,1739354692.920650,101.000000,0.000000,4264.230957,4281.538574,4285.769043,4302.692383,4221.538574,4232.692383,4189.871582,4268.333496,4210.384766,4159.615234,4516.538574,4468.205078,4332.436035,4460.512695,6621.000000,1.000000,16.000000,,,,0.000000,4.000000,4.000000,4.000000,4.000000,4.000000,4.000000,4.000000,4.000000,4.000000,4.000000,4.000000,4.000000,4.000000,4.000000,100.000000,,,,,,,,,,,,,,,,,,,,,,,,,,,,,,,,,,,,,,,,,,,,,,,,,,,,,,,,,,,,,,,,,,,,,,,,,,,,,,,,,,,,,,,,,,,,,,,,,,,,,,,,,,,,,,,,,,,,,,,,,,,,,,,,,
1739354692.927555,1739354692.928458,102.000000,0.000000,4288.846191,4299.487305,4304.358887,4320.000000,4240.384766,4255.512695,4210.512695,4273.589844,4230.897461,4177.820313,4530.641113,4486.794922,4353.461426,4477.820313,5063.000000,1.000000,16.000000,,,,0.000000,4.000000,4.000000,4.000000,4.000000,4.000000,4.000000,4.000000,4.000000,4.000000,4.000000,4.000000,4.000000,4.000000,4.000000,100.000000,,,,,,,,,,,,,,,,,,,,,,,,,,,,,,,,,,,,,,,,,,,,,,,,,,,,,,,,,,,,,,,,,,,,,,,,,,,,,,,,,,,,,,,,,,,,,,,,,,,,,,,,,,,,,,,,,,,,,,,,,,,,,,,,,
1739354692.935364,1739354692.936365,103.000000,0.000000,4277.436035,4284.102539,4293.333496,4306.153809,4232.563965,4247.692383,4202.436035,4266.282227,4215.256348,4170.897461,4514.358887,4470.000000,4340.512695,4462.179688,5536.000000,1.000000,16.000000,,,,0.000000,4.000000,4.000000,4.000000,4.000000,4.000000,4.000000,4.000000,4.000000,4.000000,4.000000,4.000000,4.000000,4.000000,4.000000,100.000000,,,,,,,,,,,,,,,,,,,,,,,,,,,,,,,,,,,,,,,,,,,,,,,,,,,,,,,,,,,,,,,,,,,,,,,,,,,,,,,,,,,,,,,,,,,,,,,,,,,,,,,,,,,,,,,,,,,,,,,,,,,,,,,,,
1739354692.943172,1739354692.944173,104.000000,0.000000,4267.307617,4281.794922,4280.897461,4296.025879,4226.794922,4237.820313,4193.717773,4253.333496,4198.974121,4160.512695,4504.487305,4451.410156,4331.538574,4452.436035,5631.000000,1.000000,16.000000,,,,0.000000,4.000000,4.000000,4.000000,4.000000,4.000000,4.000000,4.000000,4.000000,4.000000,4.000000,4.000000,4.000000,4.000000,4.000000,100.000000,,,,,,,,,,,,,,,,,26.000000,0.000000,0.413117,0.412537,-0.547974,0.599060,0.948358,-0.309608,0.065926,-37.829819,-30.909725,44.427418,,,,,,,,,,,,,,,,,,,,,,,,,,,,,,,,,,,,,,,,,,,,,,,,,,,,,,,,,,,,,,,,,,,,,,,,,,,,,,,,,,,,,,,,,,,,,,,,,,,,,
1739354692.950980,1739354692.952081,105.000000,0.000000,4285.000000,4307.436035,4293.077148,4310.384766,4239.487305,4250.641113,4206.794922,4243.846191,4207.948730,4166.410156,4514.743652,4460.769043,4348.077148,4469.358887,6621.000000,1.000000,16.000000,,,,0.000000,4.000000,4.000000,4.000000,4.000000,4.000000,4.000000,4.000000,4.000000,4.000000,4.000000,4.000000,4.000000,4.000000,4.000000,100.000000,,,,,,,,,,,,,,,,,,,,,,,,,,,,,,,,,,,,,,,,,,,,,,,,,,,,,,,,,,,,,,,,,,,,,,,,,,,,,,,,,,,,,,,,,,,,,,,,,,,,,,,,,,,,,,,,,,,,,,,,,,,,,,,,,
1739354692.958788,1739354692.959889,106.000000,0.000000,4293.974121,4313.333496,4296.410156,4312.692383,4240.256348,4249.358887,4206.538574,4240.641113,4204.230957,4157.179688,4508.333496,4463.589844,4345.897461,4472.051270,5063.000000,1.000000,16.000000,,,,0.000000,4.000000,4.000000,4.000000,4.000000,4.000000,4.000000,4.000000,4.000000,4.000000,4.000000,4.000000,4.000000,4.000000,4.000000,100.000000,,,,,,,,,,,,,,,,,,,,,,,,,,,,,,,,,,,,,,,,,,,,,,,,,,,,,,,,,,,,2.101837,2.736178,1.586687,2.042649,1.408312,4.656542,2.502811,0.845006,1.781096,1.489231,1.568148,2.369131,1.004017,1.858476,1.264156,0.817696,1.523332,0.592718,1.799427,1.398285,1.374774,0.606628,0.291623,1.172250,1.011420,1.310778,0.453050,0.276552,1.178907,1.044067,2.385017,0.996432,0.302478,1.405218,1.215132,0.478876,0.412163,0.182884,0.283427,0.371099,3.664438,2.050777,0.847908,1.508060,1.172928,4.566081,2.421921,0.897747,1.959635,1.668557,2.959541,1.900741,0.832707,1.536440,1.444179,3.469096,3.414813,1.817666,2.612384,1.856130,3.479649,0.740995,1.262955,1.756008,1.463469,1.596023,2.036375,1.283840,1.839404,1.460610
1739354692.966596,1739354692.967597,107.000000,0.000000,4282.820313,4299.871582,4284.358887,4293.333496,4222.307617,4228.333496,4184.358887,4248.589844,4177.051270,4130.256348,4496.282227,4450.128418,4331.666504,4462.563965,5536.000000,1.000000,16.000000,,,,0.000000,4.000000,4.000000,4.000000,4.000000,4.000000,4.000000,4.000000,4.000000,4.000000,4.000000,4.000000,4.000000,4.000000,4.000000,100.000000,,,,,,,,,,,,,,,,,,,,,,,,,,,,,,,,,,,,,,,,,,,,,,,,,,,,,,,,,,,,,,,,,,,,,,,,,,,,,,,,,,,,,,,,,,,,,,,,,,,,,,,,,,,,,,,,,,,,,,,,,,,,,,,,,
1739354692.974404,1739354692.975405,108.000000,0.000000,4300.641113,4313.974121,4300.384766,4305.897461,4222.948730,4229.743652,4188.589844,4270.256348,4176.794922,4134.102539,4519.487305,4470.641113,4352.051270,4488.077148,5631.000000,1.000000,16.000000,,,,0.000000,4.000000,4.000000,4.000000,4.000000,4.000000,4.000000,4.000000,4.000000,4.000000,4.000000,4.000000,4.000000,4.000000,4.000000,100.000000,,,,,,,,,,,,,,,,,27.000000,0.000000,0.413042,0.412354,-0.548035,0.599182,0.940544,-0.316445,0.057136,-37.730171,-30.802086,44.484676,,,,,,,,,,,,,,,,,,,,,,,,,,,,,,,,,,,,,,,,,,,,,,,,,,,,,,,,,,,,,,,,,,,,,,,,,,,,,,,,,,,,,,,,,,,,,,,,,,,,,
1739354692.982212,1739354692.983113,109.000000,0.000000,4350.897461,4354.102539,4334.871582,4347.179688,4244.871582,4250.128418,4211.922852,4284.615234,4201.410156,4157.563965,4552.563965,4515.000000,4390.897461,4538.205078,6621.000000,1.000000,16.000000,,,,0.000000,4.000000,4.000000,4.000000,4.000000,4.000000,4.000000,4.000000,4.000000,4.000000,4.000000,4.000000,4.000000,4.000000,4.000000,100.000000,,,,,,,,,,,,,,,,,,,,,,,,,,,,,,,,,,,,,,,,,,,,,,,,,,,,,,,,,,,,,,,,,,,,,,,,,,,,,,,,,,,,,,,,,,,,,,,,,,,,,,,,,,,,,,,,,,,,,,,,,,,,,,,,,
1739354692.990020,1739354692.990921,110.000000,0.000000,4395.000000,4386.153809,4346.025879,4362.307617,4252.179688,4255.128418,4210.512695,4276.025879,4201.153809,4161.794922,4561.794922,4528.333496,4423.205078,4575.897461,5063.000000,1.000000,16.000000,,,,0.000000,4.000000,4.000000,4.000000,4.000000,4.000000,4.000000,4.000000,4.000000,4.000000,4.000000,4.000000,4.000000,4.000000,4.000000,100.000000,,,,,,,,,,,,,,,,,,,,,,,,,,,,,,,,,,,,,,,,,,,,,,,,,,,,,,,,,,,,,,,,,,,,,,,,,,,,,,,,,,,,,,,,,,,,,,,,,,,,,,,,,,,,,,,,,,,,,,,,,,,,,,,,,
1739354692.997828,1739354692.998629,111.000000,0.000000,4428.589844,4399.871582,4343.589844,4355.641113,4242.436035,4244.102539,4199.743652,4268.589844,4195.384766,4165.769043,4570.897461,4527.051270,4454.102539,4603.974121,5536.000000,1.000000,16.000000,,,,0.000000,4.000000,4.000000,4.000000,4.000000,4.000000,4.000000,4.000000,4.000000,4.000000,4.000000,4.000000,4.000000,4.000000,4.000000,100.000000,,,,,,,,,,,,,,,,,,,,,,,,,,,,,,,,,,,,,,,,,,,,,,,,,,,,,,,,,,,,,,,,,,,,,,,,,,,,,,,,,,,,,,,,,,,,,,,,,,,,,,,,,,,,,,,,,,,,,,,,,,,,,,,,,
1739354693.005636,1739354693.006437,112.000000,0.000000,4458.589844,4403.974121,4361.410156,4368.333496,4248.974121,4252.307617,4215.769043,4281.410156,4225.769043,4201.282227,4603.974121,4557.820313,4486.025879,4636.794922,5631.000000,1.000000,16.000000,,,,0.000000,4.000000,4.000000,4.000000,4.000000,4.000000,4.000000,4.000000,4.000000,4.000000,4.000000,4.000000,4.000000,4.000000,4.000000,100.000000,,,,,,,,,,,,,,,,,28.000000,0.000000,0.413123,0.412354,-0.547974,0.599182,0.929801,-0.322305,0.069344,-37.840488,-30.988544,44.586208,,,,,,,,,,,,,,,,,,,,,,,,,,,,,,,,,,,,,,,,,,,,,,,,,,,,,,,,,,,,,,,,,,,,,,,,,,,,,,,,,,,,,,,,,,,,,,,,,,,,,
1739354693.013444,1739354693.014145,113.000000,0.000000,4440.897461,4381.153809,4356.666504,4363.589844,4248.589844,4255.256348,4214.871582,4279.358887,4234.358887,4210.256348,4605.897461,4558.717773,4484.871582,4630.641113,6621.000000,1.000000,16.000000,,,,0.000000,4.000000,4.000000,4.000000,4.000000,4.000000,4.000000,4.000000,4.000000,4.000000,4.000000,4.000000,4.000000,4.000000,4.000000,100.000000,,,,,,,,,,,,,,,,,,,,,,,,,,,,,,,,,,,,,,,,,,,,,,,,,,,,,,,,,,,,,,,,,,,,,,,,,,,,,,,,,,,,,,,,,,,,,,,,,,,,,,,,,,,,,,,,,,,,,,,,,,,,,,,,,
1739354693.021253,1739354693.021953,114.000000,0.000000,4393.333496,4346.025879,4325.128418,4329.743652,4228.974121,4234.230957,4190.128418,4262.948730,4206.794922,4180.384766,4571.922852,4515.128418,4457.820313,4589.358887,5063.000000,1.000000,16.000000,,,,0.000000,4.000000,4.000000,4.000000,4.000000,4.000000,4.000000,4.000000,4.000000,4.000000,4.000000,4.000000,4.000000,4.000000,4.000000,100.000000,,,,,,,,,,,,,,,,,,,,,,,,,,,,,,,,,,,,,,,,,,,,,,,,,,,,,,,,,,,,,,,,,,,,,,,,,,,,,,,,,,,,,,,,,,,,,,,,,,,,,,,,,,,,,,,,,,,,,,,,,,,,,,,,,
1739354693.029060,1739354693.029661,115.000000,0.000000,4386.025879,4341.538574,4330.000000,4328.974121,4232.820313,4234.871582,4198.589844,4268.077148,4214.487305,4184.743652,4571.794922,4515.000000,4450.000000,4579.615234,5536.000000,1.000000,16.000000,,,,0.000000,4.000000,4.000000,4.000000,4.000000,4.000000,4.000000,4.000000,4.000000,4.000000,4.000000,4.000000,4.000000,4.000000,4.000000,100.000000,,,,,,,,,,,,,,,,,,,,,,,,,,,,,,,,,,,,,,,,,,,,,,,,,,,,,,,,,,,,,,,,,,,,,,,,,,,,,,,,,,,,,,,,,,,,,,,,,,,,,,,,,,,,,,,,,,,,,,,,,,,,,,,,,
1739354693.036869,1739354693.037469,116.000000,0.000000,4394.102539,4347.307617,4349.487305,4349.102539,4250.897461,4257.051270,4221.282227,4278.717773,4240.897461,4209.230957,4586.410156,4540.512695,4454.358887,4584.615234,5631.000000,1.000000,16.000000,,,,0.000000,4.000000,4.000000,4.000000,4.000000,4.000000,4.000000,4.000000,4.000000,4.000000,4.000000,4.000000,4.000000,4.000000,4.000000,100.000000,,,,,,,,,,,,,,,,,29.000000,0.000000,0.413365,0.412354,-0.547791,0.599182,0.957636,-0.319375,0.060066,-37.873104,-30.956356,44.577587,,,,,,,,,,,,,,,,,,,,,,,,,,,,,,,,,,,,,,,,,,,,,,,,,,,,,,,,,,,,,,,,,,,,,,,,,,,,,,,,,,,,,,,,,,,,,,,,,,,,,
1739354693.044677,1739354693.045178,117.000000,0.000000,4373.077148,4331.282227,4339.743652,4343.974121,4250.641113,4263.589844,4220.769043,4272.436035,4231.410156,4200.769043,4570.256348,4528.205078,4436.922852,4560.897461,6621.000000,1.000000,16.000000,,,,0.000000,4.000000,4.000000,4.000000,4.000000,4.000000,4.000000,4.000000,4.000000,4.000000,4.000000,4.000000,4.000000,4.000000,4.000000,100.000000,,,,,,,,,,,,,,,,,,,,,,,,,,,,,,,,,,,,,,,,,,,,,,,,,,,,,,,,,,,,,,,,,,,,,,,,,,,,,,,,,,,,,,,,,,,,,,,,,,,,,,,,,,,,,,,,,,,,,,,,,,,,,,,,,
1739354693.052485,1739354693.052985,118.000000,0.000000,4325.256348,4295.897461,4306.794922,4309.615234,4228.461426,4237.820313,4195.256348,4256.282227,4192.820313,4158.846191,4528.589844,4479.871582,4390.641113,4510.897461,5063.000000,1.000000,16.000000,,,,0.000000,4.000000,4.000000,4.000000,4.000000,4.000000,4.000000,4.000000,4.000000,4.000000,4.000000,4.000000,4.000000,4.000000,4.000000,100.000000,,,,,,,,,,,,,,,,,,,,,,,,,,,,,,,,,,,,,,,,,,,,,,,,,,,,,,,,,,,,,,,,,,,,,,,,,,,,,,,,,,,,,,,,,,,,,,,,,,,,,,,,,,,,,,,,,,,,,,,,,,,,,,,,,
1739354693.060293,1739354693.060694,119.000000,0.000000,4291.538574,4274.230957,4290.000000,4290.641113,4218.461426,4220.128418,4180.128418,4256.282227,4177.563965,4138.333496,4510.000000,4455.641113,4367.563965,4484.230957,5536.000000,1.000000,16.000000,,,,0.000000,4.000000,4.000000,4.000000,4.000000,4.000000,4.000000,4.000000,4.000000,4.000000,4.000000,4.000000,4.000000,4.000000,4.000000,100.000000,,,,,,,,,,,,,,,,,,,,,,,,,,,,,,,,,,,,,,,,,,,,,,,,,,,,,,,,,,,,,,,,,,,,,,,,,,,,,,,,,,,,,,,,,,,,,,,,,,,,,,,,,,,,,,,,,,,,,,,,,,,,,,,,,
1739354693.068101,1739354693.068602,120.000000,0.000000,4293.077148,4278.333496,4300.384766,4305.256348,4237.563965,4236.922852,4197.948730,4269.487305,4197.948730,4159.615234,4527.692383,4473.589844,4383.461426,4492.948730,5631.000000,1.000000,16.000000,,,,0.000000,4.000000,4.000000,4.000000,4.000000,4.000000,4.000000,4.000000,4.000000,4.000000,4.000000,4.000000,4.000000,4.000000,4.000000,100.000000,,,,,,,,,,,,,,,,,30.000000,0.000000,0.413621,0.412170,-0.547668,0.599243,0.952265,-0.310096,0.065438,-37.669128,-30.694054,44.636497,,,,,,,,,,,,,,,,,,,,,,,,,,,,,,,,,,,,,,,,,,,,,,,,,,,,,,,,,,,,,,,,,,,,,,,,,,,,,,,,,,,,,,,,,,,,,,,,,,,,,
1739354693.075909,1739354693.076410,121.000000,0.000000,4298.077148,4282.051270,4310.384766,4314.487305,4252.563965,4255.000000,4213.717773,4275.384766,4217.051270,4183.846191,4545.512695,4489.230957,4394.743652,4499.487305,6621.000000,1.000000,16.000000,,,,0.000000,4.000000,4.000000,4.000000,4.000000,4.000000,4.000000,4.000000,4.000000,4.000000,4.000000,4.000000,4.000000,4.000000,4.000000,100.000000,,,,,,,,,,,,,,,,,,,,,,,,,,,,,,,,,,,,,,,,,,,,,,,,,,,,,,,,,,,,,,,,,,,,,,,,,,,,,,,,,,,,,,,,,,,,,,,,,,,,,,,,,,,,,,,,,,,,,,,,,,,,,,,,,
1739354693.083717,1739354693.084318,122.000000,0.000000,4280.256348,4268.333496,4299.487305,4300.512695,4241.025879,4247.307617,4206.794922,4272.307617,4215.256348,4186.538574,4542.436035,4479.487305,4382.051270,4486.538574,5063.000000,1.000000,16.000000,,,,0.000000,4.000000,4.000000,4.000000,4.000000,4.000000,4.000000,4.000000,4.000000,4.000000,4.000000,4.000000,4.000000,4.000000,4.000000,100.000000,,,,,,,,,,,,,,,,,,,,,,,,,,,,,,,,,,,,,,,,,,,,,,,,,,,,,,,,,,,,2.034284,2.277379,1.314071,2.168405,1.374489,4.934200,2.252858,0.719013,1.979429,1.451397,1.483562,1.948940,0.814521,1.943897,1.261050,0.931265,1.214442,0.452027,1.966266,1.375348,1.519057,0.511337,0.226011,1.253190,0.959840,1.434444,0.433980,0.235148,1.273796,1.006451,2.691893,1.057983,0.311471,1.460643,1.135657,0.554106,0.329941,0.143186,0.306906,0.376777,3.772098,1.474449,0.608095,1.643258,1.170783,4.563217,1.574955,0.702578,2.019630,1.633586,2.954068,1.210632,0.624418,1.687708,1.405716,3.472832,2.590196,1.288666,2.705394,1.834600,3.708287,0.405442,1.096843,1.745363,1.435945,1.615427,1.663541,1.072924,1.943219,1.436108
1739354693.091525,1739354693.092126,123.000000,0.000000,4255.769043,4253.589844,4284.487305,4285.256348,4227.436035,4233.589844,4193.589844,4266.538574,4209.615234,4176.794922,4532.820313,4467.820313,4362.436035,4469.230957,5536.000000,1.000000,16.000000,,,,0.000000,4.000000,4.000000,4.000000,4.000000,4.000000,4.000000,4.000000,4.000000,4.000000,4.000000,4.000000,4.000000,4.000000,4.000000,100.000000,,,,,,,,,,,,,,,,,,,,,,,,,,,,,,,,,,,,,,,,,,,,,,,,,,,,,,,,,,,,,,,,,,,,,,,,,,,,,,,,,,,,,,,,,,,,,,,,,,,,,,,,,,,,,,,,,,,,,,,,,,,,,,,,,
1739354693.099333,1739354693.100034,124.000000,0.000000,4259.230957,4257.436035,4297.179688,4292.436035,4233.589844,4239.615234,4200.000000,4271.153809,4222.692383,4184.358887,4538.589844,4483.205078,4367.692383,4471.153809,5631.000000,1.000000,16.000000,,,,0.000000,4.000000,4.000000,4.000000,4.000000,4.000000,4.000000,4.000000,4.000000,4.000000,4.000000,4.000000,4.000000,4.000000,4.000000,100.000000,,,,,,,,,,,,,,,,,31.000000,0.000000,0.413755,0.412109,-0.547546,0.599304,0.955195,-0.304725,0.055671,-37.718884,-30.824648,44.672848,,,,,,,,,,,,,,,,,,,,,,,,,,,,,,,,,,,,,,,,,,,,,,,,,,,,,,,,,,,,,,,,,,,,,,,,,,,,,,,,,,,,,,,,,,,,,,,,,,,,,
1739354693.107141,1739354693.107842,125.000000,0.000000,4271.153809,4261.794922,4315.769043,4304.743652,4240.512695,4246.410156,4217.563965,4280.384766,4239.358887,4201.794922,4548.974121,4502.820313,4383.333496,4478.077148,6621.000000,1.000000,16.000000,,,,0.000000,4.000000,4.000000,4.000000,4.000000,4.000000,4.000000,4.000000,4.000000,4.000000,4.000000,4.000000,4.000000,4.000000,4.000000,100.000000,,,,,,,,,,,,,,,,,,,,,,,,,,,,,,,,,,,,,,,,,,,,,,,,,,,,,,,,,,,,,,,,,,,,,,,,,,,,,,,,,,,,,,,,,,,,,,,,,,,,,,,,,,,,,,,,,,,,,,,,,,,,,,,,,
1739354693.114949,1739354693.115750,126.000000,0.000000,4250.128418,4242.563965,4300.128418,4289.358887,4226.666504,4230.641113,4208.846191,4275.000000,4228.974121,4192.563965,4537.820313,4487.820313,4367.307617,4461.410156,5063.000000,1.000000,16.000000,,,,0.000000,4.000000,4.000000,4.000000,4.000000,4.000000,4.000000,4.000000,4.000000,4.000000,4.000000,4.000000,4.000000,4.000000,4.000000,100.000000,,,,,,,,,,,,,,,,,,,,,,,,,,,,,,,,,,,,,,,,,,,,,,,,,,,,,,,,,,,,,,,,,,,,,,,,,,,,,,,,,,,,,,,,,,,,,,,,,,,,,,,,,,,,,,,,,,,,,,,,,,,,,,,,,
1739354693.122758,1739354693.123558,127.000000,0.000000,4227.820313,4227.051270,4276.282227,4269.871582,4212.820313,4217.436035,4188.077148,4266.025879,4207.436035,4167.948730,4518.205078,4461.794922,4343.974121,4442.051270,16.000000,1.000000,16.000000,,,,0.000000,4.000000,4.000000,4.000000,4.000000,4.000000,4.000000,4.000000,4.000000,4.000000,4.000000,4.000000,4.000000,4.000000,4.000000,100.000000,,,,,,,,,,,,,,,,,,,,,,,,,,,,,,,,,,,,,,,,,,,,,,,,,,,,,,,,,,,,,,,,,,,,,,,,,,,,,,,,,,,,,,,,,,,,,,,,,,,,,,,,,,,,,,,,,,,,,,,,,,,,,,,,,
1739354693.130566,1739354693.131466,0.000000,0.000000,4245.384766,4244.615234,4287.948730,4287.563965,4226.282227,4235.512695,4202.051270,4272.436035,4210.512695,4167.948730,4524.358887,4469.230957,4358.717773,4453.974121,5185.000000,1.000000,16.000000,,,,0.000000,4.000000,4.000000,4.000000,4.000000,4.000000,4.000000,4.000000,4.000000,4.000000,4.000000,4.000000,4.000000,4.000000,4.000000,100.000000,,,,,,,,,,,,,,,,,0.000000,0.000000,0.414015,0.411987,-0.547241,0.599487,0.943475,-0.297888,0.063484,-37.813660,-30.942184,44.738895,,,,,,,,,,,,,,,,,,,,,,,,,,,,,,,,,,,,,,,,,,,,,,,,,,,,,,,,,,,,,,,,,,,,,,,,,,,,,,,,,,,,,,,,,,,,,,,,,,,,,
1739354693.138373,1739354693.139274,1.000000,0.000000,4261.025879,4258.077148,4299.487305,4303.333496,4240.256348,4250.000000,4220.512695,4277.051270,4212.692383,4170.769043,4533.333496,4475.384766,4371.666504,4465.769043,5541.000000,1.000000,16.000000,,,,0.000000,4.000000,4.000000,4.000000,4.000000,4.000000,4.000000,4.000000,4.000000,4.000000,4.000000,4.000000,4.000000,4.000000,4.000000,100.000000,,,,,,,,,,,,,,,,,,,,,,,,,,,,,,,,,,,,,,,,,,,,,,,,,,,,,,,,,,,,,,,,,,,,,,,,,,,,,,,,,,,,,,,,,,,,,,,,,,,,,,,,,,,,,,,,,,,,,,,,,,,,,,,,,
1739354693.146182,1739354693.147182,2.000000,0.000000,4244.743652,4247.820313,4281.410156,4285.769043,4233.205078,4237.820313,4206.153809,4268.974121,4195.641113,4153.717773,4517.820313,4456.538574,4355.641113,4452.179688,5566.000000,1.000000,16.000000,,,,0.000000,4.000000,4.000000,4.000000,4.000000,4.000000,4.000000,4.000000,4.000000,4.000000,4.000000,4.000000,4.000000,4.000000,4.000000,100.000000,,,,,,,,,,,,,,,,,,,,,,,,,,,,,,,,,,,,,,,,,,,,,,,,,,,,,,,,,,,,,,,,,,,,,,,,,,,,,,,,,,,,,,,,,,,,,,,,,,,,,,,,,,,,,,,,,,,,,,,,,,,,,,,,,
1739354693.153990,1739354693.154990,3.000000,0.000000,4236.153809,4244.358887,4273.333496,4279.615234,4229.615234,4232.436035,4197.051270,4270.256348,4197.436035,4152.051270,4508.846191,4455.769043,4348.846191,4443.461426,5475.000000,1.000000,16.000000,,,,0.000000,4.000000,4.000000,4.000000,4.000000,4.000000,4.000000,4.000000,4.000000,4.000000,4.000000,4.000000,4.000000,4.000000,4.000000,100.000000,,,,,,,,,,,,,,,,,,,,,,,,,,,,,,,,,,,,,,,,,,,,,,,,,,,,,,,,,,,,,,,,,,,,,,,,,,,,,,,,,,,,,,,,,,,,,,,,,,,,,,,,,,,,,,,,,,,,,,,,,,,,,,,,,
1739354693.161798,1739354693.162698,4.000000,0.000000,4225.512695,4233.589844,4267.307617,4275.128418,4222.436035,4224.487305,4191.025879,4266.922852,4197.307617,4150.128418,4500.512695,4445.256348,4335.897461,4429.487305,5449.000000,1.000000,16.000000,,,,0.000000,4.000000,4.000000,4.000000,4.000000,4.000000,4.000000,4.000000,4.000000,4.000000,4.000000,4.000000,4.000000,4.000000,4.000000,100.000000,,,,,,,,,,,,,,,,,1.000000,0.000000,0.414410,0.411987,-0.546875,0.599548,0.946893,-0.320840,0.065438,-37.765629,-30.964632,44.765007,,,,,,,,,,,,,,,,,,,,,,,,,,,,,,,,,,,,,,,,,,,,,,,,,,,,,,,,,,,,,,,,,,,,,,,,,,,,,,,,,,,,,,,,,,,,,,,,,,,,,
1739354693.169606,1739354693.170506,5.000000,0.000000,4213.846191,4218.205078,4259.102539,4264.358887,4214.358887,4215.384766,4185.128418,4259.358887,4189.615234,4142.692383,4495.897461,4427.820313,4322.948730,4420.256348,5469.000000,1.000000,16.000000,,,,0.000000,4.000000,4.000000,4.000000,4.000000,4.000000,4.000000,4.000000,4.000000,4.000000,4.000000,4.000000,4.000000,4.000000,4.000000,100.000000,,,,,,,,,,,,,,,,,,,,,,,,,,,,,,,,,,,,,,,,,,,,,,,,,,,,,,,,,,,,,,,,,,,,,,,,,,,,,,,,,,,,,,,,,,,,,,,,,,,,,,,,,,,,,,,,,,,,,,,,,,,,,,,,,
1739354693.177414,1739354693.178214,6.000000,0.000000,4238.461426,4238.589844,4281.410156,4286.153809,4229.102539,4235.512695,4207.179688,4272.436035,4207.692383,4162.820313,4519.230957,4457.563965,4347.563965,4447.307617,5437.000000,1.000000,16.000000,,,,0.000000,4.000000,4.000000,4.000000,4.000000,4.000000,4.000000,4.000000,4.000000,4.000000,4.000000,4.000000,4.000000,4.000000,4.000000,100.000000,,,,,,,,,,,,,,,,,,,,,,,,,,,,,,,,,,,,,,,,,,,,,,,,,,,,,,,,,,,,,,,,,,,,,,,,,,,,,,,,,,,,,,,,,,,,,,,,,,,,,,,,,,,,,,,,,,,,,,,,,,,,,,,,,
1739354693.185222,1739354693.186022,7.000000,0.000000,4257.820313,4258.077148,4300.128418,4303.846191,4243.333496,4251.538574,4224.615234,4281.025879,4225.128418,4180.641113,4535.256348,4485.000000,4363.333496,4468.589844,2521.000000,1.000000,16.000000,,,,0.000000,4.000000,4.000000,4.000000,4.000000,4.000000,4.000000,4.000000,4.000000,4.000000,4.000000,4.000000,4.000000,4.000000,4.000000,100.000000,,,,,,,,,,,,,,,,,,,,,,,,,,,,,,,,,,,,,,,,,,,,,,,,,,,,,,,,,,,,,,,,,,,,,,,,,,,,,,,,,,,,,,,,,,,,,,,,,,,,,,,,,,,,,,,,,,,,,,,,,,,,,,,,,
1739354693.193030,1739354693.193730,8.000000,0.000000,4235.512695,4234.615234,4281.153809,4282.179688,4228.846191,4233.974121,4212.563965,4269.871582,4214.615234,4167.692383,4516.538574,4462.051270,4342.563965,4446.153809,5237.000000,1.000000,16.000000,,,,0.000000,4.000000,4.000000,4.000000,4.000000,4.000000,4.000000,4.000000,4.000000,4.000000,4.000000,4.000000,4.000000,4.000000,4.000000,100.000000,,,,,,,,,,,,,,,,,2.000000,0.000000,0.414769,0.411804,-0.546875,0.599426,0.945916,-0.315957,0.061531,-37.839066,-30.968168,44.638504,,,,,,,,,,,,,,,,,,,,,,,,,,,,,,,,,,,,,,,,,,,,,,,,,,,,,,,,,,,,,,,,,,,,,,,,,,,,,,,,,,,,,,,,,,,,,,,,,,,,,
1739354693.200838,1739354693.201538,9.000000,0.000000,4226.794922,4224.871582,4273.205078,4270.384766,4220.769043,4230.384766,4208.461426,4270.641113,4210.641113,4160.128418,4508.461426,4451.282227,4343.077148,4432.820313,5566.000000,1.000000,16.000000,,,,0.000000,4.000000,4.000000,4.000000,4.000000,4.000000,4.000000,4.000000,4.000000,4.000000,4.000000,4.000000,4.000000,4.000000,4.000000,100.000000,,,,,,,,,,,,,,,,,,,,,,,,,,,,,,,,,,,,,,,,,,,,,,,,,,,,,,,,,,,,,,,,,,,,,,,,,,,,,,,,,,,,,,,,,,,,,,,,,,,,,,,,,,,,,,,,,,,,,,,,,,,,,,,,,
1739354693.208646,1739354693.209246,10.000000,0.000000,4233.974121,4235.384766,4278.589844,4274.102539,4227.436035,4239.871582,4209.358887,4274.358887,4212.692383,4163.717773,4511.794922,4458.077148,4353.846191,4441.153809,5030.000000,1.000000,16.000000,,,,0.000000,4.000000,4.000000,4.000000,4.000000,4.000000,4.000000,4.000000,4.000000,4.000000,4.000000,4.000000,4.000000,4.000000,4.000000,100.000000,1.000000,25.000000,1.000000,4.000000,1.000000,4.000000,4.000000,3.000000,3.000000,4.000000,4.000000,3.000000,4.000000,1.000000,3.000000,3.000000,,,,,,,,,,,,,,,,,,,,,,,,,,,,,,,,,,,,,,,,,,,,2.758668,1.951677,1.153631,2.369709,1.310916,6.217066,2.217447,0.799094,2.268352,1.382984,1.430653,1.511836,0.669688,2.093329,1.226401,1.361632,1.012302,0.399672,2.183403,1.308639,1.628605,0.419507,0.223497,1.350190,0.896677,1.501223,0.453628,0.243439,1.409696,0.956672,2.867049,1.173273,0.373062,1.560644,1.044541,0.597527,0.347908,0.127003,0.344146,0.365859,3.490139,1.187176,0.407878,1.818500,1.156283,4.145681,1.155990,0.580800,2.125825,1.563377,2.698331,0.860980,0.483995,1.892411,1.337160,3.276881,2.019184,0.881208,2.886740,1.787513,3.785015,0.379127,0.967307,1.767204,1.383938,2.209940,1.531531,0.946350,2.080866,1.384265
1739354693.216454,1739354693.217154,11.000000,0.000000,4212.563965,4217.051270,4257.436035,4258.589844,4217.051270,4222.692383,4191.025879,4257.436035,4191.666504,4146.922852,4494.743652,4433.461426,4332.563965,4426.794922,5489.000000,1.000000,16.000000,,,,0.000000,4.000000,4.000000,4.000000,4.000000,4.000000,4.000000,4.000000,4.000000,4.000000,4.000000,4.000000,4.000000,4.000000,4.000000,100.000000,,,,,,,,,,,,,,,,,,,,,,,,,,,,,,,,,,,,,,,,,,,,,,,,,,,,,,,,,,,,,,,,,,,,,,,,,,,,,,,,,,,,,,,,,,,,,,,,,,,,,,,,,,,,,,,,,,,,,,,,,,,,,,,,,
1739354693.224262,1739354693.224963,12.000000,0.000000,4204.871582,4206.025879,4248.717773,4257.948730,4209.743652,4212.692383,4185.512695,4251.538574,4182.563965,4139.230957,4492.307617,4422.692383,4331.538574,4417.307617,5582.000000,1.000000,16.000000,,,,0.000000,4.000000,4.000000,4.000000,4.000000,4.000000,4.000000,4.000000,4.000000,4.000000,4.000000,4.000000,4.000000,4.000000,4.000000,100.000000,,,,,,,,,,,,,,,,,3.000000,0.000000,0.414870,0.411621,-0.546936,0.599426,0.939079,-0.313026,0.065926,-37.921825,-31.071352,44.624657,,,,,,,,,,,,,,,,,,,,,,,,,,,,,,,,,,,,,,,,,,,,,,,,,,,,,,,,,,,,,,,,,,,,,,,,,,,,,,,,,,,,,,,,,,,,,,,,,,,,,
1739354693.232071,1739354693.232871,13.000000,0.000000,4232.948730,4230.256348,4273.333496,4282.820313,4224.743652,4229.743652,4199.358887,4267.051270,4199.358887,4160.256348,4517.820313,4451.666504,4363.077148,4439.743652,6568.000000,1.000000,16.000000,,,,0.000000,4.000000,4.000000,4.000000,4.000000,4.000000,4.000000,4.000000,4.000000,4.000000,4.000000,4.000000,4.000000,4.000000,4.000000,100.000000,,,,,,,,,,,,,,,,,,,,,,,,,,,,,,,,,,,,,,,,,,,,,,,,,,,,,,,,,,,,,,,,,,,,,,,,,,,,,,,,,,,,,,,,,,,,,,,,,,,,,,,,,,,,,,,,,,,,,,,,,,,,,,,,,
1739354693.239879,1739354693.240679,14.000000,0.000000,4247.563965,4244.487305,4286.025879,4292.307617,4236.666504,4238.589844,4206.922852,4269.743652,4207.692383,4175.512695,4530.897461,4467.820313,4369.102539,4457.563965,5030.000000,1.000000,16.000000,,,,0.000000,4.000000,4.000000,4.000000,4.000000,4.000000,4.000000,4.000000,4.000000,4.000000,4.000000,4.000000,4.000000,4.000000,4.000000,100.000000,,,,,,,,,,,,,,,,,,,,,,,,,,,,,,,,,,,,,,,,,,,,,,,,,,,,,,,,,,,,,,,,,,,,,,,,,,,,,,,,,,,,,,,,,,,,,,,,,,,,,,,,,,,,,,,,,,,,,,,,,,,,,,,,,
1739354693.247687,1739354693.248587,15.000000,0.000000,4241.666504,4234.871582,4277.307617,4285.641113,4230.512695,4230.512695,4199.230957,4260.000000,4201.282227,4167.820313,4520.897461,4456.538574,4351.025879,4451.666504,5489.000000,1.000000,16.000000,,,,0.000000,4.000000,4.000000,4.000000,4.000000,4.000000,4.000000,4.000000,4.000000,4.000000,4.000000,4.000000,4.000000,4.000000,4.000000,100.000000,,,,,,,,,,,,,,,,,,,,,,,,,,,,,,,,,,,,,,,,,,,,,,,,,,,,,,,,,,,,,,,,,,,,,,,,,,,,,,,,,,,,,,,,,,,,,,,,,,,,,,,,,,,,,,,,,,,,,,,,,,,,,,,,,
1739354693.255495,1739354693.256395,16.000000,0.000000,4239.102539,4230.641113,4276.666504,4283.205078,4227.179688,4227.563965,4195.897461,4261.794922,4197.820313,4161.538574,4515.256348,4451.410156,4349.358887,4446.025879,0.000000,1.000000,16.000000,,,,0.000000,4.000000,4.000000,4.000000,4.000000,4.000000,4.000000,4.000000,4.000000,4.000000,4.000000,4.000000,4.000000,4.000000,4.000000,100.000000,,,,,,,,,,,,,,,,,4.000000,0.000000,0.414998,0.411743,-0.546814,0.599365,0.948846,-0.309120,0.077646,-37.912975,-31.080883,44.495522,,,,,,,,,,,,,,,,,,,,,,,,,,,,,,,,,,,,,,,,,,,,,,,,,,,,,,,,,,,,,,,,,,,,,,,,,,,,,,,,,,,,,,,,,,,,,,,,,,,,,
1739354693.263303,1739354693.264203,17.000000,0.000000,4244.102539,4238.717773,4286.410156,4288.205078,4237.563965,4238.717773,4213.461426,4273.077148,4207.563965,4173.974121,4524.102539,4465.128418,4358.974121,4452.051270,0.000000,1.000000,16.000000,,,,0.000000,4.000000,4.000000,4.000000,4.000000,4.000000,4.000000,4.000000,4.000000,4.000000,4.000000,4.000000,4.000000,4.000000,4.000000,100.000000,,,,,,,,,,,,,,,,,,,,,,,,,,,,,,,,,,,,,,,,,,,,,,,,,,,,,,,,,,,,,,,,,,,,,,,,,,,,,,,,,,,,,,,,,,,,,,,,,,,,,,,,,,,,,,,,,,,,,,,,,,,,,,,,,
1739354693.271111,1739354693.271911,18.000000,0.000000,4235.128418,4232.948730,4279.102539,4280.384766,4231.282227,4236.025879,4216.025879,4268.589844,4206.025879,4171.282227,4514.358887,4456.922852,4348.077148,4444.102539,0.000000,1.000000,16.000000,,,,0.000000,4.000000,4.000000,4.000000,4.000000,4.000000,4.000000,4.000000,4.000000,4.000000,4.000000,4.000000,4.000000,4.000000,4.000000,100.000000,,,,,,,,,,,,,,,,,,,,,,,,,,,,,,,,,,,,,,,,,,,,,,,,,,,,,,,,,,,,,,,,,,,,,,,,,,,,,,,,,,,,,,,,,,,,,,,,,,,,,,,,,,,,,,,,,,,,,,,,,,,,,,,,,
1739354693.278919,1739354693.279820,19.000000,0.000000,4216.794922,4210.641113,4260.641113,4262.436035,4212.563965,4216.922852,4197.179688,4255.897461,4189.487305,4147.948730,4494.230957,4431.025879,4328.333496,4424.871582,0.000000,1.000000,16.000000,,,,0.000000,4.000000,4.000000,4.000000,4.000000,4.000000,4.000000,4.000000,4.000000,4.000000,4.000000,4.000000,4.000000,4.000000,4.000000,100.000000,,,,,,,,,,,,,,,,,,,,,,,,,,,,,,,,,,,,,,,,,,,,,,,,,,,,,,,,,,,,,,,,,,,,,,,,,,,,,,,,,,,,,,,,,,,,,,,,,,,,,,,,,,,,,,,,,,,,,,,,,,,,,,,,,
1739354693.286727,1739354693.287628,20.000000,0.000000,4217.692383,4209.871582,4262.307617,4262.179688,4215.512695,4219.487305,4199.743652,4260.897461,4188.205078,4148.077148,4498.461426,4436.153809,4332.563965,4426.410156,0.000000,1.000000,16.000000,,,,0.000000,4.000000,4.000000,4.000000,4.000000,4.000000,4.000000,4.000000,4.000000,4.000000,4.000000,4.000000,4.000000,4.000000,4.000000,100.000000,,,,,,,,,,,,,,,,,5.000000,0.000000,0.415320,0.411743,-0.546570,0.599365,0.967892,-0.305701,0.077158,-37.788345,-31.106129,44.512638,,,,,,,,,,,,,,,,,,,,,,,,,,,,,,,,,,,,,,,,,,,,,,,,,,,,,,,,,,,,,,,,,,,,,,,,,,,,,,,,,,,,,,,,,,,,,,,,,,,,,
1739354693.294535,1739354693.295536,21.000000,0.000000,4236.153809,4231.538574,4281.410156,4281.538574,4235.769043,4244.230957,4224.615234,4271.282227,4205.000000,4169.871582,4516.538574,4460.897461,4352.051270,4446.025879,0.000000,1.000000,16.000000,,,,0.000000,4.000000,4.000000,4.000000,4.000000,4.000000,4.000000,4.000000,4.000000,4.000000,4.000000,4.000000,4.000000,4.000000,4.000000,100.000000,,,,,,,,,,,,,,,,,,,,,,,,,,,,,,,,,,,,,,,,,,,,,,,,,,,,,,,,,,,,,,,,,,,,,,,,,,,,,,,,,,,,,,,,,,,,,,,,,,,,,,,,,,,,,,,,,,,,,,,,,,,,,,,,,
1739354693.302343,1739354693.303344,22.000000,0.000000,4234.871582,4227.436035,4280.769043,4285.641113,4234.871582,4243.333496,4220.641113,4264.230957,4206.153809,4163.846191,4509.102539,4453.205078,4347.436035,4444.871582,0.000000,1.000000,16.000000,,,,0.000000,4.000000,4.000000,4.000000,4.000000,4.000000,4.000000,4.000000,4.000000,4.000000,4.000000,4.000000,4.000000,4.000000,4.000000,100.000000,,,,,,,,,,,,,,,,,,,,,,,,,,,,,,,,,,,,,,,,,,,,,,,,,,,,,,,,,,,,,,,,,,,,,,,,,,,,,,,,,,,,,,,,,,,,,,,,,,,,,,,,,,,,,,,,,,,,,,,,,,,,,,,,,
1739354693.310151,1739354693.311251,23.000000,0.000000,4221.153809,4209.743652,4264.615234,4270.256348,4220.000000,4223.333496,4194.871582,4256.410156,4189.102539,4141.410156,4491.538574,4428.846191,4327.051270,4426.282227,0.000000,1.000000,16.000000,,,,0.000000,4.000000,4.000000,4.000000,4.000000,4.000000,4.000000,4.000000,4.000000,4.000000,4.000000,4.000000,4.000000,4.000000,4.000000,100.000000,,,,,,,,,,,,,,,,,,,,,,,,,,,,,,,,,,,,,,,,,,,,,,,,,,,,,,,,,,,,,,,,,,,,,,,,,,,,,,,,,,,,,,,,,,,,,,,,,,,,,,,,,,,,,,,,,,,,,,,,,,,,,,,,,
1739354693.317959,1739354693.319059,24.000000,0.000000,4241.153809,4230.769043,4274.871582,4280.512695,4232.051270,4232.820313,4201.025879,4264.102539,4200.128418,4160.641113,4510.769043,4448.589844,4340.512695,4439.358887,0.000000,1.000000,16.000000,,,,0.000000,4.000000,4.000000,4.000000,4.000000,4.000000,4.000000,4.000000,4.000000,4.000000,4.000000,4.000000,4.000000,4.000000,4.000000,100.000000,,,,,,,,,,,,,,,,,6.000000,0.000000,0.415458,0.411499,-0.546448,0.599548,0.947381,-0.310096,0.071786,-37.609509,-31.195515,44.511372,,,,,,,,,,,,,,,,,,,,,,,,,,,,,,,,,,,,,,,,,,,,,,,,,,,,,,,,,,,,,,,,,,,,,,,,,,,,,,,,,,,,,,,,,,,,,,,,,,,,,
1739354693.325767,1739354693.326967,25.000000,0.000000,4253.205078,4240.897461,4284.102539,4286.282227,4234.487305,4236.282227,4207.563965,4263.333496,4211.410156,4177.436035,4523.589844,4462.563965,4354.743652,4453.461426,0.000000,1.000000,16.000000,,,,0.000000,4.000000,4.000000,4.000000,4.000000,4.000000,4.000000,4.000000,4.000000,4.000000,4.000000,4.000000,4.000000,4.000000,4.000000,100.000000,,,,,,,,,,,,,,,,,,,,,,,,,,,,,,,,,,,,,,,,,,,,,,,,,,,,,,,,,,,,,,,,,,,,,,,,,,,,,,,,,,,,,,,,,,,,,,,,,,,,,,,,,,,,,,,,,,,,,,,,,,,,,,,,,
1739354693.333576,1739354693.334775,26.000000,0.000000,4239.102539,4218.717773,4274.487305,4267.563965,4214.871582,4219.102539,4197.436035,4260.128418,4196.666504,4163.589844,4511.153809,4446.153809,4344.487305,4443.461426,0.000000,1.000000,16.000000,,,,0.000000,4.000000,4.000000,4.000000,4.000000,4.000000,4.000000,4.000000,4.000000,4.000000,4.000000,4.000000,4.000000,4.000000,4.000000,100.000000,,,,,,,,,,,,,,,,,,,,,,,,,,,,,,,,,,,,,,,,,,,,,,,,,,,,,,,,,,,,5.924436,2.129775,1.214097,2.652271,1.233182,9.616543,2.624205,1.105393,2.626395,1.301979,1.646490,1.166936,0.568752,2.285681,1.162212,2.375338,0.969508,0.442562,2.436853,1.218754,1.711570,0.324867,0.260029,1.454180,0.835265,1.512814,0.498874,0.277660,1.573875,0.902759,2.874604,1.286411,0.437697,1.689952,0.955463,0.609768,0.484800,0.145904,0.397589,0.344097,2.876305,1.306714,0.254793,1.997079,1.129213,3.425874,1.257279,0.507048,2.262752,1.460313,2.443563,0.998968,0.396024,2.105330,1.250228,3.218569,1.951810,0.615609,3.119599,1.715705,4.408251,0.854810,0.906511,1.838210,1.317012,4.744356,2.005333,0.962594,2.246364,1.316947
1739354693.341384,1739354693.342483,27.000000,0.000000,4256.025879,4231.153809,4288.589844,4277.179688,4224.615234,4231.922852,4213.461426,4271.922852,4208.461426,4178.077148,4528.205078,4464.871582,4360.641113,4459.487305,0.000000,1.000000,16.000000,,,,0.000000,4.000000,4.000000,4.000000,4.000000,4.000000,4.000000,4.000000,4.000000,4.000000,4.000000,4.000000,4.000000,4.000000,4.000000,100.000000,,,,,,,,,,,,,,,,,,,,,,,,,,,,,,,,,,,,,,,,,,,,,,,,,,,,,,,,,,,,,,,,,,,,,,,,,,,,,,,,,,,,,,,,,,,,,,,,,,,,,,,,,,,,,,,,,,,,,,,,,,,,,,,,,
1739354693.349192,1739354693.350291,28.000000,0.000000,4284.615234,4260.000000,4315.256348,4301.282227,4250.000000,4255.000000,4239.102539,4277.179688,4234.358887,4208.589844,4558.589844,4497.051270,4390.256348,4489.102539,0.000000,1.000000,16.000000,,,,0.000000,4.000000,4.000000,4.000000,4.000000,4.000000,4.000000,4.000000,4.000000,4.000000,4.000000,4.000000,4.000000,4.000000,4.000000,100.000000,,,,,,,,,,,,,,,,,7.000000,0.000000,0.415433,0.411621,-0.546509,0.599426,0.934684,-0.307166,0.069833,-37.581894,-31.059298,44.510235,,,,,,,,,,,,,,,,,,,,,,,,,,,,,,,,,,,,,,,,,,,,,,,,,,,,,,,,,,,,,,,,,,,,,,,,,,,,,,,,,,,,,,,,,,,,,,,,,,,,,
1739354693.357000,1739354693.357999,29.000000,0.000000,4283.333496,4257.692383,4316.410156,4298.205078,4252.948730,4253.077148,4236.153809,4272.948730,4233.333496,4214.230957,4561.410156,4496.794922,4394.487305,4490.128418,0.000000,1.000000,16.000000,,,,0.000000,4.000000,4.000000,4.000000,4.000000,4.000000,4.000000,4.000000,4.000000,4.000000,4.000000,4.000000,4.000000,4.000000,4.000000,100.000000,,,,,,,,,,,,,,,,,,,,,,,,,,,,,,,,,,,,,,,,,,,,,,,,,,,,,,,,,,,,,,,,,,,,,,,,,,,,,,,,,,,,,,,,,,,,,,,,,,,,,,,,,,,,,,,,,,,,,,,,,,,,,,,,,
1739354693.364808,1739354693.365807,30.000000,0.000000,4276.794922,4247.563965,4310.000000,4291.282227,4242.179688,4245.512695,4227.948730,4273.974121,4226.282227,4214.358887,4557.563965,4491.538574,4389.615234,4483.717773,0.000000,1.000000,16.000000,,,,0.000000,4.000000,4.000000,4.000000,4.000000,4.000000,4.000000,4.000000,4.000000,4.000000,4.000000,4.000000,4.000000,4.000000,4.000000,100.000000,,,,,,,,,,,,,,,,,,,,,,,,,,,,,,,,,,,,,,,,,,,,,,,,,,,,,,,,,,,,,,,,,,,,,,,,,,,,,,,,,,,,,,,,,,,,,,,,,,,,,,,,,,,,,,,,,,,,,,,,,,,,,,,,,
1739354693.372616,1739354693.373515,31.000000,0.000000,4277.563965,4247.563965,4311.666504,4293.461426,4235.384766,4246.538574,4230.384766,4276.666504,4230.897461,4213.846191,4557.179688,4496.025879,4386.666504,4486.666504,0.000000,1.000000,16.000000,,,,0.000000,4.000000,4.000000,4.000000,4.000000,4.000000,4.000000,4.000000,4.000000,4.000000,4.000000,4.000000,4.000000,4.000000,4.000000,100.000000,,,,,,,,,,,,,,,,,,,,,,,,,,,,,,,,,,,,,,,,,,,,,,,,,,,,,,,,,,,,,,,,,,,,,,,,,,,,,,,,,,,,,,,,,,,,,,,,,,,,,,,,,,,,,,,,,,,,,,,,,,,,,,,,,
1739354693.380424,1739354693.381424,32.000000,0.000000,4272.692383,4249.871582,4308.717773,4289.102539,4235.384766,4247.820313,4228.717773,4277.307617,4234.487305,4207.051270,4549.615234,4491.538574,4380.000000,4482.948730,0.000000,1.000000,16.000000,,,,0.000000,4.000000,4.000000,4.000000,4.000000,4.000000,4.000000,4.000000,4.000000,4.000000,4.000000,4.000000,4.000000,4.000000,4.000000,100.000000,,,,,,,,,,,,,,,,,8.000000,0.000000,0.415266,0.412048,-0.546448,0.599304,0.941521,-0.310585,0.071786,-37.607037,-31.153368,44.559212,,,,,,,,,,,,,,,,,,,,,,,,,,,,,,,,,,,,,,,,,,,,,,,,,,,,,,,,,,,,,,,,,,,,,,,,,,,,,,,,,,,,,,,,,,,,,,,,,,,,,
1739354693.388232,1739354693.389232,33.000000,0.000000,4266.794922,4247.820313,4300.000000,4282.307617,4234.871582,4245.769043,4221.922852,4275.897461,4232.820313,4202.436035,4540.641113,4477.436035,4370.256348,4472.179688,0.000000,1.000000,16.000000,,,,0.000000,4.000000,4.000000,4.000000,4.000000,4.000000,4.000000,4.000000,4.000000,4.000000,4.000000,4.000000,4.000000,4.000000,4.000000,100.000000,,,,,,,,,,,,,,,,,,,,,,,,,,,,,,,,,,,,,,,,,,,,,,,,,,,,,,,,,,,,,,,,,,,,,,,,,,,,,,,,,,,,,,,,,,,,,,,,,,,,,,,,,,,,,,,,,,,,,,,,,,,,,,,,,
1739354693.396040,1739354693.397040,34.000000,0.000000,4245.641113,4228.461426,4280.256348,4269.102539,4218.589844,4229.358887,4202.179688,4267.820313,4214.615234,4183.461426,4518.205078,4449.358887,4348.717773,4448.974121,0.000000,1.000000,16.000000,,,,0.000000,4.000000,4.000000,4.000000,4.000000,4.000000,4.000000,4.000000,4.000000,4.000000,4.000000,4.000000,4.000000,4.000000,4.000000,100.000000,,,,,,,,,,,,,,,,,,,,,,,,,,,,,,,,,,,,,,,,,,,,,,,,,,,,,,,,,,,,,,,,,,,,,,,,,,,,,,,,,,,,,,,,,,,,,,,,,,,,,,,,,,,,,,,,,,,,,,,,,,,,,,,,,
1739354693.403848,1739354693.404748,35.000000,0.000000,4236.922852,4222.436035,4272.692383,4263.974121,4213.846191,4223.717773,4195.769043,4267.051270,4200.769043,4170.512695,4511.538574,4438.974121,4345.000000,4440.897461,0.000000,1.000000,16.000000,,,,0.000000,4.000000,4.000000,4.000000,4.000000,4.000000,4.000000,4.000000,4.000000,4.000000,4.000000,4.000000,4.000000,4.000000,4.000000,100.000000,,,,,,,,,,,,,,,,,,,,,,,,,,,,,,,,,,,,,,,,,,,,,,,,,,,,,,,,,,,,,,,,,,,,,,,,,,,,,,,,,,,,,,,,,,,,,,,,,,,,,,,,,,,,,,,,,,,,,,,,,,,,,,,,,
1739354693.411656,1739354693.412556,36.000000,0.000000,4271.538574,4255.128418,4298.333496,4289.743652,4240.000000,4250.641113,4225.769043,4277.820313,4224.487305,4197.563965,4546.153809,4472.820313,4377.436035,4469.230957,0.000000,1.000000,16.000000,,,,0.000000,4.000000,4.000000,4.000000,4.000000,4.000000,4.000000,4.000000,4.000000,4.000000,4.000000,4.000000,4.000000,4.000000,4.000000,100.000000,,,,,,,,,,,,,,,,,9.000000,0.000000,0.415170,0.412476,-0.546265,0.599243,0.946893,-0.315957,0.073739,-37.579666,-31.104698,44.436626,,,,,,,,,,,,,,,,,,,,,,,,,,,,,,,,,,,,,,,,,,,,,,,,,,,,,,,,,,,,,,,,,,,,,,,,,,,,,,,,,,,,,,,,,,,,,,,,,,,,,
1739354693.419464,1739354693.420264,37.000000,0.000000,4284.358887,4266.410156,4308.205078,4302.307617,4246.282227,4260.769043,4237.692383,4277.820313,4235.512695,4209.102539,4554.871582,4485.000000,4383.974121,4475.384766,0.000000,1.000000,16.000000,,,,0.000000,4.000000,4.000000,4.000000,4.000000,4.000000,4.000000,4.000000,4.000000,4.000000,4.000000,4.000000,4.000000,4.000000,4.000000,100.000000,,,,,,,,,,,,,,,,,,,,,,,,,,,,,,,,,,,,,,,,,,,,,,,,,,,,,,,,,,,,,,,,,,,,,,,,,,,,,,,,,,,,,,,,,,,,,,,,,,,,,,,,,,,,,,,,,,,,,,,,,,,,,,,,,
1739354693.427272,1739354693.428072,38.000000,0.000000,4261.794922,4245.897461,4292.692383,4288.589844,4231.025879,4246.922852,4219.487305,4271.153809,4217.436035,4193.717773,4533.717773,4469.871582,4371.538574,4459.102539,0.000000,1.000000,16.000000,,,,0.000000,4.000000,4.000000,4.000000,4.000000,4.000000,4.000000,4.000000,4.000000,4.000000,4.000000,4.000000,4.000000,4.000000,4.000000,100.000000,,,,,,,,,,,,,,,,,,,,,,,,,,,,,,,,,,,,,,,,,,,,,,,,,,,,,,,,,,,,,,,,,,,,,,,,,,,,,,,,,,,,,,,,,,,,,,,,,,,,,,,,,,,,,,,,,,,,,,,,,,,,,,,,,
1739354693.435081,1739354693.435780,39.000000,0.000000,4262.307617,4243.974121,4292.436035,4287.051270,4230.641113,4244.102539,4216.538574,4269.743652,4214.615234,4194.102539,4537.820313,4472.051270,4381.025879,4463.461426,0.000000,1.000000,16.000000,,,,0.000000,4.000000,4.000000,4.000000,4.000000,4.000000,4.000000,4.000000,4.000000,4.000000,4.000000,4.000000,4.000000,4.000000,4.000000,100.000000,,,,,,,,,,,,,,,,,,,,,,,,,,,,,,,,,,,,,,,,,,,,,,,,,,,,,,,,,,,,,,,,,,,,,,,,,,,,,,,,,,,,,,,,,,,,,,,,,,,,,,,,,,,,,,,,,,,,,,,,,,,,,,,,,
1739354693.442889,1739354693.443688,40.000000,0.000000,4267.307617,4248.333496,4296.794922,4287.307617,4232.563965,4244.871582,4220.512695,4265.897461,4216.153809,4190.641113,4541.025879,4467.692383,4376.794922,4462.179688,0.000000,1.000000,16.000000,,,,0.000000,4.000000,4.000000,4.000000,4.000000,4.000000,4.000000,4.000000,4.000000,4.000000,4.000000,4.000000,4.000000,4.000000,4.000000,100.000000,,,,,,,,,,,,,,,,,10.000000,0.000000,0.415437,0.412781,-0.545898,0.599182,0.953241,-0.308631,0.071786,-37.421700,-31.027561,44.492962,,,,,,,,,,,,,,,,,,,,,,,,,,,,,,,,,,,,,,,,,,,,,,,,,,,,,,,,,,,,,,,,,,,,,,,,,,,,,,,,,,,,,,,,,,,,,,,,,,,,,
1739354693.450697,1739354693.451496,41.000000,0.000000,4260.384766,4243.974121,4295.769043,4282.820313,4233.717773,4247.820313,4220.769043,4267.307617,4217.820313,4188.333496,4535.256348,4463.333496,4366.794922,4458.333496,0.000000,1.000000,16.000000,,,,0.000000,4.000000,4.000000,4.000000,4.000000,4.000000,4.000000,4.000000,4.000000,4.000000,4.000000,4.000000,4.000000,4.000000,4.000000,100.000000,,,,,,,,,,,,,,,,,,,,,,,,,,,,,,,,,,,,,,,,,,,,,,,,,,,,,,,,,,,,,,,,,,,,,,,,,,,,,,,,,,,,,,,,,,,,,,,,,,,,,,,,,,,,,,,,,,,,,,,,,,,,,,,,,
1739354693.458505,1739354693.459405,42.000000,0.000000,4261.025879,4237.179688,4295.384766,4280.384766,4229.615234,4243.205078,4217.307617,4268.717773,4217.563965,4198.205078,4537.692383,4471.538574,4371.666504,4462.820313,0.000000,1.000000,16.000000,,,,0.000000,4.000000,4.000000,4.000000,4.000000,4.000000,4.000000,4.000000,4.000000,4.000000,4.000000,4.000000,4.000000,4.000000,4.000000,100.000000,,,,,,,,,,,,,,,,,,,,,,,,,,,,,,,,,,,,,,,,,,,,,,,,,,,,,,,,,,,,13.139346,3.212230,1.561834,2.985706,1.173201,15.807580,3.607102,1.604253,2.991899,1.230093,2.341468,1.074760,0.515770,2.463150,1.092101,4.085647,1.144202,0.579467,2.677539,1.142578,1.782892,0.247254,0.320999,1.545433,0.792479,1.475654,0.549009,0.327395,1.738017,0.861532,2.726943,1.350828,0.483925,1.817159,0.889497,0.606561,0.722183,0.207110,0.464664,0.323560,2.126513,1.866768,0.184788,2.121930,1.104066,2.636893,1.890664,0.513861,2.386070,1.348324,2.517373,1.755354,0.366318,2.270141,1.169240,3.664098,2.621905,0.490589,3.328321,1.646235,6.451866,2.080069,0.958782,1.944545,1.256261,10.566498,3.481554,1.183291,2.416129,1.255571
1739354693.466313,1739354693.467213,43.000000,0.000000,4259.615234,4227.051270,4290.641113,4273.461426,4214.102539,4222.563965,4203.205078,4259.871582,4202.692383,4188.846191,4530.384766,4466.666504,4366.538574,4455.384766,0.000000,1.000000,16.000000,,,,0.000000,4.000000,4.000000,4.000000,4.000000,4.000000,4.000000,4.000000,4.000000,4.000000,4.000000,4.000000,4.000000,4.000000,4.000000,100.000000,,,,,,,,,,,,,,,,,,,,,,,,,,,,,,,,,,,,,,,,,,,,,,,,,,,,,,,,,,,,,,,,,,,,,,,,,,,,,,,,,,,,,,,,,,,,,,,,,,,,,,,,,,,,,,,,,,,,,,,,,,,,,,,,,
1739354693.474121,1739354693.475121,44.000000,0.000000,4271.922852,4237.820313,4302.692383,4286.922852,4223.205078,4228.205078,4209.615234,4263.974121,4209.615234,4189.230957,4540.000000,4478.205078,4377.436035,4465.128418,0.000000,1.000000,16.000000,,,,0.000000,4.000000,4.000000,4.000000,4.000000,4.000000,4.000000,4.000000,4.000000,4.000000,4.000000,4.000000,4.000000,4.000000,4.000000,100.000000,,,,,,,,,,,,,,,,,11.000000,0.000000,0.415517,0.412781,-0.545837,0.599182,0.956171,-0.303748,0.065438,-37.479530,-30.974806,44.476997,,,,,,,,,,,,,,,,,,,,,,,,,,,,,,,,,,,,,,,,,,,,,,,,,,,,,,,,,,,,,,,,,,,,,,,,,,,,,,,,,,,,,,,,,,,,,,,,,,,,,
1739354693.481929,1739354693.482929,45.000000,0.000000,4289.871582,4256.025879,4321.153809,4307.948730,4244.102539,4252.948730,4228.846191,4276.666504,4230.641113,4209.102539,4559.487305,4501.282227,4401.410156,4486.153809,0.000000,1.000000,16.000000,,,,0.000000,4.000000,4.000000,4.000000,4.000000,4.000000,4.000000,4.000000,4.000000,4.000000,4.000000,4.000000,4.000000,4.000000,4.000000,100.000000,,,,,,,,,,,,,,,,,,,,,,,,,,,,,,,,,,,,,,,,,,,,,,,,,,,,,,,,,,,,,,,,,,,,,,,,,,,,,,,,,,,,,,,,,,,,,,,,,,,,,,,,,,,,,,,,,,,,,,,,,,,,,,,,,
1739354693.489737,1739354693.490837,46.000000,0.000000,4276.538574,4248.077148,4310.384766,4300.256348,4237.563965,4248.205078,4221.538574,4270.769043,4219.743652,4199.743652,4543.717773,4482.820313,4389.102539,4473.333496,0.000000,1.000000,16.000000,,,,0.000000,4.000000,4.000000,4.000000,4.000000,4.000000,4.000000,4.000000,4.000000,4.000000,4.000000,4.000000,4.000000,4.000000,4.000000,100.000000,,,,,,,,,,,,,,,,,,,,,,,,,,,,,,,,,,,,,,,,,,,,,,,,,,,,,,,,,,,,,,,,,,,,,,,,,,,,,,,,,,,,,,,,,,,,,,,,,,,,,,,,,,,,,,,,,,,,,,,,,,,,,,,,,
1739354693.497545,1739354693.498645,47.000000,0.000000,4260.512695,4238.846191,4295.897461,4289.871582,4229.487305,4238.974121,4212.948730,4262.948730,4209.615234,4182.563965,4527.051270,4463.333496,4371.922852,4456.153809,0.000000,1.000000,16.000000,,,,0.000000,4.000000,4.000000,4.000000,4.000000,4.000000,4.000000,4.000000,4.000000,4.000000,4.000000,4.000000,4.000000,4.000000,4.000000,100.000000,,,,,,,,,,,,,,,,,,,,,,,,,,,,,,,,,,,,,,,,,,,,,,,,,,,,,,,,,,,,,,,,,,,,,,,,,,,,,,,,,,,,,,,,,,,,,,,,,,,,,,,,,,,,,,,,,,,,,,,,,,,,,,,,,
1739354693.505353,1739354693.506553,48.000000,0.000000,4266.025879,4246.153809,4297.179688,4294.358887,4236.794922,4248.717773,4220.641113,4269.871582,4221.666504,4187.692383,4537.820313,4471.153809,4377.179688,4462.692383,0.000000,1.000000,16.000000,,,,0.000000,4.000000,4.000000,4.000000,4.000000,4.000000,4.000000,4.000000,4.000000,4.000000,4.000000,4.000000,4.000000,4.000000,4.000000,100.000000,,,,,,,,,,,,,,,,,12.000000,0.000000,0.415712,0.412842,-0.545776,0.599060,0.961543,-0.305701,0.065926,-37.448242,-30.927324,44.462631,,,,,,,,,,,,,,,,,,,,,,,,,,,,,,,,,,,,,,,,,,,,,,,,,,,,,,,,,,,,,,,,,,,,,,,,,,,,,,,,,,,,,,,,,,,,,,,,,,,,,
1739354693.513161,1739354693.514361,49.000000,0.000000,4267.692383,4250.000000,4296.282227,4294.615234,4236.025879,4252.051270,4222.307617,4271.153809,4221.025879,4189.487305,4541.153809,4467.948730,4373.333496,4464.230957,0.000000,1.000000,16.000000,,,,0.000000,4.000000,4.000000,4.000000,4.000000,4.000000,4.000000,4.000000,4.000000,4.000000,4.000000,4.000000,4.000000,4.000000,4.000000,100.000000,,,,,,,,,,,,,,,,,,,,,,,,,,,,,,,,,,,,,,,,,,,,,,,,,,,,,,,,,,,,,,,,,,,,,,,,,,,,,,,,,,,,,,,,,,,,,,,,,,,,,,,,,,,,,,,,,,,,,,,,,,,,,,,,,
1739354693.520970,1739354693.522069,50.000000,0.000000,4261.282227,4242.948730,4294.871582,4289.487305,4229.615234,4244.615234,4217.436035,4264.743652,4216.666504,4190.128418,4532.820313,4460.641113,4365.641113,4459.743652,0.000000,1.000000,16.000000,,,,0.000000,4.000000,4.000000,4.000000,4.000000,4.000000,4.000000,4.000000,4.000000,4.000000,4.000000,4.000000,4.000000,4.000000,4.000000,100.000000,,,,,,,,,,,,,,,,,,,,,,,,,,,,,,,,,,,,,,,,,,,,,,,,,,,,,,,,,,,,,,,,,,,,,,,,,,,,,,,,,,,,,,,,,,,,,,,,,,,,,,,,,,,,,,,,,,,,,,,,,,,,,,,,,
1739354693.528777,1739354693.529877,51.000000,0.000000,4263.077148,4240.128418,4303.077148,4291.922852,4231.666504,4243.333496,4217.948730,4268.589844,4229.615234,4200.000000,4537.179688,4471.538574,4372.948730,4465.512695,0.000000,1.000000,16.000000,,,,0.000000,4.000000,4.000000,4.000000,4.000000,4.000000,4.000000,4.000000,4.000000,4.000000,4.000000,4.000000,4.000000,4.000000,4.000000,100.000000,,,,,,,,,,,,,,,,,,,,,,,,,,,,,,,,,,,,,,,,,,,,,,,,,,,,,,,,,,,,,,,,,,,,,,,,,,,,,,,,,,,,,,,,,,,,,,,,,,,,,,,,,,,,,,,,,,,,,,,,,,,,,,,,,
1739354693.536585,1739354693.537585,52.000000,0.000000,4271.410156,4251.153809,4313.846191,4303.205078,4237.436035,4248.589844,4222.179688,4273.205078,4236.538574,4207.307617,4546.282227,4484.487305,4383.461426,4473.461426,0.000000,1.000000,16.000000,,,,0.000000,4.000000,4.000000,4.000000,4.000000,4.000000,4.000000,4.000000,4.000000,4.000000,4.000000,4.000000,4.000000,4.000000,4.000000,100.000000,,,,,,,,,,,,,,,,,13.000000,0.000000,0.415751,0.412964,-0.545654,0.599060,0.935173,-0.293981,0.072763,-37.486752,-30.867926,44.516369,,,,,,,,,,,,,,,,,,,,,,,,,,,,,,,,,,,,,,,,,,,,,,,,,,,,,,,,,,,,,,,,,,,,,,,,,,,,,,,,,,,,,,,,,,,,,,,,,,,,,
1739354693.544394,1739354693.545393,53.000000,0.000000,4265.000000,4244.487305,4304.102539,4298.461426,4230.384766,4237.436035,4212.692383,4263.077148,4218.205078,4196.410156,4537.051270,4472.692383,4377.563965,4464.487305,0.000000,1.000000,16.000000,,,,0.000000,4.000000,4.000000,4.000000,4.000000,4.000000,4.000000,4.000000,4.000000,4.000000,4.000000,4.000000,4.000000,4.000000,4.000000,100.000000,,,,,,,,,,,,,,,,,,,,,,,,,,,,,,,,,,,,,,,,,,,,,,,,,,,,,,,,,,,,,,,,,,,,,,,,,,,,,,,,,,,,,,,,,,,,,,,,,,,,,,,,,,,,,,,,,,,,,,,,,,,,,,,,,
1739354693.552202,1739354693.553101,54.000000,0.000000,4246.410156,4218.077148,4282.436035,4274.230957,4213.717773,4217.692383,4194.230957,4257.563965,4197.948730,4176.922852,4518.717773,4449.615234,4363.461426,4442.179688,0.000000,1.000000,16.000000,,,,0.000000,4.000000,4.000000,4.000000,4.000000,4.000000,4.000000,4.000000,4.000000,4.000000,4.000000,4.000000,4.000000,4.000000,4.000000,100.000000,,,,,,,,,,,,,,,,,,,,,,,,,,,,,,,,,,,,,,,,,,,,,,,,,,,,,,,,,,,,,,,,,,,,,,,,,,,,,,,,,,,,,,,,,,,,,,,,,,,,,,,,,,,,,,,,,,,,,,,,,,,,,,,,,
1739354693.560010,1739354693.560909,55.000000,0.000000,4251.153809,4227.436035,4290.256348,4277.948730,4219.871582,4230.000000,4203.846191,4270.641113,4212.692383,4183.589844,4528.846191,4458.717773,4372.051270,4450.256348,0.000000,1.000000,16.000000,,,,0.000000,4.000000,4.000000,4.000000,4.000000,4.000000,4.000000,4.000000,4.000000,4.000000,4.000000,4.000000,4.000000,4.000000,4.000000,100.000000,,,,,,,,,,,,,,,,,,,,,,,,,,,,,,,,,,,,,,,,,,,,,,,,,,,,,,,,,,,,,,,,,,,,,,,,,,,,,,,,,,,,,,,,,,,,,,,,,,,,,,,,,,,,,,,,,,,,,,,,,,,,,,,,,
1739354693.567818,1739354693.568617,56.000000,0.000000,4269.358887,4251.794922,4307.820313,4300.128418,4236.794922,4250.641113,4224.743652,4279.230957,4237.948730,4207.563965,4551.794922,4483.846191,4393.205078,4471.025879,0.000000,1.000000,16.000000,,,,0.000000,4.000000,4.000000,4.000000,4.000000,4.000000,4.000000,4.000000,4.000000,4.000000,4.000000,4.000000,4.000000,4.000000,4.000000,100.000000,,,,,,,,,,,,,,,,,14.000000,0.000000,0.415814,0.413086,-0.545715,0.598877,0.954706,-0.309120,0.052741,-37.471409,-31.064466,44.481400,,,,,,,,,,,,,,,,,,,,,,,,,,,,,,,,,,,,,,,,,,,,,,,,,,,,,,,,,,,,,,,,,,,,,,,,,,,,,,,,,,,,,,,,,,,,,,,,,,,,,
1739354693.575626,1739354693.576425,57.000000,0.000000,4266.282227,4240.128418,4298.974121,4289.871582,4234.102539,4240.769043,4220.512695,4269.487305,4233.077148,4207.563965,4548.461426,4477.051270,4391.025879,4460.769043,0.000000,1.000000,16.000000,,,,0.000000,4.000000,4.000000,4.000000,4.000000,4.000000,4.000000,4.000000,4.000000,4.000000,4.000000,4.000000,4.000000,4.000000,4.000000,100.000000,,,,,,,,,,,,,,,,,,,,,,,,,,,,,,,,,,,,,,,,,,,,,,,,,,,,,,,,,,,,,,,,,,,,,,,,,,,,,,,,,,,,,,,,,,,,,,,,,,,,,,,,,,,,,,,,,,,,,,,,,,,,,,,,,
1739354693.583434,1739354693.584133,58.000000,0.000000,4251.025879,4225.256348,4283.846191,4269.102539,4225.128418,4228.461426,4208.333496,4259.230957,4212.307617,4184.871582,4530.384766,4453.077148,4373.717773,4442.051270,0.000000,1.000000,16.000000,,,,0.000000,4.000000,4.000000,4.000000,4.000000,4.000000,4.000000,4.000000,4.000000,4.000000,4.000000,4.000000,4.000000,4.000000,4.000000,100.000000,,,,,,,,,,,,,,,,,,,,,,,,,,,,,,,,,,,,,,,,,,,,,,,,,,,,,,,,,,,,24.260004,5.310352,2.146844,3.307365,1.161519,24.006046,5.024580,2.179418,3.278991,1.186440,3.474519,1.338819,0.511750,2.561080,1.047835,6.227356,1.522048,0.783817,2.843938,1.111803,1.824873,0.207949,0.394406,1.602823,0.780834,1.397195,0.575319,0.388325,1.868074,0.851367,2.501391,1.347507,0.522041,1.906799,0.868257,0.597643,1.005580,0.306365,0.534395,0.316853,1.437185,2.778854,0.226774,2.141979,1.100067,1.974445,2.975507,0.636533,2.446715,1.261984,3.087631,3.145880,0.404184,2.347857,1.119911,4.686299,4.079983,0.481669,3.438699,1.617227,10.240592,4.136763,1.131903,2.052139,1.225334,19.576744,6.072628,1.596228,2.560803,1.221017
1739354693.591242,1739354693.591941,59.000000,0.000000,4250.000000,4237.179688,4287.820313,4280.512695,4228.461426,4237.948730,4213.077148,4261.794922,4209.230957,4177.820313,4523.974121,4452.563965,4369.487305,4442.692383,0.000000,1.000000,16.000000,,,,0.000000,4.000000,4.000000,4.000000,4.000000,4.000000,4.000000,4.000000,4.000000,4.000000,4.000000,4.000000,4.000000,4.000000,4.000000,100.000000,,,,,,,,,,,,,,,,,,,,,,,,,,,,,,,,,,,,,,,,,,,,,,,,,,,,,,,,,,,,,,,,,,,,,,,,,,,,,,,,,,,,,,,,,,,,,,,,,,,,,,,,,,,,,,,,,,,,,,,,,,,,,,,,,
1739354693.599050,1739354693.599649,60.000000,0.000000,4264.358887,4250.000000,4300.256348,4302.563965,4238.205078,4248.974121,4222.307617,4266.922852,4223.846191,4194.743652,4534.102539,4468.461426,4379.102539,4455.769043,0.000000,1.000000,16.000000,,,,0.000000,4.000000,4.000000,4.000000,4.000000,4.000000,4.000000,4.000000,4.000000,4.000000,4.000000,4.000000,4.000000,4.000000,4.000000,100.000000,,,,,,,,,,,,,,,,,15.000000,0.000000,0.415534,0.413391,-0.545898,0.598694,0.952753,-0.296423,0.072763,-37.540936,-30.941353,44.566593,,,,,,,,,,,,,,,,,,,,,,,,,,,,,,,,,,,,,,,,,,,,,,,,,,,,,,,,,,,,,,,,,,,,,,,,,,,,,,,,,,,,,,,,,,,,,,,,,,,,,
1739354693.606858,1739354693.607457,61.000000,0.000000,4277.692383,4254.230957,4310.641113,4304.743652,4245.384766,4251.922852,4224.743652,4267.820313,4230.128418,4204.230957,4545.512695,4477.692383,4387.436035,4465.384766,0.000000,1.000000,16.000000,,,,0.000000,4.000000,4.000000,4.000000,4.000000,4.000000,4.000000,4.000000,4.000000,4.000000,4.000000,4.000000,4.000000,4.000000,4.000000,100.000000,,,,,,,,,,,,,,,,,,,,,,,,,,,,,,,,,,,,,,,,,,,,,,,,,,,,,,,,,,,,,,,,,,,,,,,,,,,,,,,,,,,,,,,,,,,,,,,,,,,,,,,,,,,,,,,,,,,,,,,,,,,,,,,,,
1739354693.614666,1739354693.615165,62.000000,0.000000,4272.563965,4249.743652,4308.846191,4293.974121,4243.205078,4246.410156,4215.512695,4264.358887,4217.820313,4189.487305,4540.512695,4471.794922,4380.128418,4460.000000,0.000000,1.000000,16.000000,,,,0.000000,4.000000,4.000000,4.000000,4.000000,4.000000,4.000000,4.000000,4.000000,4.000000,4.000000,4.000000,4.000000,4.000000,4.000000,100.000000,,,,,,,,,,,,,,,,,,,,,,,,,,,,,,,,,,,,,,,,,,,,,,,,,,,,,,,,,,,,,,,,,,,,,,,,,,,,,,,,,,,,,,,,,,,,,,,,,,,,,,,,,,,,,,,,,,,,,,,,,,,,,,,,,
1739354693.622474,1739354693.622973,63.000000,0.000000,4269.230957,4245.897461,4308.077148,4298.333496,4240.128418,4241.538574,4212.820313,4263.974121,4218.461426,4187.820313,4541.666504,4477.179688,4377.051270,4458.333496,0.000000,1.000000,16.000000,,,,0.000000,4.000000,4.000000,4.000000,4.000000,4.000000,4.000000,4.000000,4.000000,4.000000,4.000000,4.000000,4.000000,4.000000,4.000000,100.000000,,,,,,,,,,,,,,,,,,,,,,,,,,,,,,,,,,,,,,,,,,,,,,,,,,,,,,,,,,,,,,,,,,,,,,,,,,,,,,,,,,,,,,,,,,,,,,,,,,,,,,,,,,,,,,,,,,,,,,,,,,,,,,,,,
1739354693.630283,1739354693.630681,64.000000,0.000000,4282.563965,4258.589844,4320.000000,4313.205078,4246.794922,4248.846191,4226.410156,4267.692383,4235.769043,4208.205078,4558.461426,4493.717773,4392.179688,4471.153809,5155.000000,1.000000,16.000000,,,,0.000000,4.000000,4.000000,4.000000,4.000000,4.000000,4.000000,4.000000,4.000000,4.000000,4.000000,4.000000,4.000000,4.000000,4.000000,100.000000,,,,,,,,,,,,,,,,,16.000000,0.000000,0.415244,0.414124,-0.545898,0.598389,0.951288,-0.301306,0.054206,-37.536842,-30.763884,44.493267,,,,,,,,,,,,,,,,,,,,,,,,,,,,,,,,,,,,,,,,,,,,,,,,,,,,,,,,,,,,,,,,,,,,,,,,,,,,,,,,,,,,,,,,,,,,,,,,,,,,,
1739354693.638090,1739354693.638489,65.000000,0.000000,4283.205078,4265.897461,4318.974121,4313.589844,4250.641113,4254.102539,4230.512695,4269.358887,4234.102539,4207.436035,4558.974121,4489.871582,4399.358887,4472.307617,5512.000000,1.000000,16.000000,,,,0.000000,4.000000,4.000000,4.000000,4.000000,4.000000,4.000000,4.000000,4.000000,4.000000,4.000000,4.000000,4.000000,4.000000,4.000000,100.000000,,,,,,,,,,,,,,,,,,,,,,,,,,,,,,,,,,,,,,,,,,,,,,,,,,,,,,,,,,,,,,,,,,,,,,,,,,,,,,,,,,,,,,,,,,,,,,,,,,,,,,,,,,,,,,,,,,,,,,,,,,,,,,,,,
1739354693.645899,1739354693.646197,66.000000,0.000000,4274.230957,4255.769043,4311.025879,4307.563965,4248.333496,4250.128418,4228.077148,4270.512695,4227.563965,4198.846191,4552.948730,4480.897461,4396.922852,4464.743652,5537.000000,1.000000,16.000000,,,,0.000000,4.000000,4.000000,4.000000,4.000000,4.000000,4.000000,4.000000,4.000000,4.000000,4.000000,4.000000,4.000000,4.000000,4.000000,100.000000,,,,,,,,,,,,,,,,,,,,,,,,,,,,,,,,,,,,,,,,,,,,,,,,,,,,,,,,,,,,,,,,,,,,,,,,,,,,,,,,,,,,,,,,,,,,,,,,,,,,,,,,,,,,,,,,,,,,,,,,,,,,,,,,,
1739354693.653707,1739354693.654105,67.000000,0.000000,4268.077148,4242.820313,4305.769043,4298.974121,4241.922852,4243.717773,4223.333496,4267.051270,4228.333496,4203.077148,4553.077148,4475.384766,4392.563965,4461.666504,5462.000000,1.000000,16.000000,,,,0.000000,4.000000,4.000000,4.000000,4.000000,4.000000,4.000000,4.000000,4.000000,4.000000,4.000000,4.000000,4.000000,4.000000,4.000000,100.000000,,,,,,,,,,,,,,,,,,,,,,,,,,,,,,,,,,,,,,,,,,,,,,,,,,,,,,,,,,,,,,,,,,,,,,,,,,,,,,,,,,,,,,,,,,,,,,,,,,,,,,,,,,,,,,,,,,,,,,,,,,,,,,,,,
1739354693.661515,1739354693.661913,68.000000,0.000000,4278.333496,4253.974121,4313.333496,4304.871582,4246.153809,4249.743652,4221.538574,4270.256348,4235.128418,4217.179688,4558.974121,4483.846191,4394.743652,4470.128418,5422.000000,1.000000,16.000000,,,,0.000000,4.000000,4.000000,4.000000,4.000000,4.000000,4.000000,4.000000,4.000000,4.000000,4.000000,4.000000,4.000000,4.000000,4.000000,100.000000,,,,,,,,,,,,,,,,,17.000000,0.000000,0.415009,0.414551,-0.546021,0.598145,0.947870,-0.308631,0.059578,-37.499825,-30.870829,44.427273,,,,,,,,,,,,,,,,,,,,,,,,,,,,,,,,,,,,,,,,,,,,,,,,,,,,,,,,,,,,,,,,,,,,,,,,,,,,,,,,,,,,,,,,,,,,,,,,,,,,,
1739354693.669323,1739354693.669821,69.000000,0.000000,4288.717773,4263.205078,4320.641113,4315.641113,4250.128418,4253.461426,4223.717773,4270.769043,4240.384766,4221.538574,4560.769043,4493.589844,4396.153809,4475.512695,5440.000000,1.000000,16.000000,,,,0.000000,4.000000,4.000000,4.000000,4.000000,4.000000,4.000000,4.000000,4.000000,4.000000,4.000000,4.000000,4.000000,4.000000,4.000000,100.000000,,,,,,,,,,,,,,,,,,,,,,,,,,,,,,,,,,,,,,,,,,,,,,,,,,,,,,,,,,,,,,,,,,,,,,,,,,,,,,,,,,,,,,,,,,,,,,,,,,,,,,,,,,,,,,,,,,,,,,,,,,,,,,,,,
1739354693.677131,1739354693.677629,70.000000,0.000000,4261.666504,4236.153809,4293.589844,4293.333496,4222.179688,4230.769043,4207.051270,4255.641113,4216.794922,4191.794922,4536.666504,4464.230957,4374.487305,4448.846191,5404.000000,1.000000,16.000000,,,,0.000000,4.000000,4.000000,4.000000,4.000000,4.000000,4.000000,4.000000,4.000000,4.000000,4.000000,4.000000,4.000000,4.000000,4.000000,100.000000,,,,,,,,,,,,,,,,,,,,,,,,,,,,,,,,,,,,,,,,,,,,,,,,,,,,,,,,,,,,,,,,,,,,,,,,,,,,,,,,,,,,,,,,,,,,,,,,,,,,,,,,,,,,,,,,,,,,,,,,,,,,,,,,,
1739354693.684939,1739354693.685537,71.000000,0.000000,4246.025879,4228.589844,4286.282227,4280.641113,4213.589844,4230.000000,4205.384766,4258.333496,4204.871582,4178.461426,4532.692383,4453.589844,4369.358887,4437.307617,2505.000000,1.000000,16.000000,,,,0.000000,4.000000,4.000000,4.000000,4.000000,4.000000,4.000000,4.000000,4.000000,4.000000,4.000000,4.000000,4.000000,4.000000,4.000000,100.000000,,,,,,,,,,,,,,,,,,,,,,,,,,,,,,,,,,,,,,,,,,,,,,,,,,,,,,,,,,,,,,,,,,,,,,,,,,,,,,,,,,,,,,,,,,,,,,,,,,,,,,,,,,,,,,,,,,,,,,,,,,,,,,,,,
1739354693.692747,1739354693.693345,72.000000,0.000000,4271.153809,4247.948730,4315.000000,4292.563965,4245.897461,4260.256348,4232.436035,4274.871582,4232.179688,4204.230957,4561.538574,4489.102539,4393.205078,4461.922852,5218.000000,1.000000,16.000000,,,,0.000000,4.000000,4.000000,4.000000,4.000000,4.000000,4.000000,4.000000,4.000000,4.000000,4.000000,4.000000,4.000000,4.000000,4.000000,100.000000,,,,,,,,,,,,,,,,,18.000000,0.000000,0.414895,0.414673,-0.546082,0.598083,0.949823,-0.296911,0.056648,-37.549843,-30.783747,44.367878,,,,,,,,,,,,,,,,,,,,,,,,,,,,,,,,,,,,,,,,,,,,,,,,,,,,,,,,,,,,,,,,,,,,,,,,,,,,,,,,,,,,,,,,,,,,,,,,,,,,,
1739354693.700555,1739354693.701253,73.000000,0.000000,4271.153809,4242.820313,4309.230957,4291.153809,4240.128418,4253.717773,4233.589844,4267.179688,4231.025879,4198.974121,4554.102539,4486.410156,4387.051270,4455.769043,5547.000000,1.000000,16.000000,,,,0.000000,4.000000,4.000000,4.000000,4.000000,4.000000,4.000000,4.000000,4.000000,4.000000,4.000000,4.000000,4.000000,4.000000,4.000000,100.000000,,,,,,,,,,,,,,,,,,,,,,,,,,,,,,,,,,,,,,,,,,,,,,,,,,,,,,,,,,,,,,,,,,,,,,,,,,,,,,,,,,,,,,,,,,,,,,,,,,,,,,,,,,,,,,,,,,,,,,,,,,,,,,,,,
1739354693.708363,1739354693.709061,74.000000,0.000000,4255.512695,4230.769043,4292.179688,4292.563965,4210.897461,4234.487305,4223.974121,4257.820313,4209.358887,4177.436035,4532.820313,4463.846191,4369.871582,4438.589844,5003.000000,1.000000,16.000000,,,,0.000000,4.000000,4.000000,4.000000,4.000000,4.000000,4.000000,4.000000,4.000000,4.000000,4.000000,4.000000,4.000000,4.000000,4.000000,100.000000,1.000000,41.666668,3.000000,4.000000,1.000000,4.000000,4.000000,3.000000,3.000000,4.000000,4.000000,4.000000,4.000000,1.000000,4.000000,3.000000,,,,,,,,,,,,,,,,,,,,,,,,,,,,,,,,,,,,,,,,,,,,37.070473,8.067461,2.813426,3.537284,1.209177,32.099998,6.484280,2.673777,3.404341,1.181428,4.775731,1.934474,0.555970,2.536696,1.049321,8.269312,2.007150,1.012973,2.887806,1.134402,1.791813,0.218543,0.472009,1.608661,0.802066,1.263303,0.562307,0.466586,1.930659,0.881279,2.191822,1.290684,0.597360,1.925952,0.902226,0.593543,1.259796,0.422767,0.587322,0.329788,0.977904,3.825658,0.398741,2.031862,1.126835,1.552474,4.321333,0.897171,2.407731,1.225975,4.054288,4.985929,0.536110,2.326489,1.116414,6.055095,6.090277,0.573257,3.407065,1.651784,15.151566,6.776344,1.413597,2.122339,1.236926,30.002745,9.393503,2.111484,2.647715,1.222451
1739354693.716171,1739354693.716969,75.000000,0.000000,4272.307617,4244.230957,4312.948730,4305.000000,4232.436035,4250.512695,4238.461426,4270.256348,4228.205078,4195.384766,4551.922852,4486.794922,4383.461426,4458.717773,5470.000000,1.000000,16.000000,,,,0.000000,4.000000,4.000000,4.000000,4.000000,4.000000,4.000000,4.000000,4.000000,4.000000,4.000000,4.000000,4.000000,4.000000,4.000000,100.000000,,,,,,,,,,,,,,,,,,,,,,,,,,,,,,,,,,,,,,,,,,,,,,,,,,,,,,,,,,,,,,,,,,,,,,,,,,,,,,,,,,,,,,,,,,,,,,,,,,,,,,,,,,,,,,,,,,,,,,,,,,,,,,,,,
1739354693.723979,1739354693.724777,76.000000,0.000000,4280.769043,4254.871582,4319.615234,4305.384766,4257.692383,4260.256348,4233.717773,4271.025879,4245.769043,4203.333496,4566.153809,4500.769043,4393.077148,4467.563965,5554.000000,1.000000,16.000000,,,,0.000000,4.000000,4.000000,4.000000,4.000000,4.000000,4.000000,4.000000,4.000000,4.000000,4.000000,4.000000,4.000000,4.000000,4.000000,100.000000,,,,,,,,,,,,,,,,,19.000000,0.000000,0.414654,0.414856,-0.546326,0.597900,0.951288,-0.311073,0.063484,-37.611526,-30.688705,44.347759,,,,,,,,,,,,,,,,,,,,,,,,,,,,,,,,,,,,,,,,,,,,,,,,,,,,,,,,,,,,,,,,,,,,,,,,,,,,,,,,,,,,,,,,,,,,,,,,,,,,,
1739354693.731788,1739354693.732485,77.000000,0.000000,4268.077148,4257.051270,4303.717773,4328.846191,4240.897461,4242.307617,4206.410156,4261.025879,4228.077148,4179.487305,4551.666504,4485.641113,4382.563965,4452.948730,6541.000000,1.000000,16.000000,,,,0.000000,4.000000,4.000000,4.000000,4.000000,4.000000,4.000000,4.000000,4.000000,4.000000,4.000000,4.000000,4.000000,4.000000,4.000000,100.000000,,,,,,,,,,,,,,,,,,,,,,,,,,,,,,,,,,,,,,,,,,,,,,,,,,,,,,,,,,,,,,,,,,,,,,,,,,,,,,,,,,,,,,,,,,,,,,,,,,,,,,,,,,,,,,,,,,,,,,,,,,,,,,,,,
1739354693.739596,1739354693.740293,78.000000,0.000000,4271.794922,4253.846191,4310.641113,4419.358887,4218.333496,4227.948730,4207.436035,4267.307617,4218.205078,4172.948730,4548.974121,4485.512695,4381.794922,4453.461426,5003.000000,1.000000,16.000000,,,,0.000000,4.000000,4.000000,4.000000,4.000000,4.000000,4.000000,4.000000,4.000000,4.000000,4.000000,4.000000,4.000000,4.000000,4.000000,100.000000,,,,,,,,,,,,,,,,,,,,,,,,,,,,,,,,,,,,,,,,,,,,,,,,,,,,,,,,,,,,,,,,,,,,,,,,,,,,,,,,,,,,,,,,,,,,,,,,,,,,,,,,,,,,,,,,,,,,,,,,,,,,,,,,,
1739354693.747404,1739354693.748001,79.000000,0.000000,4294.743652,4251.025879,4333.974121,4537.692383,4226.794922,4240.512695,4232.051270,4277.563965,4238.205078,4196.025879,4571.025879,4506.282227,4402.692383,4475.384766,5470.000000,1.000000,16.000000,,,,0.000000,4.000000,4.000000,4.000000,4.000000,4.000000,4.000000,4.000000,4.000000,4.000000,4.000000,4.000000,4.000000,4.000000,4.000000,100.000000,,,,,,,,,,,,,,,,,,,,,,,,,,,,,,,,,,,,,,,,,,,,,,,,,,,,,,,,,,,,,,,,,,,,,,,,,,,,,,,,,,,,,,,,,,,,,,,,,,,,,,,,,,,,,,,,,,,,,,,,,,,,,,,,,
1739354693.755212,1739354693.755809,80.000000,0.000000,4314.487305,4276.025879,4350.000000,4631.666504,4247.948730,4265.000000,4249.358887,4275.384766,4258.077148,4219.487305,4588.974121,4528.846191,4425.897461,4495.128418,5554.000000,1.000000,16.000000,,,,0.000000,4.000000,4.000000,4.000000,4.000000,4.000000,4.000000,4.000000,4.000000,4.000000,4.000000,4.000000,4.000000,4.000000,4.000000,100.000000,,,,,,,,,,,,,,,,,20.000000,0.000000,0.414742,0.415039,-0.546387,0.597656,0.959590,-0.299353,0.060066,-37.700371,-30.719835,44.296314,,,,,,,,,,,,,,,,,,,,,,,,,,,,,,,,,,,,,,,,,,,,,,,,,,,,,,,,,,,,,,,,,,,,,,,,,,,,,,,,,,,,,,,,,,,,,,,,,,,,,
1739354693.763020,1739354693.763517,81.000000,0.000000,4313.461426,4305.256348,4341.794922,4753.461426,4258.846191,4269.615234,4245.384766,4268.333496,4250.384766,4219.358887,4587.307617,4523.461426,4431.153809,4487.179688,6541.000000,1.000000,16.000000,,,,0.000000,4.000000,4.000000,4.000000,4.000000,4.000000,4.000000,4.000000,4.000000,4.000000,4.000000,4.000000,4.000000,4.000000,4.000000,100.000000,,,,,,,,,,,,,,,,,,,,,,,,,,,,,,,,,,,,,,,,,,,,,,,,,,,,,,,,,,,,,,,,,,,,,,,,,,,,,,,,,,,,,,,,,,,,,,,,,,,,,,,,,,,,,,,,,,,,,,,,,,,,,,,,,
1739354693.770828,1739354693.771325,82.000000,0.000000,4319.871582,4324.358887,4342.820313,5022.692383,4279.743652,4269.102539,4242.563965,4272.436035,4250.641113,4219.871582,4602.820313,4517.948730,4439.230957,4480.641113,5003.000000,1.000000,16.000000,,,,0.000000,4.000000,4.000000,4.000000,4.000000,4.000000,4.000000,4.000000,4.000000,4.000000,4.000000,4.000000,4.000000,4.000000,4.000000,100.000000,,,,,,,,,,,,,,,,,,,,,,,,,,,,,,,,,,,,,,,,,,,,,,,,,,,,,,,,,,,,,,,,,,,,,,,,,,,,,,,,,,,,,,,,,,,,,,,,,,,,,,,,,,,,,,,,,,,,,,,,,,,,,,,,,
1739354693.778636,1739354693.779033,83.000000,0.000000,4354.743652,4357.820313,4381.922852,5432.692383,4309.871582,4295.512695,4270.641113,4284.358887,4286.153809,4248.846191,4633.846191,4555.641113,4472.692383,4508.589844,5470.000000,1.000000,16.000000,,,,0.000000,4.000000,4.000000,4.000000,4.000000,4.000000,4.000000,4.000000,4.000000,4.000000,4.000000,4.000000,4.000000,4.000000,4.000000,100.000000,,,,,,,,,,,,,,,,,,,,,,,,,,,,,,,,,,,,,,,,,,,,,,,,,,,,,,,,,,,,,,,,,,,,,,,,,,,,,,,,,,,,,,,,,,,,,,,,,,,,,,,,,,,,,,,,,,,,,,,,,,,,,,,,,
1739354693.786444,1739354693.786841,84.000000,0.000000,4369.102539,4371.410156,4385.897461,5840.384766,4304.615234,4304.743652,4280.000000,4281.410156,4291.794922,4257.563965,4606.153809,4563.589844,4482.179688,4512.948730,5554.000000,1.000000,16.000000,,,,0.000000,4.000000,4.000000,4.000000,4.000000,4.000000,4.000000,4.000000,4.000000,4.000000,4.000000,4.000000,4.000000,4.000000,4.000000,100.000000,,,,,,,,,,,,,,,,,21.000000,0.000000,0.414949,0.415344,-0.546265,0.597412,0.951776,-0.298865,0.058113,-37.713669,-30.597851,44.200016,,,,,,,,,,,,,,,,,,,,,,,,,,,,,,,,,,,,,,,,,,,,,,,,,,,,,,,,,,,,,,,,,,,,,,,,,,,,,,,,,,,,,,,,,,,,,,,,,,,,,
1739354693.794252,1739354693.794549,85.000000,0.000000,4364.615234,4360.769043,4353.846191,6203.717773,4285.641113,4291.410156,4264.358887,4271.410156,4262.820313,4236.153809,4576.922852,4529.358887,4465.512695,4484.743652,6541.000000,1.000000,16.000000,,,,0.000000,4.000000,4.000000,4.000000,4.000000,4.000000,4.000000,4.000000,4.000000,4.000000,4.000000,4.000000,4.000000,4.000000,4.000000,100.000000,,,,,,,,,,,,,,,,,,,,,,,,,,,,,,,,,,,,,,,,,,,,,,,,,,,,,,,,,,,,,,,,,,,,,,,,,,,,,,,,,,,,,,,,,,,,,,,,,,,,,,,,,,,,,,,,,,,,,,,,,,,,,,,,,
1739354693.802060,1739354693.802457,86.000000,0.000000,4397.692383,4378.333496,4372.179688,6550.384766,4308.589844,4312.692383,4285.128418,4277.820313,4277.948730,4253.974121,4666.922852,4546.025879,4486.153809,4500.256348,5003.000000,1.000000,16.000000,,,,0.000000,4.000000,4.000000,4.000000,4.000000,4.000000,4.000000,4.000000,4.000000,4.000000,4.000000,4.000000,4.000000,4.000000,4.000000,100.000000,,,,,,,,,,,,,,,,,,,,,,,,,,,,,,,,,,,,,,,,,,,,,,,,,,,,,,,,,,,,,,,,,,,,,,,,,,,,,,,,,,,,,,,,,,,,,,,,,,,,,,,,,,,,,,,,,,,,,,,,,,,,,,,,,
1739354693.809868,1739354693.810265,87.000000,0.000000,4435.384766,4408.846191,4410.897461,6829.871582,4331.794922,4340.128418,4321.153809,4289.615234,4313.974121,4292.820313,4810.897461,4586.794922,4516.153809,4532.179688,5470.000000,1.000000,16.000000,,,,0.000000,4.000000,4.000000,4.000000,4.000000,4.000000,4.000000,4.000000,4.000000,4.000000,4.000000,4.000000,4.000000,4.000000,4.000000,100.000000,,,,,,,,,,,,,,,,,,,,,,,,,,,,,,,,,,,,,,,,,,,,,,,,,,,,,,,,,,,,,,,,,,,,,,,,,,,,,,,,,,,,,,,,,,,,,,,,,,,,,,,,,,,,,,,,,,,,,,,,,,,,,,,,,
1739354693.817676,1739354693.818173,88.000000,0.000000,4425.641113,4395.128418,4400.384766,6979.358887,4310.897461,4327.820313,4311.794922,4286.666504,4306.153809,4287.051270,4900.897461,4576.538574,4503.333496,4519.102539,5554.000000,1.000000,16.000000,,,,0.000000,4.000000,4.000000,4.000000,4.000000,4.000000,4.000000,4.000000,4.000000,4.000000,4.000000,4.000000,4.000000,4.000000,4.000000,100.000000,,,,,,,,,,,,,,,,,22.000000,0.000000,0.415049,0.415588,-0.546204,0.597229,0.954706,-0.318887,0.039556,-37.825634,-30.588066,44.213348,,,,,,,,,,,,,,,,,,,,,,,,,,,,,,,,,,,,,,,,,,,,,,,,,,,,,,,,,,,,,,,,,,,,,,,,,,,,,,,,,,,,,,,,,,,,,,,,,,,,,
1739354693.825484,1739354693.825982,89.000000,0.000000,4418.589844,4381.410156,4384.743652,7037.692383,4298.589844,4314.743652,4289.102539,4282.948730,4288.846191,4272.436035,4991.666504,4562.563965,4492.820313,4506.538574,6541.000000,1.000000,16.000000,,,,0.000000,4.000000,4.000000,4.000000,4.000000,4.000000,4.000000,4.000000,4.000000,4.000000,4.000000,4.000000,4.000000,4.000000,4.000000,100.000000,,,,,,,,,,,,,,,,,,,,,,,,,,,,,,,,,,,,,,,,,,,,,,,,,,,,,,,,,,,,,,,,,,,,,,,,,,,,,,,,,,,,,,,,,,,,,,,,,,,,,,,,,,,,,,,,,,,,,,,,,,,,,,,,,
1739354693.833293,1739354693.833790,90.000000,0.000000,4455.769043,4415.128418,4411.410156,7084.615234,4324.871582,4336.538574,4311.538574,4293.589844,4308.589844,4297.307617,5145.000000,4593.846191,4528.461426,4536.538574,5003.000000,1.000000,16.000000,,,,0.000000,4.000000,4.000000,4.000000,4.000000,4.000000,4.000000,4.000000,4.000000,4.000000,4.000000,4.000000,4.000000,4.000000,4.000000,100.000000,,,,,,,,,,,,,,,,,,,,,,,,,,,,,,,,,,,,,,,,,,,,,,,,,,,,,,,,,,,,47.819431,10.742577,3.344209,3.599743,1.299724,37.501354,7.529094,2.935066,3.312683,1.212900,5.836202,2.700448,0.637408,2.387093,1.092345,9.969590,2.490662,1.190663,2.796050,1.192583,1.650229,0.275801,0.541520,1.550565,0.845358,1.073303,0.523739,0.564245,1.897890,0.944692,1.852369,1.221148,0.745043,1.853077,0.981587,0.592802,1.410715,0.525422,0.603618,0.358408,0.816070,4.704342,0.676509,1.804808,1.178959,1.426696,5.622815,1.263171,2.258688,1.242442,5.084181,6.861990,0.766746,2.216368,1.153080,7.296574,8.146413,0.747453,3.232925,1.741130,19.693941,9.394868,1.750974,2.122416,1.283651,38.821308,12.610184,2.570528,2.645607,1.251988
1739354693.841101,1739354693.841498,91.000000,0.000000,4498.717773,4450.128418,4446.794922,7104.230957,4351.666504,4365.128418,4342.820313,4303.589844,4343.333496,4338.846191,5295.512695,4635.512695,4570.769043,4574.102539,5470.000000,1.000000,16.000000,,,,0.000000,4.000000,4.000000,4.000000,4.000000,4.000000,4.000000,4.000000,4.000000,4.000000,4.000000,4.000000,4.000000,4.000000,4.000000,100.000000,,,,,,,,,,,,,,,,,,,,,,,,,,,,,,,,,,,,,,,,,,,,,,,,,,,,,,,,,,,,,,,,,,,,,,,,,,,,,,,,,,,,,,,,,,,,,,,,,,,,,,,,,,,,,,,,,,,,,,,,,,,,,,,,,
1739354693.848909,1739354693.849406,92.000000,0.000000,4475.641113,4415.897461,4421.025879,7015.641113,4326.538574,4339.615234,4303.205078,4288.461426,4318.974121,4318.974121,5346.153809,4607.436035,4549.743652,4552.051270,5554.000000,1.000000,16.000000,,,,0.000000,4.000000,4.000000,4.000000,4.000000,4.000000,4.000000,4.000000,4.000000,4.000000,4.000000,4.000000,4.000000,4.000000,4.000000,100.000000,,,,,,,,,,,,,,,,,23.000000,0.000000,0.414420,0.415588,-0.546814,0.597107,0.932243,-0.301306,0.055671,-37.776405,-30.679260,44.158680,,,,,,,,,,,,,,,,,,,,,,,,,,,,,,,,,,,,,,,,,,,,,,,,,,,,,,,,,,,,,,,,,,,,,,,,,,,,,,,,,,,,,,,,,,,,,,,,,,,,,
1739354693.856717,1739354693.857214,93.000000,0.000000,4442.692383,4377.179688,4387.179688,6887.436035,4306.153809,4306.794922,4259.615234,4282.307617,4284.615234,4283.974121,5373.589844,4570.384766,4519.615234,4525.384766,6541.000000,1.000000,16.000000,,,,0.000000,4.000000,4.000000,4.000000,4.000000,4.000000,4.000000,4.000000,4.000000,4.000000,4.000000,4.000000,4.000000,4.000000,4.000000,100.000000,,,,,,,,,,,,,,,,,,,,,,,,,,,,,,,,,,,,,,,,,,,,,,,,,,,,,,,,,,,,,,,,,,,,,,,,,,,,,,,,,,,,,,,,,,,,,,,,,,,,,,,,,,,,,,,,,,,,,,,,,,,,,,,,,
1739354693.864525,1739354693.865122,94.000000,0.000000,4470.897461,4398.846191,4414.102539,6804.487305,4331.666504,4328.974121,4297.307617,4305.128418,4319.230957,4318.461426,5455.128418,4613.461426,4544.615234,4556.410156,5003.000000,1.000000,16.000000,,,,0.000000,4.000000,4.000000,4.000000,4.000000,4.000000,4.000000,4.000000,4.000000,4.000000,4.000000,4.000000,4.000000,4.000000,4.000000,100.000000,,,,,,,,,,,,,,,,,,,,,,,,,,,,,,,,,,,,,,,,,,,,,,,,,,,,,,,,,,,,,,,,,,,,,,,,,,,,,,,,,,,,,,,,,,,,,,,,,,,,,,,,,,,,,,,,,,,,,,,,,,,,,,,,,
1739354693.872333,1739354693.872930,95.000000,0.000000,4501.153809,4422.948730,4445.000000,6711.153809,4348.205078,4361.794922,4343.846191,4320.641113,4360.128418,4364.487305,5512.179688,4658.846191,4574.358887,4587.436035,5470.000000,1.000000,16.000000,,,,0.000000,4.000000,4.000000,4.000000,4.000000,4.000000,4.000000,4.000000,4.000000,4.000000,4.000000,4.000000,4.000000,4.000000,4.000000,100.000000,,,,,,,,,,,,,,,,,,,,,,,,,,,,,,,,,,,,,,,,,,,,,,,,,,,,,,,,,,,,,,,,,,,,,,,,,,,,,,,,,,,,,,,,,,,,,,,,,,,,,,,,,,,,,,,,,,,,,,,,,,,,,,,,,
1739354693.880141,1739354693.880838,96.000000,0.000000,4482.948730,4401.282227,4427.179688,6556.666504,4330.769043,4348.717773,4329.358887,4310.897461,4335.128418,4346.153809,5495.641113,4630.897461,4561.922852,4570.897461,5554.000000,1.000000,16.000000,,,,0.000000,4.000000,4.000000,4.000000,4.000000,4.000000,4.000000,4.000000,4.000000,4.000000,4.000000,4.000000,4.000000,4.000000,4.000000,100.000000,,,,,,,,,,,,,,,,,24.000000,0.000000,0.414382,0.415466,-0.546936,0.597107,0.947381,-0.303260,0.048346,-37.748764,-30.994667,44.092812,,,,,,,,,,,,,,,,,,,,,,,,,,,,,,,,,,,,,,,,,,,,,,,,,,,,,,,,,,,,,,,,,,,,,,,,,,,,,,,,,,,,,,,,,,,,,,,,,,,,,
1739354693.887949,1739354693.888646,97.000000,0.000000,4455.769043,4368.205078,4396.794922,6383.846191,4311.282227,4318.717773,4300.769043,4298.205078,4293.333496,4305.128418,5463.205078,4592.820313,4536.410156,4541.282227,6541.000000,1.000000,16.000000,,,,0.000000,4.000000,4.000000,4.000000,4.000000,4.000000,4.000000,4.000000,4.000000,4.000000,4.000000,4.000000,4.000000,4.000000,4.000000,100.000000,,,,,,,,,,,,,,,,,,,,,,,,,,,,,,,,,,,,,,,,,,,,,,,,,,,,,,,,,,,,,,,,,,,,,,,,,,,,,,,,,,,,,,,,,,,,,,,,,,,,,,,,,,,,,,,,,,,,,,,,,,,,,,,,,
1739354693.895757,1739354693.896554,98.000000,0.000000,4461.282227,4371.666504,4400.128418,6250.128418,4314.871582,4321.410156,4306.794922,4300.512695,4297.692383,4308.717773,5465.256348,4605.384766,4538.589844,4546.025879,5003.000000,1.000000,16.000000,,,,0.000000,4.000000,4.000000,4.000000,4.000000,4.000000,4.000000,4.000000,4.000000,4.000000,4.000000,4.000000,4.000000,4.000000,4.000000,100.000000,,,,,,,,,,,,,,,,,,,,,,,,,,,,,,,,,,,,,,,,,,,,,,,,,,,,,,,,,,,,,,,,,,,,,,,,,,,,,,,,,,,,,,,,,,,,,,,,,,,,,,,,,,,,,,,,,,,,,,,,,,,,,,,,,
1739354693.903565,1739354693.904362,99.000000,0.000000,4478.717773,4394.615234,4421.025879,6138.589844,4325.384766,4333.717773,4323.461426,4307.948730,4318.205078,4332.436035,5476.282227,4631.025879,4556.794922,4566.538574,5470.000000,1.000000,16.000000,,,,0.000000,4.000000,4.000000,4.000000,4.000000,4.000000,4.000000,4.000000,4.000000,4.000000,4.000000,4.000000,4.000000,4.000000,4.000000,100.000000,,,,,,,,,,,,,,,,,,,,,,,,,,,,,,,,,,,,,,,,,,,,,,,,,,,,,,,,,,,,,,,,,,,,,,,,,,,,,,,,,,,,,,,,,,,,,,,,,,,,,,,,,,,,,,,,,,,,,,,,,,,,,,,,,
1739354693.911373,1739354693.912070,100.000000,0.000000,4486.794922,4399.871582,4430.128418,6012.051270,4331.153809,4332.948730,4324.102539,4308.205078,4323.846191,4341.922852,5477.051270,4638.846191,4565.769043,4573.077148,5554.000000,1.000000,16.000000,,,,0.000000,4.000000,4.000000,4.000000,4.000000,4.000000,4.000000,4.000000,4.000000,4.000000,4.000000,4.000000,4.000000,4.000000,4.000000,100.000000,,,,,,,,,,,,,,,,,25.000000,0.000000,0.414462,0.415649,-0.546936,0.596924,0.935173,-0.301795,0.057624,-37.823887,-30.945200,44.066864,,,,,,,,,,,,,,,,,,,,,,,,,,,,,,,,,,,,,,,,,,,,,,,,,,,,,,,,,,,,,,,,,,,,,,,,,,,,,,,,,,,,,,,,,,,,,,,,,,,,,
1739354693.919181,1739354693.919878,101.000000,0.000000,4490.512695,4396.282227,4428.589844,5886.410156,4335.641113,4331.282227,4317.820313,4306.538574,4324.871582,4342.820313,5480.384766,4643.846191,4562.820313,4576.538574,6541.000000,1.000000,16.000000,,,,0.000000,4.000000,4.000000,4.000000,4.000000,4.000000,4.000000,4.000000,4.000000,4.000000,4.000000,4.000000,4.000000,4.000000,4.000000,100.000000,,,,,,,,,,,,,,,,,,,,,,,,,,,,,,,,,,,,,,,,,,,,,,,,,,,,,,,,,,,,,,,,,,,,,,,,,,,,,,,,,,,,,,,,,,,,,,,,,,,,,,,,,,,,,,,,,,,,,,,,,,,,,,,,,
1739354693.926989,1739354693.927586,102.000000,0.000000,4490.769043,4400.641113,4428.974121,5787.179688,4335.512695,4329.487305,4317.436035,4310.641113,4327.563965,4343.333496,5487.179688,4649.487305,4559.358887,4585.384766,5003.000000,1.000000,16.000000,,,,0.000000,4.000000,4.000000,4.000000,4.000000,4.000000,4.000000,4.000000,4.000000,4.000000,4.000000,4.000000,4.000000,4.000000,4.000000,100.000000,,,,,,,,,,,,,,,,,,,,,,,,,,,,,,,,,,,,,,,,,,,,,,,,,,,,,,,,,,,,,,,,,,,,,,,,,,,,,,,,,,,,,,,,,,,,,,,,,,,,,,,,,,,,,,,,,,,,,,,,,,,,,,,,,
1739354693.934797,1739354693.935494,103.000000,0.000000,4492.820313,4405.256348,4431.794922,5701.410156,4336.538574,4326.282227,4320.512695,4314.230957,4330.512695,4350.128418,5491.410156,4651.153809,4560.128418,4587.563965,5470.000000,1.000000,16.000000,,,,0.000000,4.000000,4.000000,4.000000,4.000000,4.000000,4.000000,4.000000,4.000000,4.000000,4.000000,4.000000,4.000000,4.000000,4.000000,100.000000,,,,,,,,,,,,,,,,,,,,,,,,,,,,,,,,,,,,,,,,,,,,,,,,,,,,,,,,,,,,,,,,,,,,,,,,,,,,,,,,,,,,,,,,,,,,,,,,,,,,,,,,,,,,,,,,,,,,,,,,,,,,,,,,,
1739354693.942606,1739354693.943302,104.000000,0.000000,4495.384766,4403.589844,4431.666504,5611.282227,4341.410156,4331.666504,4322.820313,4311.538574,4330.384766,4352.692383,5489.615234,4649.358887,4557.179688,4584.615234,5554.000000,1.000000,16.000000,,,,0.000000,4.000000,4.000000,4.000000,4.000000,4.000000,4.000000,4.000000,4.000000,4.000000,4.000000,4.000000,4.000000,4.000000,4.000000,100.000000,,,,,,,,,,,,,,,,,26.000000,0.000000,0.414818,0.415710,-0.546753,0.596802,0.950800,-0.312050,0.047369,-37.908165,-30.884014,44.026844,,,,,,,,,,,,,,,,,,,,,,,,,,,,,,,,,,,,,,,,,,,,,,,,,,,,,,,,,,,,,,,,,,,,,,,,,,,,,,,,,,,,,,,,,,,,,,,,,,,,,
1739354693.950414,1739354693.951110,105.000000,0.000000,4493.974121,4397.820313,4426.922852,5523.461426,4337.307617,4325.769043,4318.461426,4306.794922,4326.538574,4342.820313,5481.666504,4645.897461,4548.333496,4586.922852,6541.000000,1.000000,16.000000,,,,0.000000,4.000000,4.000000,4.000000,4.000000,4.000000,4.000000,4.000000,4.000000,4.000000,4.000000,4.000000,4.000000,4.000000,4.000000,100.000000,,,,,,,,,,,,,,,,,,,,,,,,,,,,,,,,,,,,,,,,,,,,,,,,,,,,,,,,,,,,,,,,,,,,,,,,,,,,,,,,,,,,,,,,,,,,,,,,,,,,,,,,,,,,,,,,,,,,,,,,,,,,,,,,,
1739354693.958222,1739354693.958818,106.000000,0.000000,4477.307617,4375.641113,4404.871582,5430.000000,4311.666504,4295.000000,4296.538574,4298.077148,4309.871582,4323.077148,5459.102539,4626.538574,4528.974121,4571.410156,5003.000000,1.000000,16.000000,,,,0.000000,4.000000,4.000000,4.000000,4.000000,4.000000,4.000000,4.000000,4.000000,4.000000,4.000000,4.000000,4.000000,4.000000,4.000000,100.000000,,,,,,,,,,,,,,,,,,,,,,,,,,,,,,,,,,,,,,,,,,,,,,,,,,,,,,,,,,,,53.040359,12.409616,3.560407,3.453355,1.393203,38.508232,7.746085,2.872710,2.996490,1.264345,6.395146,3.374512,0.737200,2.144251,1.151482,34.116680,3.854054,1.403817,2.651957,1.260928,1.496601,0.356509,0.588932,1.427573,0.895459,0.892198,0.484094,0.672064,1.757517,1.023054,1.521209,1.164802,0.960940,1.689873,1.077691,0.594881,1.408338,0.582728,0.572524,0.390770,0.947046,5.119725,0.980869,1.508192,1.239104,1.588727,6.522453,1.633329,2.022997,1.290547,6.215543,8.498792,1.156394,2.043467,1.209981,8.033904,9.616887,0.975535,2.950494,1.845849,22.394545,11.209645,2.060927,2.037361,1.336722,43.207989,14.725639,2.816284,2.535058,1.287676
1739354693.966030,1739354693.966626,107.000000,0.000000,4479.102539,4373.717773,4405.512695,5362.307617,4305.897461,4299.230957,4303.461426,4302.692383,4312.948730,4333.717773,5457.820313,4633.717773,4533.589844,4574.487305,5470.000000,1.000000,16.000000,,,,0.000000,4.000000,4.000000,4.000000,4.000000,4.000000,4.000000,4.000000,4.000000,4.000000,4.000000,4.000000,4.000000,4.000000,4.000000,100.000000,,,,,,,,,,,,,,,,,,,,,,,,,,,,,,,,,,,,,,,,,,,,,,,,,,,,,,,,,,,,,,,,,,,,,,,,,,,,,,,,,,,,,,,,,,,,,,,,,,,,,,,,,,,,,,,,,,,,,,,,,,,,,,,,,
1739354693.973838,1739354693.974335,108.000000,0.000000,4505.641113,4396.794922,4432.436035,5319.871582,4326.025879,4324.230957,4331.282227,4313.589844,4331.538574,4358.846191,5468.333496,4668.205078,4561.025879,4605.384766,5554.000000,1.000000,16.000000,,,,0.000000,4.000000,4.000000,4.000000,4.000000,4.000000,4.000000,4.000000,4.000000,4.000000,4.000000,4.000000,4.000000,4.000000,4.000000,100.000000,,,,,,,,,,,,,,,,,27.000000,0.000000,0.414814,0.415283,-0.546814,0.597046,0.948846,-0.311073,0.062019,-37.934017,-30.828945,44.124161,,,,,,,,,,,,,,,,,,,,,,,,,,,,,,,,,,,,,,,,,,,,,,,,,,,,,,,,,,,,,,,,,,,,,,,,,,,,,,,,,,,,,,,,,,,,,,,,,,,,,
1739354693.981646,1739354693.982142,109.000000,0.000000,4512.051270,4393.974121,4433.846191,5258.974121,4329.358887,4313.461426,4321.153809,4308.846191,4324.871582,4350.897461,5450.384766,4669.358887,4558.077148,4607.436035,6541.000000,1.000000,16.000000,,,,0.000000,4.000000,4.000000,4.000000,4.000000,4.000000,4.000000,4.000000,4.000000,4.000000,4.000000,4.000000,4.000000,4.000000,4.000000,100.000000,,,,,,,,,,,,,,,,,,,,,,,,,,,,,,,,,,,,,,,,,,,,,,,,,,,,,,,,,,,,,,,,,,,,,,,,,,,,,,,,,,,,,,,,,,,,,,,,,,,,,,,,,,,,,,,,,,,,,,,,,,,,,,,,,
1739354693.989454,1739354693.989851,110.000000,0.000000,4499.230957,4375.897461,4422.051270,5198.077148,4321.153809,4298.974121,4311.282227,4306.025879,4322.179688,4344.487305,5432.692383,4659.615234,4539.102539,4593.077148,5003.000000,1.000000,16.000000,,,,0.000000,4.000000,4.000000,4.000000,4.000000,4.000000,4.000000,4.000000,4.000000,4.000000,4.000000,4.000000,4.000000,4.000000,4.000000,100.000000,,,,,,,,,,,,,,,,,,,,,,,,,,,,,,,,,,,,,,,,,,,,,,,,,,,,,,,,,,,,,,,,,,,,,,,,,,,,,,,,,,,,,,,,,,,,,,,,,,,,,,,,,,,,,,,,,,,,,,,,,,,,,,,,,
1739354693.997262,1739354693.997759,111.000000,0.000000,4491.538574,4372.692383,4419.615234,5156.025879,4321.410156,4305.512695,4324.615234,4310.641113,4331.794922,4351.666504,5424.743652,4659.615234,4538.333496,4591.282227,5470.000000,1.000000,16.000000,,,,0.000000,4.000000,4.000000,4.000000,4.000000,4.000000,4.000000,4.000000,4.000000,4.000000,4.000000,4.000000,4.000000,4.000000,4.000000,100.000000,,,,,,,,,,,,,,,,,,,,,,,,,,,,,,,,,,,,,,,,,,,,,,,,,,,,,,,,,,,,,,,,,,,,,,,,,,,,,,,,,,,,,,,,,,,,,,,,,,,,,,,,,,,,,,,,,,,,,,,,,,,,,,,,,
1739354694.005070,1739354694.005567,112.000000,0.000000,4492.820313,4375.641113,4415.769043,5119.487305,4329.615234,4310.000000,4321.153809,4309.230957,4325.256348,4345.128418,5412.436035,4652.820313,4544.487305,4592.307617,5554.000000,1.000000,16.000000,,,,0.000000,4.000000,4.000000,4.000000,4.000000,4.000000,4.000000,4.000000,4.000000,4.000000,4.000000,4.000000,4.000000,4.000000,4.000000,100.000000,,,,,,,,,,,,,,,,,28.000000,0.000000,0.414732,0.414795,-0.547180,0.597107,0.943475,-0.293005,0.047369,-37.890614,-30.746050,43.845078,,,,,,,,,,,,,,,,,,,,,,,,,,,,,,,,,,,,,,,,,,,,,,,,,,,,,,,,,,,,,,,,,,,,,,,,,,,,,,,,,,,,,,,,,,,,,,,,,,,,,
1739354694.012878,1739354694.013375,113.000000,0.000000,4499.487305,4374.102539,4417.692383,5091.282227,4331.410156,4308.846191,4318.846191,4309.102539,4322.307617,4341.282227,5407.051270,4651.538574,4549.102539,4594.743652,6541.000000,1.000000,16.000000,,,,0.000000,4.000000,4.000000,4.000000,4.000000,4.000000,4.000000,4.000000,4.000000,4.000000,4.000000,4.000000,4.000000,4.000000,4.000000,100.000000,,,,,,,,,,,,,,,,,,,,,,,,,,,,,,,,,,,,,,,,,,,,,,,,,,,,,,,,,,,,,,,,,,,,,,,,,,,,,,,,,,,,,,,,,,,,,,,,,,,,,,,,,,,,,,,,,,,,,,,,,,,,,,,,,
1739354694.020686,1739354694.021083,114.000000,0.000000,4508.461426,4375.256348,4429.230957,5071.794922,4327.563965,4317.051270,4342.692383,4314.871582,4337.179688,4348.461426,5407.179688,4663.589844,4553.717773,4604.230957,5003.000000,1.000000,16.000000,,,,0.000000,4.000000,4.000000,4.000000,4.000000,4.000000,4.000000,4.000000,4.000000,4.000000,4.000000,4.000000,4.000000,4.000000,4.000000,100.000000,,,,,,,,,,,,,,,,,,,,,,,,,,,,,,,,,,,,,,,,,,,,,,,,,,,,,,,,,,,,,,,,,,,,,,,,,,,,,,,,,,,,,,,,,,,,,,,,,,,,,,,,,,,,,,,,,,,,,,,,,,,,,,,,,
1739354694.028494,1739354694.028991,115.000000,0.000000,4511.794922,4378.717773,4433.589844,5039.358887,4329.487305,4324.102539,4345.256348,4312.692383,4339.743652,4348.461426,5393.589844,4667.948730,4556.538574,4612.051270,5470.000000,1.000000,16.000000,,,,0.000000,4.000000,4.000000,4.000000,4.000000,4.000000,4.000000,4.000000,4.000000,4.000000,4.000000,4.000000,4.000000,4.000000,4.000000,100.000000,,,,,,,,,,,,,,,,,,,,,,,,,,,,,,,,,,,,,,,,,,,,,,,,,,,,,,,,,,,,,,,,,,,,,,,,,,,,,,,,,,,,,,,,,,,,,,,,,,,,,,,,,,,,,,,,,,,,,,,,,,,,,,,,,
1739354694.036302,1739354694.036799,116.000000,0.000000,4500.512695,4374.743652,4423.717773,4991.153809,4326.666504,4307.563965,4313.077148,4302.820313,4319.102539,4334.230957,5361.153809,4653.589844,4549.102539,4602.051270,5554.000000,1.000000,16.000000,,,,0.000000,4.000000,4.000000,4.000000,4.000000,4.000000,4.000000,4.000000,4.000000,4.000000,4.000000,4.000000,4.000000,4.000000,4.000000,100.000000,,,,,,,,,,,,,,,,,29.000000,0.000000,0.414693,0.414856,-0.547363,0.596924,0.954218,-0.298376,0.043462,-37.901554,-30.638113,43.893902,,,,,,,,,,,,,,,,,,,,,,,,,,,,,,,,,,,,,,,,,,,,,,,,,,,,,,,,,,,,,,,,,,,,,,,,,,,,,,,,,,,,,,,,,,,,,,,,,,,,,
1739354694.044111,1739354694.044707,117.000000,0.000000,4499.487305,4381.794922,4424.487305,4961.666504,4321.410156,4291.410156,4309.358887,4305.512695,4316.153809,4328.333496,5334.102539,4655.000000,4545.384766,4601.025879,6541.000000,1.000000,16.000000,,,,0.000000,4.000000,4.000000,4.000000,4.000000,4.000000,4.000000,4.000000,4.000000,4.000000,4.000000,4.000000,4.000000,4.000000,4.000000,100.000000,,,,,,,,,,,,,,,,,,,,,,,,,,,,,,,,,,,,,,,,,,,,,,,,,,,,,,,,,,,,,,,,,,,,,,,,,,,,,,,,,,,,,,,,,,,,,,,,,,,,,,,,,,,,,,,,,,,,,,,,,,,,,,,,,
1739354694.051919,1739354694.052515,118.000000,0.000000,4519.230957,4399.230957,4442.948730,4947.051270,4331.153809,4306.666504,4336.282227,4313.974121,4335.769043,4341.794922,5314.743652,4678.077148,4553.461426,4622.436035,5003.000000,1.000000,16.000000,,,,0.000000,4.000000,4.000000,4.000000,4.000000,4.000000,4.000000,4.000000,4.000000,4.000000,4.000000,4.000000,4.000000,4.000000,4.000000,100.000000,,,,,,,,,,,,,,,,,,,,,,,,,,,,,,,,,,,,,,,,,,,,,,,,,,,,,,,,,,,,,,,,,,,,,,,,,,,,,,,,,,,,,,,,,,,,,,,,,,,,,,,,,,,,,,,,,,,,,,,,,,,,,,,,,
1739354694.059727,1739354694.060423,119.000000,0.000000,4512.820313,4387.820313,4436.922852,4912.948730,4331.922852,4310.769043,4330.512695,4310.512695,4328.461426,4342.051270,5279.358887,4670.128418,4549.487305,4620.897461,5470.000000,1.000000,16.000000,,,,0.000000,4.000000,4.000000,4.000000,4.000000,4.000000,4.000000,4.000000,4.000000,4.000000,4.000000,4.000000,4.000000,4.000000,4.000000,100.000000,,,,,,,,,,,,,,,,,,,,,,,,,,,,,,,,,,,,,,,,,,,,,,,,,,,,,,,,,,,,,,,,,,,,,,,,,,,,,,,,,,,,,,,,,,,,,,,,,,,,,,,,,,,,,,,,,,,,,,,,,,,,,,,,,
1739354694.067535,1739354694.068231,120.000000,0.000000,4494.102539,4372.307617,4416.666504,4883.846191,4318.846191,4294.615234,4308.205078,4306.794922,4314.487305,4331.153809,5249.230957,4647.563965,4536.922852,4604.871582,5554.000000,1.000000,16.000000,,,,0.000000,4.000000,4.000000,4.000000,4.000000,4.000000,4.000000,4.000000,4.000000,4.000000,4.000000,4.000000,4.000000,4.000000,4.000000,100.000000,,,,,,,,,,,,,,,,,30.000000,0.000000,0.414260,0.414856,-0.547424,0.597168,0.942010,-0.301306,0.066414,-38.028065,-30.557634,43.837845,,,,,,,,,,,,,,,,,,,,,,,,,,,,,,,,,,,,,,,,,,,,,,,,,,,,,,,,,,,,,,,,,,,,,,,,,,,,,,,,,,,,,,,,,,,,,,,,,,,,,
1739354694.075343,1739354694.076139,121.000000,0.000000,4494.358887,4371.666504,4410.256348,4876.666504,4309.743652,4288.846191,4305.641113,4305.128418,4316.922852,4323.974121,5231.153809,4645.897461,4526.922852,4600.256348,6541.000000,1.000000,16.000000,,,,0.000000,4.000000,4.000000,4.000000,4.000000,4.000000,4.000000,4.000000,4.000000,4.000000,4.000000,4.000000,4.000000,4.000000,4.000000,100.000000,,,,,,,,,,,,,,,,,,,,,,,,,,,,,,,,,,,,,,,,,,,,,,,,,,,,,,,,,,,,,,,,,,,,,,,,,,,,,,,,,,,,,,,,,,,,,,,,,,,,,,,,,,,,,,,,,,,,,,,,,,,,,,,,,
1739354694.083151,1739354694.083947,122.000000,0.000000,4488.333496,4358.846191,4401.794922,4857.563965,4301.922852,4284.102539,4302.948730,4300.512695,4306.794922,4306.794922,5203.717773,4638.333496,4520.128418,4591.282227,5003.000000,1.000000,16.000000,,,,0.000000,4.000000,4.000000,4.000000,4.000000,4.000000,4.000000,4.000000,4.000000,4.000000,4.000000,4.000000,4.000000,4.000000,4.000000,100.000000,,,,,,,,,,,,,,,,,,,,,,,,,,,,,,,,,,,,,,,,,,,,,,,,,,,,,,,,,,,,50.700321,12.484995,3.387885,3.107870,1.460564,34.949299,7.038978,2.535443,2.517460,1.326207,6.289161,3.725476,0.832309,1.859389,1.211169,216.102509,14.226828,2.642114,2.656375,1.345610,1.526134,0.441900,0.631073,1.263139,0.952811,0.887352,0.477958,0.778205,1.525733,1.103859,1.362716,1.132055,1.203968,1.471077,1.170124,0.590735,1.250142,0.577430,0.500323,0.415648,1.385077,4.927020,1.226288,1.206984,1.303036,2.170662,6.755730,1.893199,1.752098,1.355227,13.856715,10.782819,1.790180,1.864451,1.295614,7.904478,10.027532,1.211950,2.616635,1.937275,22.095823,11.650455,2.264450,1.874139,1.375043,41.470150,15.037711,2.758365,2.319419,1.319524
1739354694.090959,1739354694.091755,123.000000,0.000000,4478.717773,4350.641113,4403.846191,4839.358887,4300.897461,4282.307617,4309.487305,4305.641113,4303.589844,4298.461426,5189.487305,4635.769043,4527.820313,4589.230957,5470.000000,1.000000,16.000000,,,,0.000000,4.000000,4.000000,4.000000,4.000000,4.000000,4.000000,4.000000,4.000000,4.000000,4.000000,4.000000,4.000000,4.000000,4.000000,100.000000,,,,,,,,,,,,,,,,,,,,,,,,,,,,,,,,,,,,,,,,,,,,,,,,,,,,,,,,,,,,,,,,,,,,,,,,,,,,,,,,,,,,,,,,,,,,,,,,,,,,,,,,,,,,,,,,,,,,,,,,,,,,,,,,,
1739354694.098767,1739354694.099563,124.000000,0.000000,4494.358887,4366.538574,4426.153809,4848.589844,4313.461426,4298.846191,4334.230957,4317.179688,4330.512695,4320.512695,5202.179688,4665.641113,4541.538574,4610.897461,5554.000000,1.000000,16.000000,,,,0.000000,4.000000,4.000000,4.000000,4.000000,4.000000,4.000000,4.000000,4.000000,4.000000,4.000000,4.000000,4.000000,4.000000,4.000000,100.000000,,,,,,,,,,,,,,,,,31.000000,0.000000,0.413747,0.414673,-0.547485,0.597595,0.954706,-0.313026,0.064949,-38.075256,-30.685204,43.837395,,,,,,,,,,,,,,,,,,,,,,,,,,,,,,,,,,,,,,,,,,,,,,,,,,,,,,,,,,,,,,,,,,,,,,,,,,,,,,,,,,,,,,,,,,,,,,,,,,,,,
1739354694.106575,1739354694.107271,125.000000,0.000000,4497.179688,4363.974121,4424.358887,4834.871582,4315.000000,4296.794922,4328.846191,4311.666504,4331.153809,4326.666504,5185.256348,4670.897461,4531.922852,4612.948730,6541.000000,1.000000,16.000000,,,,0.000000,4.000000,4.000000,4.000000,4.000000,4.000000,4.000000,4.000000,4.000000,4.000000,4.000000,4.000000,4.000000,4.000000,4.000000,100.000000,,,,,,,,,,,,,,,,,,,,,,,,,,,,,,,,,,,,,,,,,,,,,,,,,,,,,,,,,,,,,,,,,,,,,,,,,,,,,,,,,,,,,,,,,,,,,,,,,,,,,,,,,,,,,,,,,,,,,,,,,,,,,,,,,
1739354694.114383,1739354694.115079,126.000000,0.000000,4476.794922,4347.307617,4404.871582,4789.743652,4304.487305,4278.077148,4306.794922,4305.000000,4307.563965,4309.615234,5143.333496,4646.410156,4517.307617,4595.512695,5003.000000,1.000000,16.000000,,,,0.000000,4.000000,4.000000,4.000000,4.000000,4.000000,4.000000,4.000000,4.000000,4.000000,4.000000,4.000000,4.000000,4.000000,4.000000,100.000000,,,,,,,,,,,,,,,,,,,,,,,,,,,,,,,,,,,,,,,,,,,,,,,,,,,,,,,,,,,,,,,,,,,,,,,,,,,,,,,,,,,,,,,,,,,,,,,,,,,,,,,,,,,,,,,,,,,,,,,,,,,,,,,,,
