title:Yousef Rihani1739354555986, start timestamp:1739354557.285685, stop timestamp:1739354620.210989, headset type:EPOCX, headset serial:E50208A5, headset firmware:720, channels:168, sampling rate:eeg_128;mot_32;pm_0.1;pow_8, samples:8060      , version:2.2, 
Timestamp,OriginalTimestamp,EEG.Counter,EEG.Interpolated,EEG.AF3,EEG.F7,EEG.F3,EEG.FC5,EEG.T7,EEG.P7,EEG.O1,EEG.O2,EEG.P8,EEG.T8,EEG.FC6,EEG.F4,EEG.F8,EEG.AF4,EEG.RawCq,EEG.Battery,EEG.BatteryPercent,MarkerIndex,MarkerType,MarkerValueInt,EEG.MarkerHardware,CQ.AF3,CQ.F7,CQ.F3,CQ.FC5,CQ.T7,CQ.P7,CQ.O1,CQ.O2,CQ.P8,CQ.T8,CQ.FC6,CQ.F4,CQ.F8,CQ.AF4,CQ.Overall,EQ.SampleRateQuality,EQ.OVERALL,EQ.AF3,EQ.F7,EQ.F3,EQ.FC5,EQ.T7,EQ.P7,EQ.O1,EQ.O2,EQ.P8,EQ.T8,EQ.FC6,EQ.F4,EQ.F8,EQ.AF4,MOT.CounterMems,MOT.InterpolatedMems,MOT.Q0,MOT.Q1,MOT.Q2,MOT.Q3,MOT.AccX,MOT.AccY,MOT.AccZ,MOT.MagX,MOT.MagY,MOT.MagZ,PM.Attention.IsActive,PM.Attention.Scaled,PM.Attention.Raw,PM.Attention.Min,PM.Attention.Max,PM.Engagement.IsActive,PM.Engagement.Scaled,PM.Engagement.Raw,PM.Engagement.Min,PM.Engagement.Max,PM.Excitement.IsActive,PM.Excitement.Scaled,PM.Excitement.Raw,PM.Excitement.Min,PM.Excitement.Max,PM.LongTermExcitement,PM.Stress.IsActive,PM.Stress.Scaled,PM.Stress.Raw,PM.Stress.Min,PM.Stress.Max,PM.Relaxation.IsActive,PM.Relaxation.Scaled,PM.Relaxation.Raw,PM.Relaxation.Min,PM.Relaxation.Max,PM.Interest.IsActive,PM.Interest.Scaled,PM.Interest.Raw,PM.Interest.Min,PM.Interest.Max,POW.AF3.Theta,POW.AF3.Alpha,POW.AF3.BetaL,POW.AF3.BetaH,POW.AF3.Gamma,POW.F7.Theta,POW.F7.Alpha,POW.F7.BetaL,POW.F7.BetaH,POW.F7.Gamma,POW.F3.Theta,POW.F3.Alpha,POW.F3.BetaL,POW.F3.BetaH,POW.F3.Gamma,POW.FC5.Theta,POW.FC5.Alpha,POW.FC5.BetaL,POW.FC5.BetaH,POW.FC5.Gamma,POW.T7.Theta,POW.T7.Alpha,POW.T7.BetaL,POW.T7.BetaH,POW.T7.Gamma,POW.P7.Theta,POW.P7.Alpha,POW.P7.BetaL,POW.P7.BetaH,POW.P7.Gamma,POW.O1.Theta,POW.O1.Alpha,POW.O1.BetaL,POW.O1.BetaH,POW.O1.Gamma,POW.O2.Theta,POW.O2.Alpha,POW.O2.BetaL,POW.O2.BetaH,POW.O2.Gamma,POW.P8.Theta,POW.P8.Alpha,POW.P8.BetaL,POW.P8.BetaH,POW.P8.Gamma,POW.T8.Theta,POW.T8.Alpha,POW.T8.BetaL,POW.T8.BetaH,POW.T8.Gamma,POW.FC6.Theta,POW.FC6.Alpha,POW.FC6.BetaL,POW.FC6.BetaH,POW.FC6.Gamma,POW.F4.Theta,POW.F4.Alpha,POW.F4.BetaL,POW.F4.BetaH,POW.F4.Gamma,POW.F8.Theta,POW.F8.Alpha,POW.F8.BetaL,POW.F8.BetaH,POW.F8.Gamma,POW.AF4.Theta,POW.AF4.Alpha,POW.AF4.BetaL,POW.AF4.BetaH,POW.AF4.Gamma
1739354557.285685,1739354557.286492,10.000000,0.000000,4209.487305,4167.179688,4253.077148,4182.948730,4170.000000,4157.179688,4160.641113,4280.512695,4150.641113,4191.153809,4581.153809,4461.025879,4375.897461,4429.487305,5023.000000,1.000000,17.000000,,,,0.000000,4.000000,4.000000,4.000000,4.000000,4.000000,4.000000,4.000000,4.000000,4.000000,4.000000,4.000000,4.000000,4.000000,4.000000,100.000000,1.000000,25.000000,4.000000,4.000000,1.000000,1.000000,3.000000,3.000000,1.000000,4.000000,3.000000,3.000000,1.000000,3.000000,4.000000,4.000000,,,,,,,,,,,,,,,,,,,,,,,,,,,,,,,,,,,,,,,,,,,,1.545177,1.530462,1.882221,1.872857,1.279020,1.159353,0.911323,1.150450,1.612001,1.275156,0.841217,1.117498,1.565441,1.467134,1.150337,1.044773,0.698935,1.120529,1.466710,1.342770,0.754371,0.231147,0.401356,1.122293,0.944429,0.704298,0.346669,0.326507,1.063296,1.083544,1.018294,1.363969,0.571885,1.323741,1.112030,0.271247,0.307056,0.366351,0.348941,0.283128,3.254923,1.691191,1.233009,1.658895,1.113678,1.636889,2.149692,1.986115,1.706405,1.264682,3.166383,2.371013,2.090708,1.683630,1.388260,1.340929,1.912427,2.757865,2.191200,1.594187,1.030789,1.649518,2.164387,1.510682,1.180943,0.874593,1.833871,1.801538,1.826986,1.422913
1739354557.293493,1739354557.294200,11.000000,0.000000,4198.589844,4143.974121,4245.256348,4163.333496,4158.717773,4151.153809,4153.333496,4278.846191,4148.461426,4186.153809,4572.820313,4456.410156,4370.512695,4420.512695,5469.000000,1.000000,17.000000,,,,0.000000,4.000000,4.000000,4.000000,4.000000,4.000000,4.000000,4.000000,4.000000,4.000000,4.000000,4.000000,4.000000,4.000000,4.000000,100.000000,,,,,,,,,,,,,,,,,,,,,,,,,,,,,,,,,,,,,,,,,,,,,,,,,,,,,,,,,,,,,,,,,,,,,,,,,,,,,,,,,,,,,,,,,,,,,,,,,,,,,,,,,,,,,,,,,,,,,,,,,,,,,,,,,
1739354557.301302,1739354557.302008,12.000000,0.000000,4197.051270,4135.512695,4250.897461,4166.666504,4157.179688,4157.948730,4160.256348,4279.487305,4152.051270,4182.436035,4567.692383,4457.436035,4375.897461,4417.563965,5557.000000,1.000000,17.000000,,,,0.000000,4.000000,4.000000,4.000000,4.000000,4.000000,4.000000,4.000000,4.000000,4.000000,4.000000,4.000000,4.000000,4.000000,4.000000,100.000000,,,,,,,,,,,,,,,,,3.000000,0.000000,0.359865,0.467590,-0.518555,0.618835,0.938591,-0.310585,0.024417,-39.319290,-29.537407,43.701355,,,,,,,,,,,,,,,,,,,,,,,,,,,,,,,,,,,,,,,,,,,,,,,,,,,,,,,,,,,,,,,,,,,,,,,,,,,,,,,,,,,,,,,,,,,,,,,,,,,,,
1739354557.309110,1739354557.309717,13.000000,0.000000,4208.205078,4142.948730,4262.051270,4176.025879,4170.769043,4167.436035,4174.615234,4277.820313,4158.205078,4191.794922,4567.051270,4468.974121,4382.948730,4425.384766,6596.000000,1.000000,17.000000,,,,0.000000,4.000000,4.000000,4.000000,4.000000,4.000000,4.000000,4.000000,4.000000,4.000000,4.000000,4.000000,4.000000,4.000000,4.000000,100.000000,,,,,,,,,,,,,,,,,,,,,,,,,,,,,,,,,,,,,,,,,,,,,,,,,,,,,,,,,,,,,,,,,,,,,,,,,,,,,,,,,,,,,,,,,,,,,,,,,,,,,,,,,,,,,,,,,,,,,,,,,,,,,,,,,
1739354557.316918,1739354557.317524,14.000000,0.000000,4194.358887,4133.333496,4245.128418,4156.153809,4162.820313,4151.538574,4157.051270,4268.461426,4148.974121,4180.769043,4542.820313,4451.282227,4356.666504,4407.307617,5023.000000,1.000000,17.000000,,,,0.000000,4.000000,4.000000,4.000000,4.000000,4.000000,4.000000,4.000000,4.000000,4.000000,4.000000,4.000000,4.000000,4.000000,4.000000,100.000000,,,,,,,,,,,,,,,,,,,,,,,,,,,,,,,,,,,,,,,,,,,,,,,,,,,,,,,,,,,,,,,,,,,,,,,,,,,,,,,,,,,,,,,,,,,,,,,,,,,,,,,,,,,,,,,,,,,,,,,,,,,,,,,,,
1739354557.324726,1739354557.325233,15.000000,0.000000,4172.563965,4117.563965,4227.563965,4137.307617,4143.846191,4135.641113,4137.307617,4267.820313,4142.692383,4163.461426,4521.153809,4427.307617,4336.153809,4389.487305,5469.000000,1.000000,17.000000,,,,0.000000,4.000000,4.000000,4.000000,4.000000,4.000000,4.000000,4.000000,4.000000,4.000000,4.000000,4.000000,4.000000,4.000000,4.000000,100.000000,,,,,,,,,,,,,,,,,,,,,,,,,,,,,,,,,,,,,,,,,,,,,,,,,,,,,,,,,,,,,,,,,,,,,,,,,,,,,,,,,,,,,,,,,,,,,,,,,,,,,,,,,,,,,,,,,,,,,,,,,,,,,,,,,
1739354557.332534,1739354557.333041,16.000000,0.000000,4184.358887,4126.538574,4238.717773,4148.205078,4154.230957,4148.333496,4152.051270,4277.307617,4158.846191,4174.487305,4527.436035,4441.666504,4351.922852,4403.974121,0.000000,1.000000,17.000000,,,,0.000000,4.000000,4.000000,4.000000,4.000000,4.000000,4.000000,4.000000,4.000000,4.000000,4.000000,4.000000,4.000000,4.000000,4.000000,100.000000,,,,,,,,,,,,,,,,,4.000000,0.000000,0.360128,0.467346,-0.518738,0.618713,0.962520,-0.302283,0.027835,-39.337360,-29.733665,43.697887,,,,,,,,,,,,,,,,,,,,,,,,,,,,,,,,,,,,,,,,,,,,,,,,,,,,,,,,,,,,,,,,,,,,,,,,,,,,,,,,,,,,,,,,,,,,,,,,,,,,,
1739354557.340342,1739354557.340749,17.000000,0.000000,4204.615234,4146.153809,4256.282227,4161.025879,4173.717773,4162.820313,4167.051270,4283.717773,4177.307617,4194.102539,4539.358887,4463.717773,4368.589844,4422.820313,0.000000,1.000000,17.000000,,,,0.000000,4.000000,4.000000,4.000000,4.000000,4.000000,4.000000,4.000000,4.000000,4.000000,4.000000,4.000000,4.000000,4.000000,4.000000,100.000000,,,,,,,,,,,,,,,,,,,,,,,,,,,,,,,,,,,,,,,,,,,,,,,,,,,,,,,,,,,,,,,,,,,,,,,,,,,,,,,,,,,,,,,,,,,,,,,,,,,,,,,,,,,,,,,,,,,,,,,,,,,,,,,,,
1739354557.348150,1739354557.348557,18.000000,0.000000,4191.538574,4140.384766,4248.974121,4148.589844,4167.692383,4155.000000,4156.153809,4277.051270,4167.436035,4183.589844,4527.179688,4451.025879,4356.666504,4412.563965,0.000000,1.000000,17.000000,,,,0.000000,4.000000,4.000000,4.000000,4.000000,4.000000,4.000000,4.000000,4.000000,4.000000,4.000000,4.000000,4.000000,4.000000,4.000000,100.000000,,,,,,,,,,,,,,,,,,,,,,,,,,,,,,,,,,,,,,,,,,,,,,,,,,,,,,,,,,,,,,,,,,,,,,,,,,,,,,,,,,,,,,,,,,,,,,,,,,,,,,,,,,,,,,,,,,,,,,,,,,,,,,,,,
1739354557.355958,1739354557.356265,19.000000,0.000000,4175.769043,4130.384766,4232.692383,4134.871582,4152.436035,4147.051270,4146.410156,4269.487305,4151.538574,4165.384766,4510.000000,4431.922852,4341.922852,4397.307617,0.000000,1.000000,17.000000,,,,0.000000,4.000000,4.000000,4.000000,4.000000,4.000000,4.000000,4.000000,4.000000,4.000000,4.000000,4.000000,4.000000,4.000000,4.000000,100.000000,,,,,,,,,,,,,,,,,,,,,,,,,,,,,,,,,,,,,,,,,,,,,,,,,,,,,,,,,,,,,,,,,,,,,,,,,,,,,,,,,,,,,,,,,,,,,,,,,,,,,,,,,,,,,,,,,,,,,,,,,,,,,,,,,
1739354557.363766,1739354557.364073,20.000000,0.000000,4182.179688,4133.846191,4236.794922,4134.615234,4151.025879,4151.282227,4150.256348,4270.897461,4154.487305,4169.358887,4507.948730,4433.846191,4346.153809,4399.487305,0.000000,1.000000,17.000000,,,,0.000000,4.000000,4.000000,4.000000,4.000000,4.000000,4.000000,4.000000,4.000000,4.000000,4.000000,4.000000,4.000000,4.000000,4.000000,100.000000,,,,,,,,,,,,,,,,,5.000000,0.000000,0.360258,0.467285,-0.518921,0.618530,0.949823,-0.301795,0.019045,-39.503624,-29.760300,43.878098,,,,,,,,,,,,,,,,,,,,,,,,,,,,,,,,,,,,,,,,,,,,,,,,,,,,,,,,,,,,,,,,,,,,,,,,,,,,,,,,,,,,,,,,,,,,,,,,,,,,,
1739354557.371574,1739354557.371781,21.000000,0.000000,4188.077148,4136.922852,4248.205078,4136.025879,4157.692383,4154.102539,4152.692383,4270.641113,4157.051270,4171.282227,4505.769043,4439.743652,4352.563965,4404.358887,0.000000,1.000000,17.000000,,,,0.000000,4.000000,4.000000,4.000000,4.000000,4.000000,4.000000,4.000000,4.000000,4.000000,4.000000,4.000000,4.000000,4.000000,4.000000,100.000000,,,,,,,,,,,,,,,,,,,,,,,,,,,,,,,,,,,,,,,,,,,,,,,,,,,,,,,,,,,,,,,,,,,,,,,,,,,,,,,,,,,,,,,,,,,,,,,,,,,,,,,,,,,,,,,,,,,,,,,,,,,,,,,,,
1739354557.379382,1739354557.379689,22.000000,0.000000,4192.948730,4145.769043,4248.333496,4138.461426,4164.358887,4154.871582,4155.128418,4271.410156,4157.307617,4167.436035,4505.769043,4443.589844,4353.205078,4408.461426,0.000000,1.000000,17.000000,,,,0.000000,4.000000,4.000000,4.000000,4.000000,4.000000,4.000000,4.000000,4.000000,4.000000,4.000000,4.000000,4.000000,4.000000,4.000000,100.000000,,,,,,,,,,,,,,,,,,,,,,,,,,,,,,,,,,,,,,,,,,,,,,,,,,,,,,,,,,,,,,,,,,,,,,,,,,,,,,,,,,,,,,,,,,,,,,,,,,,,,,,,,,,,,,,,,,,,,,,,,,,,,,,,,
1739354557.387190,1739354557.387497,23.000000,0.000000,4200.641113,4155.641113,4249.487305,4139.102539,4169.487305,4161.410156,4163.717773,4276.282227,4166.282227,4173.717773,4508.846191,4448.589844,4355.641113,4413.077148,0.000000,1.000000,17.000000,,,,0.000000,4.000000,4.000000,4.000000,4.000000,4.000000,4.000000,4.000000,4.000000,4.000000,4.000000,4.000000,4.000000,4.000000,4.000000,100.000000,,,,,,,,,,,,,,,,,,,,,,,,,,,,,,,,,,,,,,,,,,,,,,,,,,,,,,,,,,,,,,,,,,,,,,,,,,,,,,,,,,,,,,,,,,,,,,,,,,,,,,,,,,,,,,,,,,,,,,,,,,,,,,,,,
1739354557.394998,1739354557.395405,24.000000,0.000000,4201.025879,4157.307617,4258.205078,4139.615234,4170.641113,4170.256348,4170.256348,4279.102539,4181.666504,4183.846191,4508.205078,4455.256348,4360.384766,4415.769043,0.000000,1.000000,17.000000,,,,0.000000,4.000000,4.000000,4.000000,4.000000,4.000000,4.000000,4.000000,4.000000,4.000000,4.000000,4.000000,4.000000,4.000000,4.000000,100.000000,,,,,,,,,,,,,,,,,6.000000,0.000000,0.360377,0.467407,-0.519165,0.618164,0.962520,-0.294958,0.021975,-39.503262,-29.850937,43.906956,,,,,,,,,,,,,,,,,,,,,,,,,,,,,,,,,,,,,,,,,,,,,,,,,,,,,,,,,,,,,,,,,,,,,,,,,,,,,,,,,,,,,,,,,,,,,,,,,,,,,
1739354557.402807,1739354557.403213,25.000000,0.000000,4200.000000,4158.717773,4260.641113,4144.358887,4172.820313,4171.538574,4173.077148,4284.230957,4199.871582,4197.307617,4513.333496,4462.820313,4366.282227,4422.179688,0.000000,1.000000,17.000000,,,,0.000000,4.000000,4.000000,4.000000,4.000000,4.000000,4.000000,4.000000,4.000000,4.000000,4.000000,4.000000,4.000000,4.000000,4.000000,100.000000,,,,,,,,,,,,,,,,,,,,,,,,,,,,,,,,,,,,,,,,,,,,,,,,,,,,,,,,,,,,,,,,,,,,,,,,,,,,,,,,,,,,,,,,,,,,,,,,,,,,,,,,,,,,,,,,,,,,,,,,,,,,,,,,,
1739354557.410615,1739354557.411121,26.000000,0.000000,4200.384766,4155.897461,4251.666504,4141.410156,4173.077148,4164.487305,4171.922852,4285.256348,4210.128418,4202.179688,4511.025879,4453.974121,4365.256348,4420.897461,0.000000,1.000000,17.000000,,,,0.000000,4.000000,4.000000,4.000000,4.000000,4.000000,4.000000,4.000000,4.000000,4.000000,4.000000,4.000000,4.000000,4.000000,4.000000,100.000000,,,,,,,,,,,,,,,,,,,,,,,,,,,,,,,,,,,,,,,,,,,,,,,,,,,,,,,,,,,,1.770313,1.344334,1.840964,1.732327,1.309713,1.515777,0.688675,1.095620,1.507634,1.333921,0.995161,1.005451,1.520750,1.416649,1.216076,1.937343,0.627036,1.043398,1.356944,1.422632,0.957397,0.178053,0.420761,1.114066,0.976560,0.937709,0.338186,0.314816,1.012687,1.135329,1.210629,1.026920,0.626510,1.266679,1.171169,0.282338,0.270792,0.342753,0.342517,0.289293,4.783722,1.680773,1.147515,1.540118,1.158710,1.934661,2.078206,1.957537,1.623997,1.332720,3.761673,2.433716,2.039661,1.531841,1.447509,1.683219,1.821806,2.680721,2.054506,1.677952,1.082604,1.577644,2.088383,1.410906,1.225657,0.958125,1.721674,1.808089,1.724877,1.482237
1739354557.418423,1739354557.418929,27.000000,0.000000,4195.769043,4151.282227,4243.077148,4133.589844,4166.794922,4165.384766,4166.410156,4282.307617,4201.410156,4191.025879,4493.717773,4439.230957,4356.538574,4411.922852,0.000000,1.000000,17.000000,,,,0.000000,4.000000,4.000000,4.000000,4.000000,4.000000,4.000000,4.000000,4.000000,4.000000,4.000000,4.000000,4.000000,4.000000,4.000000,100.000000,,,,,,,,,,,,,,,,,,,,,,,,,,,,,,,,,,,,,,,,,,,,,,,,,,,,,,,,,,,,,,,,,,,,,,,,,,,,,,,,,,,,,,,,,,,,,,,,,,,,,,,,,,,,,,,,,,,,,,,,,,,,,,,,,
1739354557.426231,1739354557.426837,28.000000,0.000000,4190.128418,4152.051270,4242.179688,4138.205078,4162.436035,4170.897461,4161.410156,4281.666504,4192.948730,4187.820313,4483.077148,4439.230957,4354.102539,4411.282227,0.000000,1.000000,17.000000,,,,0.000000,4.000000,4.000000,4.000000,4.000000,4.000000,4.000000,4.000000,4.000000,4.000000,4.000000,4.000000,4.000000,4.000000,4.000000,100.000000,,,,,,,,,,,,,,,,,7.000000,0.000000,0.360129,0.467407,-0.519409,0.618103,0.950311,-0.291051,0.012209,-39.436272,-29.832510,44.032925,,,,,,,,,,,,,,,,,,,,,,,,,,,,,,,,,,,,,,,,,,,,,,,,,,,,,,,,,,,,,,,,,,,,,,,,,,,,,,,,,,,,,,,,,,,,,,,,,,,,,
1739354557.434039,1739354557.434645,29.000000,0.000000,4177.179688,4137.948730,4231.153809,4128.589844,4150.000000,4153.077148,4141.794922,4273.333496,4180.641113,4179.743652,4466.922852,4425.000000,4345.256348,4398.846191,0.000000,1.000000,17.000000,,,,0.000000,4.000000,4.000000,4.000000,4.000000,4.000000,4.000000,4.000000,4.000000,4.000000,4.000000,4.000000,4.000000,4.000000,4.000000,100.000000,,,,,,,,,,,,,,,,,,,,,,,,,,,,,,,,,,,,,,,,,,,,,,,,,,,,,,,,,,,,,,,,,,,,,,,,,,,,,,,,,,,,,,,,,,,,,,,,,,,,,,,,,,,,,,,,,,,,,,,,,,,,,,,,,
1739354557.441847,1739354557.442353,30.000000,0.000000,4163.333496,4117.820313,4218.333496,4106.025879,4136.794922,4133.717773,4121.922852,4263.974121,4159.358887,4153.589844,4442.436035,4404.230957,4326.666504,4378.717773,0.000000,1.000000,17.000000,,,,0.000000,4.000000,4.000000,4.000000,4.000000,4.000000,4.000000,4.000000,4.000000,4.000000,4.000000,4.000000,4.000000,4.000000,4.000000,100.000000,,,,,,,,,,,,,,,,,,,,,,,,,,,,,,,,,,,,,,,,,,,,,,,,,,,,,,,,,,,,,,,,,,,,,,,,,,,,,,,,,,,,,,,,,,,,,,,,,,,,,,,,,,,,,,,,,,,,,,,,,,,,,,,,,
1739354557.449655,1739354557.450161,31.000000,0.000000,4179.871582,4136.666504,4238.717773,4122.307617,4151.794922,4150.000000,4136.794922,4266.794922,4167.692383,4160.769043,4454.230957,4425.384766,4336.153809,4395.256348,0.000000,1.000000,17.000000,,,,0.000000,4.000000,4.000000,4.000000,4.000000,4.000000,4.000000,4.000000,4.000000,4.000000,4.000000,4.000000,4.000000,4.000000,4.000000,100.000000,,,,,,,,,,,,,,,,,,,,,,,,,,,,,,,,,,,,,,,,,,,,,,,,,,,,,,,,,,,,,,,,,,,,,,,,,,,,,,,,,,,,,,,,,,,,,,,,,,,,,,,,,,,,,,,,,,,,,,,,,,,,,,,,,
1739354557.457463,1739354557.457869,32.000000,0.000000,4213.205078,4171.922852,4268.717773,4158.333496,4174.743652,4173.589844,4162.948730,4279.615234,4198.589844,4199.102539,4485.128418,4465.000000,4365.897461,4429.230957,0.000000,1.000000,17.000000,,,,0.000000,4.000000,4.000000,4.000000,4.000000,4.000000,4.000000,4.000000,4.000000,4.000000,4.000000,4.000000,4.000000,4.000000,4.000000,100.000000,,,,,,,,,,,,,,,,,8.000000,0.000000,0.359603,0.467163,-0.519775,0.618286,0.942986,-0.301306,0.039556,-39.359310,-29.832592,44.046299,,,,,,,,,,,,,,,,,,,,,,,,,,,,,,,,,,,,,,,,,,,,,,,,,,,,,,,,,,,,,,,,,,,,,,,,,,,,,,,,,,,,,,,,,,,,,,,,,,,,,
1739354557.465271,1739354557.465677,33.000000,0.000000,4218.461426,4173.205078,4269.871582,4160.641113,4172.820313,4171.025879,4159.230957,4281.794922,4204.871582,4205.000000,4485.384766,4467.948730,4368.205078,4432.436035,0.000000,1.000000,17.000000,,,,0.000000,4.000000,4.000000,4.000000,4.000000,4.000000,4.000000,4.000000,4.000000,4.000000,4.000000,4.000000,4.000000,4.000000,4.000000,100.000000,,,,,,,,,,,,,,,,,,,,,,,,,,,,,,,,,,,,,,,,,,,,,,,,,,,,,,,,,,,,,,,,,,,,,,,,,,,,,,,,,,,,,,,,,,,,,,,,,,,,,,,,,,,,,,,,,,,,,,,,,,,,,,,,,
1739354557.473079,1739354557.473385,34.000000,0.000000,4202.692383,4161.922852,4261.666504,4149.487305,4166.538574,4163.974121,4147.307617,4276.153809,4198.717773,4193.333496,4475.128418,4455.128418,4355.512695,4422.436035,0.000000,1.000000,17.000000,,,,0.000000,4.000000,4.000000,4.000000,4.000000,4.000000,4.000000,4.000000,4.000000,4.000000,4.000000,4.000000,4.000000,4.000000,4.000000,100.000000,,,,,,,,,,,,,,,,,,,,,,,,,,,,,,,,,,,,,,,,,,,,,,,,,,,,,,,,,,,,,,,,,,,,,,,,,,,,,,,,,,,,,,,,,,,,,,,,,,,,,,,,,,,,,,,,,,,,,,,,,,,,,,,,,
1739354557.480887,1739354557.481193,35.000000,0.000000,4202.948730,4163.205078,4266.153809,4154.743652,4170.512695,4168.333496,4156.282227,4281.538574,4207.307617,4198.077148,4475.897461,4457.692383,4358.077148,4425.897461,0.000000,1.000000,17.000000,,,,0.000000,4.000000,4.000000,4.000000,4.000000,4.000000,4.000000,4.000000,4.000000,4.000000,4.000000,4.000000,4.000000,4.000000,4.000000,100.000000,,,,,,,,,,,,,,,,,,,,,,,,,,,,,,,,,,,,,,,,,,,,,,,,,,,,,,,,,,,,,,,,,,,,,,,,,,,,,,,,,,,,,,,,,,,,,,,,,,,,,,,,,,,,,,,,,,,,,,,,,,,,,,,,,
1739354557.488696,1739354557.488901,36.000000,0.000000,4209.487305,4160.000000,4267.820313,4155.641113,4169.358887,4170.512695,4167.436035,4282.692383,4209.102539,4199.743652,4470.512695,4458.846191,4358.461426,4425.512695,0.000000,1.000000,17.000000,,,,0.000000,4.000000,4.000000,4.000000,4.000000,4.000000,4.000000,4.000000,4.000000,4.000000,4.000000,4.000000,4.000000,4.000000,4.000000,100.000000,,,,,,,,,,,,,,,,,9.000000,0.000000,0.359245,0.466980,-0.519897,0.618530,0.951776,-0.312050,0.021975,-39.356712,-29.816000,43.991669,,,,,,,,,,,,,,,,,,,,,,,,,,,,,,,,,,,,,,,,,,,,,,,,,,,,,,,,,,,,,,,,,,,,,,,,,,,,,,,,,,,,,,,,,,,,,,,,,,,,,
1739354557.496503,1739354557.496709,37.000000,0.000000,4206.410156,4160.000000,4263.717773,4153.077148,4169.230957,4167.179688,4170.128418,4278.717773,4205.256348,4197.820313,4470.769043,4454.615234,4353.461426,4422.307617,0.000000,1.000000,17.000000,,,,0.000000,4.000000,4.000000,4.000000,4.000000,4.000000,4.000000,4.000000,4.000000,4.000000,4.000000,4.000000,4.000000,4.000000,4.000000,100.000000,,,,,,,,,,,,,,,,,,,,,,,,,,,,,,,,,,,,,,,,,,,,,,,,,,,,,,,,,,,,,,,,,,,,,,,,,,,,,,,,,,,,,,,,,,,,,,,,,,,,,,,,,,,,,,,,,,,,,,,,,,,,,,,,,
1739354557.504312,1739354557.504417,38.000000,0.000000,4202.436035,4166.666504,4261.922852,4153.846191,4170.128418,4166.666504,4165.769043,4278.974121,4206.153809,4201.666504,4479.230957,4450.897461,4355.000000,4419.871582,0.000000,1.000000,17.000000,,,,0.000000,4.000000,4.000000,4.000000,4.000000,4.000000,4.000000,4.000000,4.000000,4.000000,4.000000,4.000000,4.000000,4.000000,4.000000,100.000000,,,,,,,,,,,,,,,,,,,,,,,,,,,,,,,,,,,,,,,,,,,,,,,,,,,,,,,,,,,,,,,,,,,,,,,,,,,,,,,,,,,,,,,,,,,,,,,,,,,,,,,,,,,,,,,,,,,,,,,,,,,,,,,,,
1739354557.512120,1739354557.512225,39.000000,0.000000,4198.205078,4156.282227,4260.897461,4150.769043,4170.769043,4176.666504,4163.846191,4278.077148,4202.436035,4203.333496,4477.820313,4450.512695,4353.589844,4416.025879,0.000000,1.000000,17.000000,,,,0.000000,4.000000,4.000000,4.000000,4.000000,4.000000,4.000000,4.000000,4.000000,4.000000,4.000000,4.000000,4.000000,4.000000,4.000000,100.000000,,,,,,,,,,,,,,,,,,,,,,,,,,,,,,,,,,,,,,,,,,,,,,,,,,,,,,,,,,,,,,,,,,,,,,,,,,,,,,,,,,,,,,,,,,,,,,,,,,,,,,,,,,,,,,,,,,,,,,,,,,,,,,,,,
1739354557.519928,1739354557.519933,40.000000,0.000000,4198.461426,4146.410156,4264.487305,4154.230957,4174.230957,4182.820313,4165.897461,4275.000000,4201.794922,4198.333496,4471.922852,4454.358887,4349.615234,4422.179688,0.000000,1.000000,17.000000,,,,0.000000,4.000000,4.000000,4.000000,4.000000,4.000000,4.000000,4.000000,4.000000,4.000000,4.000000,4.000000,4.000000,4.000000,4.000000,100.000000,,,,,,,,,,,,,,,,,10.000000,0.000000,0.358992,0.466919,-0.519836,0.618774,0.945428,-0.305701,0.026859,-39.437706,-29.934399,43.942505,,,,,,,,,,,,,,,,,,,,,,,,,,,,,,,,,,,,,,,,,,,,,,,,,,,,,,,,,,,,,,,,,,,,,,,,,,,,,,,,,,,,,,,,,,,,,,,,,,,,,
1739354557.527736,1739354557.527741,41.000000,0.000000,4209.743652,4173.846191,4266.922852,4166.794922,4171.538574,4172.307617,4158.333496,4274.230957,4197.948730,4189.871582,4467.692383,4452.563965,4350.000000,4431.025879,0.000000,1.000000,17.000000,,,,0.000000,4.000000,4.000000,4.000000,4.000000,4.000000,4.000000,4.000000,4.000000,4.000000,4.000000,4.000000,4.000000,4.000000,4.000000,100.000000,,,,,,,,,,,,,,,,,,,,,,,,,,,,,,,,,,,,,,,,,,,,,,,,,,,,,,,,,,,,,,,,,,,,,,,,,,,,,,,,,,,,,,,,,,,,,,,,,,,,,,,,,,,,,,,,,,,,,,,,,,,,,,,,,
1739354557.535544,1739354557.535449,42.000000,0.000000,4222.563965,4214.230957,4266.153809,4181.025879,4174.230957,4168.077148,4151.794922,4271.794922,4186.153809,4182.436035,4460.000000,4444.230957,4348.077148,4436.025879,0.000000,1.000000,17.000000,,,,0.000000,4.000000,4.000000,4.000000,4.000000,4.000000,4.000000,4.000000,4.000000,4.000000,4.000000,4.000000,4.000000,4.000000,4.000000,100.000000,,,,,,,,,,,,,,,,,,,,,,,,,,,,,,,,,,,,,,,,,,,,,,,,,,,,,,,,,,,,1.964391,1.130675,1.649745,1.571569,1.330362,2.041423,0.631659,0.970385,1.373126,1.363796,1.137855,0.836488,1.352421,1.338981,1.271530,3.296332,0.590129,0.912274,1.224975,1.490255,1.234942,0.164202,0.408780,1.097049,1.005718,1.172257,0.381957,0.301783,0.951496,1.167808,1.402853,1.035843,0.759467,1.189008,1.219102,0.279614,0.241831,0.319128,0.326505,0.301543,6.007064,1.638337,1.078468,1.368758,1.193764,2.147228,1.961192,1.848220,1.472466,1.399170,4.563303,2.358028,1.834903,1.367685,1.499971,1.971777,1.561560,2.438611,1.890427,1.765073,1.159930,1.480561,1.859780,1.304733,1.256997,0.995007,1.500627,1.681953,1.585477,1.512126
1739354557.543352,1739354557.543357,43.000000,0.000000,4221.794922,4222.820313,4262.179688,4184.230957,4180.000000,4173.461426,4147.692383,4266.410156,4178.205078,4170.897461,4443.205078,4431.666504,4327.563965,4433.077148,0.000000,1.000000,17.000000,,,,0.000000,4.000000,4.000000,4.000000,4.000000,4.000000,4.000000,4.000000,4.000000,4.000000,4.000000,4.000000,4.000000,4.000000,4.000000,100.000000,,,,,,,,,,,,,,,,,,,,,,,,,,,,,,,,,,,,,,,,,,,,,,,,,,,,,,,,,,,,,,,,,,,,,,,,,,,,,,,,,,,,,,,,,,,,,,,,,,,,,,,,,,,,,,,,,,,,,,,,,,,,,,,,,
1739354557.551160,1739354557.551165,44.000000,0.000000,4221.410156,4221.794922,4260.128418,4183.846191,4176.922852,4171.153809,4141.282227,4270.000000,4182.051270,4163.461426,4435.384766,4427.436035,4313.974121,4431.538574,0.000000,1.000000,17.000000,,,,0.000000,4.000000,4.000000,4.000000,4.000000,4.000000,4.000000,4.000000,4.000000,4.000000,4.000000,4.000000,4.000000,4.000000,4.000000,100.000000,,,,,,,,,,,,,,,,,11.000000,0.000000,0.359063,0.466919,-0.519714,0.618835,0.936149,-0.287633,0.024417,-39.343937,-29.940960,43.981586,,,,,,,,,,,,,,,,,,,,,,,,,,,,,,,,,,,,,,,,,,,,,,,,,,,,,,,,,,,,,,,,,,,,,,,,,,,,,,,,,,,,,,,,,,,,,,,,,,,,,
1739354557.558968,1739354557.559073,45.000000,0.000000,4233.846191,4238.717773,4263.333496,4194.487305,4176.538574,4169.230957,4141.794922,4275.641113,4187.051270,4171.538574,4447.436035,4438.974121,4327.820313,4442.051270,0.000000,1.000000,17.000000,,,,0.000000,4.000000,4.000000,4.000000,4.000000,4.000000,4.000000,4.000000,4.000000,4.000000,4.000000,4.000000,4.000000,4.000000,4.000000,100.000000,,,,,,,,,,,,,,,,,,,,,,,,,,,,,,,,,,,,,,,,,,,,,,,,,,,,,,,,,,,,,,,,,,,,,,,,,,,,,,,,,,,,,,,,,,,,,,,,,,,,,,,,,,,,,,,,,,,,,,,,,,,,,,,,,
1739354557.566776,1739354557.566881,46.000000,0.000000,4242.563965,4250.641113,4267.563965,4206.794922,4187.563965,4179.743652,4158.717773,4277.563965,4187.948730,4178.461426,4454.358887,4448.589844,4337.307617,4448.589844,0.000000,1.000000,17.000000,,,,0.000000,4.000000,4.000000,4.000000,4.000000,4.000000,4.000000,4.000000,4.000000,4.000000,4.000000,4.000000,4.000000,4.000000,4.000000,100.000000,,,,,,,,,,,,,,,,,,,,,,,,,,,,,,,,,,,,,,,,,,,,,,,,,,,,,,,,,,,,,,,,,,,,,,,,,,,,,,,,,,,,,,,,,,,,,,,,,,,,,,,,,,,,,,,,,,,,,,,,,,,,,,,,,
1739354557.574584,1739354557.574789,47.000000,0.000000,4233.717773,4238.205078,4266.794922,4200.897461,4190.897461,4189.230957,4170.256348,4276.025879,4187.436035,4171.282227,4444.871582,4440.128418,4322.179688,4436.666504,0.000000,1.000000,17.000000,,,,0.000000,4.000000,4.000000,4.000000,4.000000,4.000000,4.000000,4.000000,4.000000,4.000000,4.000000,4.000000,4.000000,4.000000,4.000000,100.000000,,,,,,,,,,,,,,,,,,,,,,,,,,,,,,,,,,,,,,,,,,,,,,,,,,,,,,,,,,,,,,,,,,,,,,,,,,,,,,,,,,,,,,,,,,,,,,,,,,,,,,,,,,,,,,,,,,,,,,,,,,,,,,,,,
1739354557.582392,1739354557.582597,48.000000,0.000000,4217.820313,4219.743652,4257.563965,4185.000000,4183.974121,4186.282227,4166.410156,4272.563965,4185.641113,4165.897461,4438.461426,4429.358887,4308.077148,4420.641113,0.000000,1.000000,17.000000,,,,0.000000,4.000000,4.000000,4.000000,4.000000,4.000000,4.000000,4.000000,4.000000,4.000000,4.000000,4.000000,4.000000,4.000000,4.000000,100.000000,,,,,,,,,,,,,,,,,12.000000,0.000000,0.359328,0.466919,-0.519531,0.618835,0.956660,-0.295446,0.028324,-39.209541,-29.780197,44.050095,,,,,,,,,,,,,,,,,,,,,,,,,,,,,,,,,,,,,,,,,,,,,,,,,,,,,,,,,,,,,,,,,,,,,,,,,,,,,,,,,,,,,,,,,,,,,,,,,,,,,
1739354557.590201,1739354557.590505,49.000000,0.000000,4214.743652,4215.512695,4255.512695,4188.077148,4186.153809,4188.846191,4174.487305,4276.410156,4188.205078,4169.487305,4443.846191,4430.384766,4312.051270,4420.769043,0.000000,1.000000,17.000000,,,,0.000000,4.000000,4.000000,4.000000,4.000000,4.000000,4.000000,4.000000,4.000000,4.000000,4.000000,4.000000,4.000000,4.000000,4.000000,100.000000,,,,,,,,,,,,,,,,,,,,,,,,,,,,,,,,,,,,,,,,,,,,,,,,,,,,,,,,,,,,,,,,,,,,,,,,,,,,,,,,,,,,,,,,,,,,,,,,,,,,,,,,,,,,,,,,,,,,,,,,,,,,,,,,,
1739354557.598009,1739354557.598313,50.000000,0.000000,4216.282227,4213.077148,4259.743652,4192.820313,4186.282227,4194.743652,4183.974121,4276.794922,4188.205078,4168.717773,4443.333496,4430.769043,4314.358887,4424.230957,0.000000,1.000000,17.000000,,,,0.000000,4.000000,4.000000,4.000000,4.000000,4.000000,4.000000,4.000000,4.000000,4.000000,4.000000,4.000000,4.000000,4.000000,4.000000,100.000000,,,,,,,,,,,,,,,,,,,,,,,,,,,,,,,,,,,,,,,,,,,,,,,,,,,,,,,,,,,,,,,,,,,,,,,,,,,,,,,,,,,,,,,,,,,,,,,,,,,,,,,,,,,,,,,,,,,,,,,,,,,,,,,,,
1739354557.605816,1739354557.606221,51.000000,0.000000,4215.256348,4211.666504,4259.871582,4185.769043,4185.000000,4193.077148,4177.051270,4270.256348,4180.897461,4168.077148,4439.487305,4429.743652,4314.871582,4424.743652,0.000000,1.000000,17.000000,,,,0.000000,4.000000,4.000000,4.000000,4.000000,4.000000,4.000000,4.000000,4.000000,4.000000,4.000000,4.000000,4.000000,4.000000,4.000000,100.000000,,,,,,,,,,,,,,,,,,,,,,,,,,,,,,,,,,,,,,,,,,,,,,,,,,,,,,,,,,,,,,,,,,,,,,,,,,,,,,,,,,,,,,,,,,,,,,,,,,,,,,,,,,,,,,,,,,,,,,,,,,,,,,,,,
1739354557.613625,1739354557.614029,52.000000,0.000000,4216.922852,4215.897461,4260.000000,4185.769043,4189.102539,4188.589844,4165.897461,4269.358887,4175.641113,4173.205078,4436.538574,4431.282227,4321.153809,4426.410156,0.000000,1.000000,17.000000,,,,0.000000,4.000000,4.000000,4.000000,4.000000,4.000000,4.000000,4.000000,4.000000,4.000000,4.000000,4.000000,4.000000,4.000000,4.000000,100.000000,,,,,,,,,,,,,,,,,13.000000,0.000000,0.359293,0.466797,-0.519592,0.618896,0.958125,-0.304725,0.019534,-39.288589,-29.752176,44.011753,,,,,,,,,,,,,,,,,,,,,,,,,,,,,,,,,,,,,,,,,,,,,,,,,,,,,,,,,,,,,,,,,,,,,,,,,,,,,,,,,,,,,,,,,,,,,,,,,,,,,
1739354557.621433,1739354557.621937,53.000000,0.000000,4203.461426,4203.589844,4249.358887,4180.897461,4177.820313,4172.948730,4147.051270,4267.436035,4162.563965,4159.871582,4419.102539,4415.897461,4310.000000,4412.563965,0.000000,1.000000,17.000000,,,,0.000000,4.000000,4.000000,4.000000,4.000000,4.000000,4.000000,4.000000,4.000000,4.000000,4.000000,4.000000,4.000000,4.000000,4.000000,100.000000,,,,,,,,,,,,,,,,,,,,,,,,,,,,,,,,,,,,,,,,,,,,,,,,,,,,,,,,,,,,,,,,,,,,,,,,,,,,,,,,,,,,,,,,,,,,,,,,,,,,,,,,,,,,,,,,,,,,,,,,,,,,,,,,,
1739354557.629241,1739354557.629745,54.000000,0.000000,4195.256348,4197.179688,4244.615234,4178.589844,4170.256348,4161.922852,4133.589844,4266.025879,4157.563965,4154.358887,4415.769043,4409.230957,4302.563965,4405.641113,0.000000,1.000000,17.000000,,,,0.000000,4.000000,4.000000,4.000000,4.000000,4.000000,4.000000,4.000000,4.000000,4.000000,4.000000,4.000000,4.000000,4.000000,4.000000,100.000000,,,,,,,,,,,,,,,,,,,,,,,,,,,,,,,,,,,,,,,,,,,,,,,,,,,,,,,,,,,,,,,,,,,,,,,,,,,,,,,,,,,,,,,,,,,,,,,,,,,,,,,,,,,,,,,,,,,,,,,,,,,,,,,,,
1739354557.637049,1739354557.637453,55.000000,0.000000,4221.794922,4224.102539,4269.615234,4203.077148,4191.666504,4184.358887,4154.615234,4280.000000,4185.256348,4187.436035,4449.743652,4442.948730,4325.769043,4434.487305,0.000000,1.000000,17.000000,,,,0.000000,4.000000,4.000000,4.000000,4.000000,4.000000,4.000000,4.000000,4.000000,4.000000,4.000000,4.000000,4.000000,4.000000,4.000000,100.000000,,,,,,,,,,,,,,,,,,,,,,,,,,,,,,,,,,,,,,,,,,,,,,,,,,,,,,,,,,,,,,,,,,,,,,,,,,,,,,,,,,,,,,,,,,,,,,,,,,,,,,,,,,,,,,,,,,,,,,,,,,,,,,,,,
1739354557.644857,1739354557.645261,56.000000,0.000000,4242.051270,4242.436035,4289.743652,4220.641113,4208.205078,4204.102539,4178.461426,4290.384766,4211.025879,4213.333496,4472.948730,4470.000000,4341.666504,4458.846191,0.000000,1.000000,17.000000,,,,0.000000,4.000000,4.000000,4.000000,4.000000,4.000000,4.000000,4.000000,4.000000,4.000000,4.000000,4.000000,4.000000,4.000000,4.000000,100.000000,,,,,,,,,,,,,,,,,14.000000,0.000000,0.359125,0.466736,-0.519836,0.618835,0.958613,-0.308143,0.028324,-39.176395,-29.810293,43.977242,,,,,,,,,,,,,,,,,,,,,,,,,,,,,,,,,,,,,,,,,,,,,,,,,,,,,,,,,,,,,,,,,,,,,,,,,,,,,,,,,,,,,,,,,,,,,,,,,,,,,
1739354557.652665,1739354557.652969,57.000000,0.000000,4229.230957,4227.179688,4277.820313,4207.948730,4195.769043,4187.563965,4164.487305,4277.820313,4197.692383,4200.769043,4456.666504,4457.948730,4327.051270,4445.256348,0.000000,1.000000,17.000000,,,,0.000000,4.000000,4.000000,4.000000,4.000000,4.000000,4.000000,4.000000,4.000000,4.000000,4.000000,4.000000,4.000000,4.000000,4.000000,100.000000,,,,,,,,,,,,,,,,,,,,,,,,,,,,,,,,,,,,,,,,,,,,,,,,,,,,,,,,,,,,,,,,,,,,,,,,,,,,,,,,,,,,,,,,,,,,,,,,,,,,,,,,,,,,,,,,,,,,,,,,,,,,,,,,,
1739354557.660473,1739354557.660777,58.000000,0.000000,4226.794922,4223.846191,4275.641113,4207.948730,4195.897461,4187.051270,4166.922852,4278.205078,4186.410156,4195.256348,4457.436035,4458.333496,4327.692383,4442.051270,0.000000,1.000000,17.000000,,,,0.000000,4.000000,4.000000,4.000000,4.000000,4.000000,4.000000,4.000000,4.000000,4.000000,4.000000,4.000000,4.000000,4.000000,4.000000,100.000000,,,,,,,,,,,,,,,,,,,,,,,,,,,,,,,,,,,,,,,,,,,,,,,,,,,,,,,,,,,,2.119770,0.949315,1.380583,1.434105,1.324036,2.550189,0.738099,0.825524,1.238638,1.342300,1.271603,0.679688,1.110540,1.258212,1.288947,4.801277,0.581641,0.762012,1.098239,1.508846,1.519042,0.206118,0.375507,1.064789,1.012645,1.383838,0.457269,0.291563,0.882139,1.154694,1.597882,1.214236,0.930537,1.104300,1.224930,0.259208,0.220233,0.299694,0.308219,0.306920,6.597289,1.561331,1.066705,1.195601,1.191472,2.227553,1.807328,1.697502,1.298254,1.428402,5.647907,2.226304,1.526245,1.243792,1.505570,2.186931,1.253656,2.104285,1.751267,1.802646,1.270002,1.374773,1.549405,1.228619,1.254163,0.969197,1.226196,1.480103,1.462662,1.487308
1739354557.668281,1739354557.668485,59.000000,0.000000,4233.077148,4228.846191,4282.179688,4217.051270,4206.282227,4207.563965,4193.077148,4290.897461,4195.641113,4202.692383,4470.256348,4467.563965,4339.102539,4451.410156,0.000000,1.000000,17.000000,,,,0.000000,4.000000,4.000000,4.000000,4.000000,4.000000,4.000000,4.000000,4.000000,4.000000,4.000000,4.000000,4.000000,4.000000,4.000000,100.000000,,,,,,,,,,,,,,,,,,,,,,,,,,,,,,,,,,,,,,,,,,,,,,,,,,,,,,,,,,,,,,,,,,,,,,,,,,,,,,,,,,,,,,,,,,,,,,,,,,,,,,,,,,,,,,,,,,,,,,,,,,,,,,,,,
1739354557.676089,1739354557.676293,60.000000,0.000000,4205.000000,4201.794922,4255.256348,4191.666504,4187.948730,4191.538574,4179.487305,4280.256348,4174.230957,4179.102539,4439.743652,4431.794922,4315.769043,4421.282227,0.000000,1.000000,17.000000,,,,0.000000,4.000000,4.000000,4.000000,4.000000,4.000000,4.000000,4.000000,4.000000,4.000000,4.000000,4.000000,4.000000,4.000000,4.000000,100.000000,,,,,,,,,,,,,,,,,15.000000,0.000000,0.358858,0.466614,-0.520203,0.618774,0.941033,-0.300818,0.020999,-39.108757,-29.745930,43.879520,,,,,,,,,,,,,,,,,,,,,,,,,,,,,,,,,,,,,,,,,,,,,,,,,,,,,,,,,,,,,,,,,,,,,,,,,,,,,,,,,,,,,,,,,,,,,,,,,,,,,
1739354557.683897,1739354557.684001,61.000000,0.000000,4187.692383,4189.871582,4239.615234,4179.871582,4181.025879,4180.384766,4166.153809,4271.025879,4152.820313,4164.358887,4420.000000,4408.205078,4300.256348,4402.563965,0.000000,1.000000,17.000000,,,,0.000000,4.000000,4.000000,4.000000,4.000000,4.000000,4.000000,4.000000,4.000000,4.000000,4.000000,4.000000,4.000000,4.000000,4.000000,100.000000,,,,,,,,,,,,,,,,,,,,,,,,,,,,,,,,,,,,,,,,,,,,,,,,,,,,,,,,,,,,,,,,,,,,,,,,,,,,,,,,,,,,,,,,,,,,,,,,,,,,,,,,,,,,,,,,,,,,,,,,,,,,,,,,,
1739354557.691705,1739354557.691909,62.000000,0.000000,4211.282227,4217.948730,4261.666504,4205.384766,4202.179688,4205.641113,4195.512695,4280.384766,4175.769043,4188.717773,4443.205078,4435.641113,4321.282227,4428.461426,0.000000,1.000000,17.000000,,,,0.000000,4.000000,4.000000,4.000000,4.000000,4.000000,4.000000,4.000000,4.000000,4.000000,4.000000,4.000000,4.000000,4.000000,4.000000,100.000000,,,,,,,,,,,,,,,,,,,,,,,,,,,,,,,,,,,,,,,,,,,,,,,,,,,,,,,,,,,,,,,,,,,,,,,,,,,,,,,,,,,,,,,,,,,,,,,,,,,,,,,,,,,,,,,,,,,,,,,,,,,,,,,,,
1739354557.699514,1739354557.699717,63.000000,0.000000,4224.358887,4227.820313,4269.615234,4213.974121,4208.205078,4214.487305,4209.487305,4286.153809,4191.153809,4200.897461,4453.589844,4446.538574,4329.871582,4436.025879,0.000000,1.000000,17.000000,,,,0.000000,4.000000,4.000000,4.000000,4.000000,4.000000,4.000000,4.000000,4.000000,4.000000,4.000000,4.000000,4.000000,4.000000,4.000000,100.000000,,,,,,,,,,,,,,,,,,,,,,,,,,,,,,,,,,,,,,,,,,,,,,,,,,,,,,,,,,,,,,,,,,,,,,,,,,,,,,,,,,,,,,,,,,,,,,,,,,,,,,,,,,,,,,,,,,,,,,,,,,,,,,,,,
1739354557.707322,1739354557.707625,64.000000,0.000000,4211.794922,4206.153809,4252.563965,4197.051270,4196.922852,4198.974121,4187.563965,4280.384766,4171.538574,4185.256348,4440.256348,4425.769043,4317.563965,4416.538574,5130.000000,1.000000,17.000000,,,,0.000000,4.000000,4.000000,4.000000,4.000000,4.000000,4.000000,4.000000,4.000000,4.000000,4.000000,4.000000,4.000000,4.000000,4.000000,100.000000,,,,,,,,,,,,,,,,,16.000000,0.000000,0.358769,0.466614,-0.520264,0.618774,0.942498,-0.292516,0.017092,-39.081215,-29.738005,44.041569,,,,,,,,,,,,,,,,,,,,,,,,,,,,,,,,,,,,,,,,,,,,,,,,,,,,,,,,,,,,,,,,,,,,,,,,,,,,,,,,,,,,,,,,,,,,,,,,,,,,,
1739354557.715130,1739354557.715434,65.000000,0.000000,4206.794922,4196.666504,4249.871582,4191.153809,4196.794922,4198.974121,4182.820313,4278.077148,4162.563965,4185.128418,4440.384766,4427.563965,4313.205078,4415.384766,5509.000000,1.000000,17.000000,,,,0.000000,4.000000,4.000000,4.000000,4.000000,4.000000,4.000000,4.000000,4.000000,4.000000,4.000000,4.000000,4.000000,4.000000,4.000000,100.000000,,,,,,,,,,,,,,,,,,,,,,,,,,,,,,,,,,,,,,,,,,,,,,,,,,,,,,,,,,,,,,,,,,,,,,,,,,,,,,,,,,,,,,,,,,,,,,,,,,,,,,,,,,,,,,,,,,,,,,,,,,,,,,,,,
1739354557.722938,1739354557.723342,66.000000,0.000000,4213.461426,4204.487305,4263.974121,4200.000000,4202.307617,4208.974121,4200.641113,4281.922852,4175.897461,4200.384766,4449.743652,4446.666504,4314.358887,4423.205078,5509.000000,1.000000,17.000000,,,,0.000000,4.000000,4.000000,4.000000,4.000000,4.000000,4.000000,4.000000,4.000000,4.000000,4.000000,4.000000,4.000000,4.000000,4.000000,100.000000,,,,,,,,,,,,,,,,,,,,,,,,,,,,,,,,,,,,,,,,,,,,,,,,,,,,,,,,,,,,,,,,,,,,,,,,,,,,,,,,,,,,,,,,,,,,,,,,,,,,,,,,,,,,,,,,,,,,,,,,,,,,,,,,,
1739354557.730746,1739354557.731150,67.000000,0.000000,4210.641113,4199.102539,4263.077148,4198.205078,4197.820313,4202.948730,4198.717773,4282.820313,4177.820313,4200.128418,4450.769043,4445.384766,4320.128418,4421.025879,5427.000000,1.000000,17.000000,,,,0.000000,4.000000,4.000000,4.000000,4.000000,4.000000,4.000000,4.000000,4.000000,4.000000,4.000000,4.000000,4.000000,4.000000,4.000000,100.000000,,,,,,,,,,,,,,,,,,,,,,,,,,,,,,,,,,,,,,,,,,,,,,,,,,,,,,,,,,,,,,,,,,,,,,,,,,,,,,,,,,,,,,,,,,,,,,,,,,,,,,,,,,,,,,,,,,,,,,,,,,,,,,,,,
1739354557.738554,1739354557.739058,68.000000,0.000000,4215.769043,4197.692383,4261.410156,4199.871582,4197.563965,4198.846191,4190.128418,4284.871582,4179.487305,4205.641113,4461.538574,4451.794922,4344.743652,4430.641113,5392.000000,1.000000,17.000000,,,,0.000000,4.000000,4.000000,4.000000,4.000000,4.000000,4.000000,4.000000,4.000000,4.000000,4.000000,4.000000,4.000000,4.000000,4.000000,100.000000,,,,,,,,,,,,,,,,,17.000000,0.000000,0.358717,0.466125,-0.520447,0.619019,0.962520,-0.303748,0.022952,-38.973095,-29.647537,43.987411,,,,,,,,,,,,,,,,,,,,,,,,,,,,,,,,,,,,,,,,,,,,,,,,,,,,,,,,,,,,,,,,,,,,,,,,,,,,,,,,,,,,,,,,,,,,,,,,,,,,,
1739354557.746362,1739354557.746866,69.000000,0.000000,4231.025879,4211.538574,4273.461426,4214.615234,4202.692383,4205.000000,4189.871582,4283.077148,4188.205078,4217.948730,4475.897461,4467.820313,4355.641113,4443.333496,5417.000000,1.000000,17.000000,,,,0.000000,4.000000,4.000000,4.000000,4.000000,4.000000,4.000000,4.000000,4.000000,4.000000,4.000000,4.000000,4.000000,4.000000,4.000000,100.000000,,,,,,,,,,,,,,,,,,,,,,,,,,,,,,,,,,,,,,,,,,,,,,,,,,,,,,,,,,,,,,,,,,,,,,,,,,,,,,,,,,,,,,,,,,,,,,,,,,,,,,,,,,,,,,,,,,,,,,,,,,,,,,,,,
1739354557.754170,1739354557.754774,70.000000,0.000000,4226.922852,4209.743652,4272.436035,4213.461426,4198.461426,4196.025879,4180.897461,4276.666504,4176.410156,4204.743652,4467.179688,4453.974121,4335.897461,4432.563965,5375.000000,1.000000,17.000000,,,,0.000000,4.000000,4.000000,4.000000,4.000000,4.000000,4.000000,4.000000,4.000000,4.000000,4.000000,4.000000,4.000000,4.000000,4.000000,100.000000,,,,,,,,,,,,,,,,,,,,,,,,,,,,,,,,,,,,,,,,,,,,,,,,,,,,,,,,,,,,,,,,,,,,,,,,,,,,,,,,,,,,,,,,,,,,,,,,,,,,,,,,,,,,,,,,,,,,,,,,,,,,,,,,,
1739354557.761978,1739354557.762583,71.000000,0.000000,4219.743652,4202.948730,4265.256348,4206.538574,4196.922852,4187.820313,4178.717773,4278.333496,4162.948730,4195.000000,4458.589844,4442.563965,4335.769043,4426.538574,2613.000000,1.000000,17.000000,,,,0.000000,4.000000,4.000000,4.000000,4.000000,4.000000,4.000000,4.000000,4.000000,4.000000,4.000000,4.000000,4.000000,4.000000,4.000000,100.000000,,,,,,,,,,,,,,,,,,,,,,,,,,,,,,,,,,,,,,,,,,,,,,,,,,,,,,,,,,,,,,,,,,,,,,,,,,,,,,,,,,,,,,,,,,,,,,,,,,,,,,,,,,,,,,,,,,,,,,,,,,,,,,,,,
1739354557.769786,1739354557.770490,72.000000,0.000000,4236.410156,4220.897461,4279.102539,4221.282227,4213.077148,4205.512695,4202.563965,4289.230957,4182.179688,4218.846191,4482.307617,4465.897461,4362.179688,4446.410156,5161.000000,1.000000,17.000000,,,,0.000000,4.000000,4.000000,4.000000,4.000000,4.000000,4.000000,4.000000,4.000000,4.000000,4.000000,4.000000,4.000000,4.000000,4.000000,100.000000,,,,,,,,,,,,,,,,,18.000000,0.000000,0.357940,0.465759,-0.520874,0.619385,0.956171,-0.314003,0.029789,-38.942451,-29.632784,43.838669,,,,,,,,,,,,,,,,,,,,,,,,,,,,,,,,,,,,,,,,,,,,,,,,,,,,,,,,,,,,,,,,,,,,,,,,,,,,,,,,,,,,,,,,,,,,,,,,,,,,,
1739354557.777594,1739354557.778298,73.000000,0.000000,4255.897461,4239.615234,4294.487305,4234.615234,4227.563965,4225.256348,4223.974121,4298.077148,4202.820313,4239.358887,4506.922852,4486.282227,4372.692383,4461.666504,5489.000000,1.000000,17.000000,,,,0.000000,4.000000,4.000000,4.000000,4.000000,4.000000,4.000000,4.000000,4.000000,4.000000,4.000000,4.000000,4.000000,4.000000,4.000000,100.000000,,,,,,,,,,,,,,,,,,,,,,,,,,,,,,,,,,,,,,,,,,,,,,,,,,,,,,,,,,,,,,,,,,,,,,,,,,,,,,,,,,,,,,,,,,,,,,,,,,,,,,,,,,,,,,,,,,,,,,,,,,,,,,,,,
1739354557.785402,1739354557.786206,74.000000,0.000000,4249.871582,4231.410156,4286.922852,4225.000000,4222.179688,4225.897461,4222.948730,4295.256348,4192.820313,4234.230957,4498.846191,4478.846191,4362.307617,4452.948730,4973.000000,1.000000,17.000000,,,,0.000000,4.000000,4.000000,4.000000,4.000000,4.000000,4.000000,4.000000,4.000000,4.000000,4.000000,4.000000,4.000000,4.000000,4.000000,100.000000,1.000000,25.000000,4.000000,3.000000,1.000000,1.000000,1.000000,1.000000,1.000000,4.000000,3.000000,1.000000,1.000000,3.000000,4.000000,4.000000,,,,,,,,,,,,,,,,,,,,,,,,,,,,,,,,,,,,,,,,,,,,2.226033,0.864534,1.138126,1.334701,1.282139,2.948057,0.998184,0.754276,1.119764,1.267050,1.406692,0.612592,0.875440,1.188251,1.251719,6.121187,0.608089,0.648156,0.989475,1.458970,1.763464,0.305098,0.344013,1.014148,0.985882,1.544460,0.558654,0.288130,0.812724,1.085321,1.780894,1.477558,1.085563,1.028419,1.175813,0.234421,0.211855,0.292345,0.294019,0.295643,6.438712,1.488117,1.153407,1.066827,1.134778,2.214001,1.663990,1.549289,1.154426,1.399031,7.029937,2.178464,1.204036,1.195399,1.439160,2.380801,1.049474,1.778312,1.667344,1.757768,1.426677,1.305452,1.238586,1.195712,1.209668,0.906797,0.985667,1.283991,1.386292,1.400448
1739354557.793210,1739354557.794014,75.000000,0.000000,4236.666504,4221.410156,4276.153809,4215.512695,4213.717773,4223.205078,4216.025879,4288.717773,4177.563965,4224.743652,4483.333496,4465.000000,4353.461426,4444.871582,5407.000000,1.000000,17.000000,,,,0.000000,4.000000,4.000000,4.000000,4.000000,4.000000,4.000000,4.000000,4.000000,4.000000,4.000000,4.000000,4.000000,4.000000,4.000000,100.000000,,,,,,,,,,,,,,,,,,,,,,,,,,,,,,,,,,,,,,,,,,,,,,,,,,,,,,,,,,,,,,,,,,,,,,,,,,,,,,,,,,,,,,,,,,,,,,,,,,,,,,,,,,,,,,,,,,,,,,,,,,,,,,,,,
1739354557.801019,1739354557.801922,76.000000,0.000000,4241.794922,4231.794922,4280.000000,4222.948730,4219.871582,4229.102539,4220.128418,4291.025879,4183.846191,4226.410156,4489.102539,4466.922852,4359.358887,4453.589844,5494.000000,1.000000,17.000000,,,,0.000000,4.000000,4.000000,4.000000,4.000000,4.000000,4.000000,4.000000,4.000000,4.000000,4.000000,4.000000,4.000000,4.000000,4.000000,100.000000,,,,,,,,,,,,,,,,,19.000000,0.000000,0.357423,0.465759,-0.521301,0.619324,0.943475,-0.317910,0.022464,-38.964870,-29.819506,43.738136,,,,,,,,,,,,,,,,,,,,,,,,,,,,,,,,,,,,,,,,,,,,,,,,,,,,,,,,,,,,,,,,,,,,,,,,,,,,,,,,,,,,,,,,,,,,,,,,,,,,,
1739354557.808827,1739354557.809730,77.000000,0.000000,4249.743652,4238.205078,4284.871582,4230.384766,4225.641113,4232.051270,4227.179688,4295.769043,4195.256348,4236.410156,4503.205078,4475.641113,4367.820313,4458.717773,6523.000000,1.000000,17.000000,,,,0.000000,4.000000,4.000000,4.000000,4.000000,4.000000,4.000000,4.000000,4.000000,4.000000,4.000000,4.000000,4.000000,4.000000,4.000000,100.000000,,,,,,,,,,,,,,,,,,,,,,,,,,,,,,,,,,,,,,,,,,,,,,,,,,,,,,,,,,,,,,,,,,,,,,,,,,,,,,,,,,,,,,,,,,,,,,,,,,,,,,,,,,,,,,,,,,,,,,,,,,,,,,,,,
1739354557.816635,1739354557.817438,78.000000,0.000000,4236.538574,4220.128418,4275.897461,4219.358887,4211.153809,4221.666504,4216.666504,4288.589844,4188.333496,4232.692383,4498.589844,4465.641113,4359.358887,4445.384766,4973.000000,1.000000,17.000000,,,,0.000000,4.000000,4.000000,4.000000,4.000000,4.000000,4.000000,4.000000,4.000000,4.000000,4.000000,4.000000,4.000000,4.000000,4.000000,100.000000,,,,,,,,,,,,,,,,,,,,,,,,,,,,,,,,,,,,,,,,,,,,,,,,,,,,,,,,,,,,,,,,,,,,,,,,,,,,,,,,,,,,,,,,,,,,,,,,,,,,,,,,,,,,,,,,,,,,,,,,,,,,,,,,,
1739354557.824443,1739354557.825346,79.000000,0.000000,4226.922852,4212.436035,4273.333496,4214.871582,4204.487305,4216.153809,4206.282227,4285.512695,4182.307617,4224.871582,4492.692383,4459.358887,4352.051270,4442.051270,5407.000000,1.000000,17.000000,,,,0.000000,4.000000,4.000000,4.000000,4.000000,4.000000,4.000000,4.000000,4.000000,4.000000,4.000000,4.000000,4.000000,4.000000,4.000000,100.000000,,,,,,,,,,,,,,,,,,,,,,,,,,,,,,,,,,,,,,,,,,,,,,,,,,,,,,,,,,,,,,,,,,,,,,,,,,,,,,,,,,,,,,,,,,,,,,,,,,,,,,,,,,,,,,,,,,,,,,,,,,,,,,,,,
1739354557.832251,1739354557.833154,80.000000,0.000000,4249.871582,4240.641113,4296.794922,4239.743652,4227.820313,4232.563965,4226.410156,4298.077148,4200.641113,4241.025879,4514.358887,4486.922852,4368.717773,4466.025879,5494.000000,1.000000,17.000000,,,,0.000000,4.000000,4.000000,4.000000,4.000000,4.000000,4.000000,4.000000,4.000000,4.000000,4.000000,4.000000,4.000000,4.000000,4.000000,100.000000,,,,,,,,,,,,,,,,,20.000000,0.000000,0.357308,0.465698,-0.521362,0.619385,0.942986,-0.316445,0.023440,-38.985050,-29.904221,43.897655,,,,,,,,,,,,,,,,,,,,,,,,,,,,,,,,,,,,,,,,,,,,,,,,,,,,,,,,,,,,,,,,,,,,,,,,,,,,,,,,,,,,,,,,,,,,,,,,,,,,,
1739354557.840059,1739354557.840963,81.000000,0.000000,4270.512695,4256.794922,4314.871582,4259.230957,4241.282227,4243.846191,4243.077148,4304.743652,4213.717773,4258.717773,4529.230957,4507.179688,4382.563965,4480.256348,6523.000000,1.000000,17.000000,,,,0.000000,4.000000,4.000000,4.000000,4.000000,4.000000,4.000000,4.000000,4.000000,4.000000,4.000000,4.000000,4.000000,4.000000,4.000000,100.000000,,,,,,,,,,,,,,,,,,,,,,,,,,,,,,,,,,,,,,,,,,,,,,,,,,,,,,,,,,,,,,,,,,,,,,,,,,,,,,,,,,,,,,,,,,,,,,,,,,,,,,,,,,,,,,,,,,,,,,,,,,,,,,,,,
1739354557.847867,1739354557.848671,82.000000,0.000000,4265.897461,4243.461426,4310.128418,4251.538574,4232.307617,4234.230957,4230.384766,4295.128418,4202.179688,4250.512695,4511.538574,4494.487305,4373.589844,4470.000000,4973.000000,1.000000,17.000000,,,,0.000000,4.000000,4.000000,4.000000,4.000000,4.000000,4.000000,4.000000,4.000000,4.000000,4.000000,4.000000,4.000000,4.000000,4.000000,100.000000,,,,,,,,,,,,,,,,,,,,,,,,,,,,,,,,,,,,,,,,,,,,,,,,,,,,,,,,,,,,,,,,,,,,,,,,,,,,,,,,,,,,,,,,,,,,,,,,,,,,,,,,,,,,,,,,,,,,,,,,,,,,,,,,,
1739354557.855675,1739354557.856479,83.000000,0.000000,4257.820313,4241.410156,4303.846191,4248.077148,4231.153809,4231.666504,4226.025879,4291.922852,4194.615234,4242.820313,4502.563965,4486.025879,4367.692383,4463.974121,5407.000000,1.000000,17.000000,,,,0.000000,4.000000,4.000000,4.000000,4.000000,4.000000,4.000000,4.000000,4.000000,4.000000,4.000000,4.000000,4.000000,4.000000,4.000000,100.000000,,,,,,,,,,,,,,,,,,,,,,,,,,,,,,,,,,,,,,,,,,,,,,,,,,,,,,,,,,,,,,,,,,,,,,,,,,,,,,,,,,,,,,,,,,,,,,,,,,,,,,,,,,,,,,,,,,,,,,,,,,,,,,,,,
1739354557.863483,1739354557.864187,84.000000,0.000000,4250.641113,4239.102539,4301.025879,4251.282227,4226.538574,4232.563965,4232.051270,4297.692383,4194.102539,4245.641113,4508.589844,4486.922852,4369.487305,4462.307617,5494.000000,1.000000,17.000000,,,,0.000000,4.000000,4.000000,4.000000,4.000000,4.000000,4.000000,4.000000,4.000000,4.000000,4.000000,4.000000,4.000000,4.000000,4.000000,100.000000,,,,,,,,,,,,,,,,,21.000000,0.000000,0.357247,0.465881,-0.521240,0.619385,0.960566,-0.301795,0.011720,-38.969879,-29.913799,43.891224,,,,,,,,,,,,,,,,,,,,,,,,,,,,,,,,,,,,,,,,,,,,,,,,,,,,,,,,,,,,,,,,,,,,,,,,,,,,,,,,,,,,,,,,,,,,,,,,,,,,,
1739354557.871291,1739354557.871995,85.000000,0.000000,4256.666504,4234.871582,4304.358887,4253.205078,4221.922852,4236.025879,4235.897461,4300.384766,4194.871582,4249.615234,4512.820313,4493.205078,4376.153809,4465.128418,6523.000000,1.000000,17.000000,,,,0.000000,4.000000,4.000000,4.000000,4.000000,4.000000,4.000000,4.000000,4.000000,4.000000,4.000000,4.000000,4.000000,4.000000,4.000000,100.000000,,,,,,,,,,,,,,,,,,,,,,,,,,,,,,,,,,,,,,,,,,,,,,,,,,,,,,,,,,,,,,,,,,,,,,,,,,,,,,,,,,,,,,,,,,,,,,,,,,,,,,,,,,,,,,,,,,,,,,,,,,,,,,,,,
1739354557.879099,1739354557.879703,86.000000,0.000000,4260.641113,4238.589844,4302.820313,4250.512695,4223.717773,4238.205078,4235.256348,4295.256348,4189.743652,4240.769043,4507.051270,4490.641113,4371.922852,4464.230957,4973.000000,1.000000,17.000000,,,,0.000000,4.000000,4.000000,4.000000,4.000000,4.000000,4.000000,4.000000,4.000000,4.000000,4.000000,4.000000,4.000000,4.000000,4.000000,100.000000,,,,,,,,,,,,,,,,,,,,,,,,,,,,,,,,,,,,,,,,,,,,,,,,,,,,,,,,,,,,,,,,,,,,,,,,,,,,,,,,,,,,,,,,,,,,,,,,,,,,,,,,,,,,,,,,,,,,,,,,,,,,,,,,,
1739354557.886907,1739354557.887511,87.000000,0.000000,4233.846191,4222.563965,4281.025879,4229.871582,4208.205078,4220.897461,4217.307617,4284.871582,4166.282227,4214.358887,4486.282227,4461.794922,4347.820313,4442.563965,5407.000000,1.000000,17.000000,,,,0.000000,4.000000,4.000000,4.000000,4.000000,4.000000,4.000000,4.000000,4.000000,4.000000,4.000000,4.000000,4.000000,4.000000,4.000000,100.000000,,,,,,,,,,,,,,,,,,,,,,,,,,,,,,,,,,,,,,,,,,,,,,,,,,,,,,,,,,,,,,,,,,,,,,,,,,,,,,,,,,,,,,,,,,,,,,,,,,,,,,,,,,,,,,,,,,,,,,,,,,,,,,,,,
1739354557.894715,1739354557.895219,88.000000,0.000000,4230.641113,4217.307617,4277.563965,4228.589844,4206.922852,4218.333496,4216.153809,4290.384766,4169.871582,4222.563965,4487.820313,4460.384766,4350.769043,4441.538574,5494.000000,1.000000,17.000000,,,,0.000000,4.000000,4.000000,4.000000,4.000000,4.000000,4.000000,4.000000,4.000000,4.000000,4.000000,4.000000,4.000000,4.000000,4.000000,100.000000,,,,,,,,,,,,,,,,,22.000000,0.000000,0.357294,0.466187,-0.520935,0.619385,0.957148,-0.303748,0.023440,-38.872890,-30.022419,43.852100,,,,,,,,,,,,,,,,,,,,,,,,,,,,,,,,,,,,,,,,,,,,,,,,,,,,,,,,,,,,,,,,,,,,,,,,,,,,,,,,,,,,,,,,,,,,,,,,,,,,,
1739354557.902524,1739354557.903027,89.000000,0.000000,4259.102539,4239.102539,4300.000000,4250.512695,4232.307617,4238.205078,4233.461426,4301.282227,4197.563965,4253.077148,4511.922852,4485.384766,4372.820313,4464.487305,6523.000000,1.000000,17.000000,,,,0.000000,4.000000,4.000000,4.000000,4.000000,4.000000,4.000000,4.000000,4.000000,4.000000,4.000000,4.000000,4.000000,4.000000,4.000000,100.000000,,,,,,,,,,,,,,,,,,,,,,,,,,,,,,,,,,,,,,,,,,,,,,,,,,,,,,,,,,,,,,,,,,,,,,,,,,,,,,,,,,,,,,,,,,,,,,,,,,,,,,,,,,,,,,,,,,,,,,,,,,,,,,,,,
1739354557.910332,1739354557.910735,90.000000,0.000000,4256.410156,4240.512695,4298.717773,4252.948730,4236.025879,4238.589844,4227.436035,4295.000000,4194.102539,4242.307617,4510.256348,4479.102539,4362.948730,4460.769043,4973.000000,1.000000,17.000000,,,,0.000000,4.000000,4.000000,4.000000,4.000000,4.000000,4.000000,4.000000,4.000000,4.000000,4.000000,4.000000,4.000000,4.000000,4.000000,100.000000,,,,,,,,,,,,,,,,,,,,,,,,,,,,,,,,,,,,,,,,,,,,,,,,,,,,,,,,,,,,2.312679,0.937553,1.005217,1.267478,1.209634,3.255941,1.444563,0.850067,1.023816,1.160933,1.562807,0.689768,0.720540,1.133489,1.163214,6.830985,0.698249,0.616877,0.904103,1.347335,1.904747,0.448859,0.343749,0.948479,0.927284,1.627738,0.688800,0.302447,0.755459,0.973002,1.936179,1.850705,1.194569,0.973777,1.085408,0.211268,0.225945,0.305590,0.287717,0.266903,5.669787,1.489351,1.368712,1.016291,1.027242,2.215394,1.603583,1.449081,1.085853,1.313562,8.479425,2.335688,0.961935,1.233871,1.305011,2.627226,1.077790,1.559432,1.644691,1.634428,1.653224,1.329349,0.977604,1.198304,1.132998,0.862621,0.881135,1.155907,1.359177,1.267437
1739354557.918140,1739354557.918643,91.000000,0.000000,4244.487305,4233.077148,4288.846191,4250.641113,4226.025879,4229.358887,4219.487305,4290.128418,4184.743652,4227.179688,4499.487305,4472.436035,4353.589844,4450.384766,5407.000000,1.000000,17.000000,,,,0.000000,4.000000,4.000000,4.000000,4.000000,4.000000,4.000000,4.000000,4.000000,4.000000,4.000000,4.000000,4.000000,4.000000,4.000000,100.000000,,,,,,,,,,,,,,,,,,,,,,,,,,,,,,,,,,,,,,,,,,,,,,,,,,,,,,,,,,,,,,,,,,,,,,,,,,,,,,,,,,,,,,,,,,,,,,,,,,,,,,,,,,,,,,,,,,,,,,,,,,,,,,,,,
1739354557.925948,1739354557.926451,92.000000,0.000000,4259.615234,4244.615234,4299.358887,4265.641113,4231.538574,4234.102539,4230.128418,4294.615234,4198.717773,4245.384766,4509.102539,4490.769043,4373.205078,4466.282227,5494.000000,1.000000,17.000000,,,,0.000000,4.000000,4.000000,4.000000,4.000000,4.000000,4.000000,4.000000,4.000000,4.000000,4.000000,4.000000,4.000000,4.000000,4.000000,100.000000,,,,,,,,,,,,,,,,,23.000000,0.000000,0.357500,0.466370,-0.520630,0.619385,0.957636,-0.325235,0.026370,-38.902267,-29.836843,43.883556,,,,,,,,,,,,,,,,,,,,,,,,,,,,,,,,,,,,,,,,,,,,,,,,,,,,,,,,,,,,,,,,,,,,,,,,,,,,,,,,,,,,,,,,,,,,,,,,,,,,,
1739354557.933756,1739354557.934359,93.000000,0.000000,4273.717773,4255.384766,4311.538574,4277.436035,4237.436035,4238.717773,4234.743652,4297.692383,4209.871582,4260.256348,4521.666504,4502.948730,4385.897461,4480.641113,6523.000000,1.000000,17.000000,,,,0.000000,4.000000,4.000000,4.000000,4.000000,4.000000,4.000000,4.000000,4.000000,4.000000,4.000000,4.000000,4.000000,4.000000,4.000000,100.000000,,,,,,,,,,,,,,,,,,,,,,,,,,,,,,,,,,,,,,,,,,,,,,,,,,,,,,,,,,,,,,,,,,,,,,,,,,,,,,,,,,,,,,,,,,,,,,,,,,,,,,,,,,,,,,,,,,,,,,,,,,,,,,,,,
1739354557.941564,1739354557.942168,94.000000,0.000000,4278.846191,4255.641113,4316.794922,4281.025879,4239.487305,4241.282227,4238.974121,4299.230957,4214.487305,4258.717773,4528.205078,4509.358887,4385.256348,4482.307617,4973.000000,1.000000,17.000000,,,,0.000000,4.000000,4.000000,4.000000,4.000000,4.000000,4.000000,4.000000,4.000000,4.000000,4.000000,4.000000,4.000000,4.000000,4.000000,100.000000,,,,,,,,,,,,,,,,,,,,,,,,,,,,,,,,,,,,,,,,,,,,,,,,,,,,,,,,,,,,,,,,,,,,,,,,,,,,,,,,,,,,,,,,,,,,,,,,,,,,,,,,,,,,,,,,,,,,,,,,,,,,,,,,,
1739354557.949372,1739354557.950075,95.000000,0.000000,4279.743652,4254.871582,4319.743652,4284.871582,4242.563965,4245.256348,4248.461426,4300.641113,4218.077148,4258.077148,4526.538574,4512.179688,4385.897461,4483.461426,5407.000000,1.000000,17.000000,,,,0.000000,4.000000,4.000000,4.000000,4.000000,4.000000,4.000000,4.000000,4.000000,4.000000,4.000000,4.000000,4.000000,4.000000,4.000000,100.000000,,,,,,,,,,,,,,,,,,,,,,,,,,,,,,,,,,,,,,,,,,,,,,,,,,,,,,,,,,,,,,,,,,,,,,,,,,,,,,,,,,,,,,,,,,,,,,,,,,,,,,,,,,,,,,,,,,,,,,,,,,,,,,,,,
1739354557.957180,1739354557.957883,96.000000,0.000000,4265.384766,4243.974121,4310.512695,4275.897461,4235.769043,4236.922852,4237.051270,4295.128418,4204.871582,4247.692383,4508.205078,4495.000000,4377.051270,4472.820313,5494.000000,1.000000,17.000000,,,,0.000000,4.000000,4.000000,4.000000,4.000000,4.000000,4.000000,4.000000,4.000000,4.000000,4.000000,4.000000,4.000000,4.000000,4.000000,100.000000,,,,,,,,,,,,,,,,,24.000000,0.000000,0.357724,0.466675,-0.520203,0.619385,0.945916,-0.309120,0.031742,-38.895374,-29.903160,43.795200,,,,,,,,,,,,,,,,,,,,,,,,,,,,,,,,,,,,,,,,,,,,,,,,,,,,,,,,,,,,,,,,,,,,,,,,,,,,,,,,,,,,,,,,,,,,,,,,,,,,,
1739354557.964988,1739354557.965791,97.000000,0.000000,4259.102539,4242.051270,4299.230957,4265.769043,4232.692383,4231.282227,4230.769043,4293.974121,4197.692383,4241.922852,4496.922852,4486.410156,4373.974121,4464.871582,6523.000000,1.000000,17.000000,,,,0.000000,4.000000,4.000000,4.000000,4.000000,4.000000,4.000000,4.000000,4.000000,4.000000,4.000000,4.000000,4.000000,4.000000,4.000000,100.000000,,,,,,,,,,,,,,,,,,,,,,,,,,,,,,,,,,,,,,,,,,,,,,,,,,,,,,,,,,,,,,,,,,,,,,,,,,,,,,,,,,,,,,,,,,,,,,,,,,,,,,,,,,,,,,,,,,,,,,,,,,,,,,,,,
1739354557.972796,1739354557.973599,98.000000,0.000000,4265.641113,4250.000000,4299.230957,4270.000000,4239.358887,4237.692383,4241.410156,4296.153809,4205.769043,4251.666504,4500.384766,4491.666504,4380.641113,4470.769043,4973.000000,1.000000,17.000000,,,,0.000000,4.000000,4.000000,4.000000,4.000000,4.000000,4.000000,4.000000,4.000000,4.000000,4.000000,4.000000,4.000000,4.000000,4.000000,100.000000,,,,,,,,,,,,,,,,,,,,,,,,,,,,,,,,,,,,,,,,,,,,,,,,,,,,,,,,,,,,,,,,,,,,,,,,,,,,,,,,,,,,,,,,,,,,,,,,,,,,,,,,,,,,,,,,,,,,,,,,,,,,,,,,,
1739354557.980604,1739354557.981507,99.000000,0.000000,4251.410156,4233.846191,4287.820313,4260.512695,4229.102539,4227.436035,4221.410156,4287.436035,4189.487305,4238.717773,4485.769043,4471.410156,4368.461426,4460.000000,5407.000000,1.000000,17.000000,,,,0.000000,4.000000,4.000000,4.000000,4.000000,4.000000,4.000000,4.000000,4.000000,4.000000,4.000000,4.000000,4.000000,4.000000,4.000000,100.000000,,,,,,,,,,,,,,,,,,,,,,,,,,,,,,,,,,,,,,,,,,,,,,,,,,,,,,,,,,,,,,,,,,,,,,,,,,,,,,,,,,,,,,,,,,,,,,,,,,,,,,,,,,,,,,,,,,,,,,,,,,,,,,,,,
1739354557.988413,1739354557.989315,100.000000,0.000000,4239.487305,4220.128418,4273.461426,4247.179688,4213.333496,4210.641113,4197.948730,4281.538574,4170.256348,4219.743652,4466.538574,4452.307617,4357.307617,4443.846191,5494.000000,1.000000,17.000000,,,,0.000000,4.000000,4.000000,4.000000,4.000000,4.000000,4.000000,4.000000,4.000000,4.000000,4.000000,4.000000,4.000000,4.000000,4.000000,100.000000,,,,,,,,,,,,,,,,,25.000000,0.000000,0.358291,0.466797,-0.519775,0.619324,0.948358,-0.304725,0.026370,-38.872505,-30.029510,43.832348,,,,,,,,,,,,,,,,,,,,,,,,,,,,,,,,,,,,,,,,,,,,,,,,,,,,,,,,,,,,,,,,,,,,,,,,,,,,,,,,,,,,,,,,,,,,,,,,,,,,,
1739354557.996220,1739354557.997023,101.000000,0.000000,4256.153809,4237.948730,4285.897461,4258.589844,4223.974121,4221.666504,4217.179688,4290.897461,4186.922852,4236.538574,4477.820313,4473.717773,4376.025879,4459.230957,6523.000000,1.000000,17.000000,,,,0.000000,4.000000,4.000000,4.000000,4.000000,4.000000,4.000000,4.000000,4.000000,4.000000,4.000000,4.000000,4.000000,4.000000,4.000000,100.000000,,,,,,,,,,,,,,,,,,,,,,,,,,,,,,,,,,,,,,,,,,,,,,,,,,,,,,,,,,,,,,,,,,,,,,,,,,,,,,,,,,,,,,,,,,,,,,,,,,,,,,,,,,,,,,,,,,,,,,,,,,,,,,,,,
1739354558.004029,1739354558.004831,102.000000,0.000000,4269.102539,4250.384766,4303.333496,4270.512695,4239.871582,4236.922852,4236.025879,4298.205078,4204.358887,4253.461426,4492.692383,4495.641113,4390.256348,4480.000000,4973.000000,1.000000,17.000000,,,,0.000000,4.000000,4.000000,4.000000,4.000000,4.000000,4.000000,4.000000,4.000000,4.000000,4.000000,4.000000,4.000000,4.000000,4.000000,100.000000,,,,,,,,,,,,,,,,,,,,,,,,,,,,,,,,,,,,,,,,,,,,,,,,,,,,,,,,,,,,,,,,,,,,,,,,,,,,,,,,,,,,,,,,,,,,,,,,,,,,,,,,,,,,,,,,,,,,,,,,,,,,,,,,,
1739354558.011837,1739354558.012539,103.000000,0.000000,4271.282227,4249.230957,4308.077148,4272.179688,4238.846191,4235.256348,4231.153809,4298.333496,4201.153809,4251.153809,4492.692383,4497.179688,4386.538574,4482.820313,5407.000000,1.000000,17.000000,,,,0.000000,4.000000,4.000000,4.000000,4.000000,4.000000,4.000000,4.000000,4.000000,4.000000,4.000000,4.000000,4.000000,4.000000,4.000000,100.000000,,,,,,,,,,,,,,,,,,,,,,,,,,,,,,,,,,,,,,,,,,,,,,,,,,,,,,,,,,,,,,,,,,,,,,,,,,,,,,,,,,,,,,,,,,,,,,,,,,,,,,,,,,,,,,,,,,,,,,,,,,,,,,,,,
1739354558.019645,1739354558.020347,104.000000,0.000000,4274.487305,4252.179688,4308.333496,4271.666504,4235.128418,4232.307617,4233.077148,4296.410156,4200.256348,4257.179688,4487.307617,4496.666504,4382.307617,4478.974121,5494.000000,1.000000,17.000000,,,,0.000000,4.000000,4.000000,4.000000,4.000000,4.000000,4.000000,4.000000,4.000000,4.000000,4.000000,4.000000,4.000000,4.000000,4.000000,100.000000,,,,,,,,,,,,,,,,,26.000000,0.000000,0.358662,0.466797,-0.519592,0.619263,0.942986,-0.296423,0.025394,-38.801922,-30.059893,43.899113,,,,,,,,,,,,,,,,,,,,,,,,,,,,,,,,,,,,,,,,,,,,,,,,,,,,,,,,,,,,,,,,,,,,,,,,,,,,,,,,,,,,,,,,,,,,,,,,,,,,,
1739354558.027453,1739354558.028055,105.000000,0.000000,4264.102539,4242.563965,4298.589844,4255.128418,4230.000000,4230.256348,4232.948730,4287.563965,4192.179688,4250.512695,4471.538574,4483.589844,4368.974121,4466.282227,6523.000000,1.000000,17.000000,,,,0.000000,4.000000,4.000000,4.000000,4.000000,4.000000,4.000000,4.000000,4.000000,4.000000,4.000000,4.000000,4.000000,4.000000,4.000000,100.000000,,,,,,,,,,,,,,,,,,,,,,,,,,,,,,,,,,,,,,,,,,,,,,,,,,,,,,,,,,,,,,,,,,,,,,,,,,,,,,,,,,,,,,,,,,,,,,,,,,,,,,,,,,,,,,,,,,,,,,,,,,,,,,,,,
1739354558.035261,1739354558.035863,106.000000,0.000000,4262.051270,4241.922852,4298.333496,4255.000000,4234.871582,4233.589844,4232.563965,4282.692383,4186.153809,4239.102539,4463.846191,4482.436035,4368.461426,4466.922852,4973.000000,1.000000,17.000000,,,,0.000000,4.000000,4.000000,4.000000,4.000000,4.000000,4.000000,4.000000,4.000000,4.000000,4.000000,4.000000,4.000000,4.000000,4.000000,100.000000,,,,,,,,,,,,,,,,,,,,,,,,,,,,,,,,,,,,,,,,,,,,,,,,,,,,,,,,,,,,2.382717,1.193145,1.026888,1.220710,1.124811,3.618450,2.085655,1.165042,0.956050,1.063404,1.726381,0.921360,0.690866,1.091575,1.046594,6.802485,0.885221,0.688683,0.844111,1.204499,1.930759,0.604796,0.404865,0.875956,0.849950,1.615745,0.840251,0.353822,0.720307,0.849608,1.998026,2.359301,1.255263,0.943372,0.987258,0.197835,0.263960,0.343112,0.287756,0.229513,4.533370,1.612578,1.703806,1.054242,0.896796,2.307804,1.666393,1.432196,1.109895,1.198081,9.624712,2.714640,0.870246,1.343940,1.139683,2.930653,1.396405,1.507618,1.669292,1.471493,1.952720,1.477971,0.785804,1.220526,1.049690,0.896857,0.986754,1.129554,1.366802,1.123895
1739354558.043069,1739354558.043571,107.000000,0.000000,4284.358887,4268.333496,4321.282227,4280.256348,4255.641113,4248.205078,4252.051270,4291.410156,4202.436035,4261.025879,4480.000000,4506.922852,4391.025879,4486.666504,5407.000000,1.000000,17.000000,,,,0.000000,4.000000,4.000000,4.000000,4.000000,4.000000,4.000000,4.000000,4.000000,4.000000,4.000000,4.000000,4.000000,4.000000,4.000000,100.000000,,,,,,,,,,,,,,,,,,,,,,,,,,,,,,,,,,,,,,,,,,,,,,,,,,,,,,,,,,,,,,,,,,,,,,,,,,,,,,,,,,,,,,,,,,,,,,,,,,,,,,,,,,,,,,,,,,,,,,,,,,,,,,,,,
1739354558.050877,1739354558.051379,108.000000,0.000000,4290.000000,4274.358887,4325.769043,4276.922852,4259.871582,4254.102539,4255.256348,4280.128418,4208.589844,4275.384766,4483.717773,4507.563965,4393.717773,4483.461426,5494.000000,1.000000,17.000000,,,,0.000000,4.000000,4.000000,4.000000,4.000000,4.000000,4.000000,4.000000,4.000000,4.000000,4.000000,4.000000,4.000000,4.000000,4.000000,100.000000,,,,,,,,,,,,,,,,,27.000000,0.000000,0.358864,0.466858,-0.519470,0.619202,0.948846,-0.293005,0.030765,-38.988396,-29.970570,43.975868,,,,,,,,,,,,,,,,,,,,,,,,,,,,,,,,,,,,,,,,,,,,,,,,,,,,,,,,,,,,,,,,,,,,,,,,,,,,,,,,,,,,,,,,,,,,,,,,,,,,,
1739354558.058685,1739354558.059087,109.000000,0.000000,4278.846191,4260.897461,4309.358887,4259.743652,4248.461426,4244.615234,4237.179688,4246.794922,4198.333496,4264.358887,4467.692383,4484.102539,4379.871582,4468.846191,6523.000000,1.000000,17.000000,,,,0.000000,4.000000,4.000000,4.000000,4.000000,4.000000,4.000000,4.000000,4.000000,4.000000,4.000000,4.000000,4.000000,4.000000,4.000000,100.000000,,,,,,,,,,,,,,,,,,,,,,,,,,,,,,,,,,,,,,,,,,,,,,,,,,,,,,,,,,,,,,,,,,,,,,,,,,,,,,,,,,,,,,,,,,,,,,,,,,,,,,,,,,,,,,,,,,,,,,,,,,,,,,,,,
1739354558.066493,1739354558.066895,110.000000,0.000000,4279.871582,4258.461426,4307.692383,4261.025879,4247.948730,4238.974121,4229.871582,4248.846191,4195.641113,4264.743652,4469.743652,4484.615234,4382.436035,4474.487305,4973.000000,1.000000,17.000000,,,,0.000000,4.000000,4.000000,4.000000,4.000000,4.000000,4.000000,4.000000,4.000000,4.000000,4.000000,4.000000,4.000000,4.000000,4.000000,100.000000,,,,,,,,,,,,,,,,,,,,,,,,,,,,,,,,,,,,,,,,,,,,,,,,,,,,,,,,,,,,,,,,,,,,,,,,,,,,,,,,,,,,,,,,,,,,,,,,,,,,,,,,,,,,,,,,,,,,,,,,,,,,,,,,,
1739354558.074301,1739354558.074603,111.000000,0.000000,4279.102539,4252.692383,4311.410156,4254.487305,4247.820313,4234.743652,4225.000000,4287.563965,4192.051270,4264.102539,4485.128418,4499.615234,4387.307617,4485.256348,5407.000000,1.000000,17.000000,,,,0.000000,4.000000,4.000000,4.000000,4.000000,4.000000,4.000000,4.000000,4.000000,4.000000,4.000000,4.000000,4.000000,4.000000,4.000000,100.000000,,,,,,,,,,,,,,,,,,,,,,,,,,,,,,,,,,,,,,,,,,,,,,,,,,,,,,,,,,,,,,,,,,,,,,,,,,,,,,,,,,,,,,,,,,,,,,,,,,,,,,,,,,,,,,,,,,,,,,,,,,,,,,,,,
1739354558.082109,1739354558.082411,112.000000,0.000000,4273.974121,4246.410156,4306.410156,4249.743652,4241.282227,4231.025879,4220.128418,4306.282227,4184.358887,4254.487305,4486.922852,4503.846191,4387.051270,4489.102539,5494.000000,1.000000,17.000000,,,,0.000000,4.000000,4.000000,4.000000,4.000000,4.000000,4.000000,4.000000,4.000000,4.000000,4.000000,4.000000,4.000000,4.000000,4.000000,100.000000,,,,,,,,,,,,,,,,,28.000000,0.000000,0.358970,0.466858,-0.519470,0.619141,0.946405,-0.301306,0.025394,-39.022888,-29.940180,44.044949,,,,,,,,,,,,,,,,,,,,,,,,,,,,,,,,,,,,,,,,,,,,,,,,,,,,,,,,,,,,,,,,,,,,,,,,,,,,,,,,,,,,,,,,,,,,,,,,,,,,,
1739354558.089918,1739354558.090119,113.000000,0.000000,4278.846191,4256.922852,4308.974121,4264.102539,4246.538574,4238.717773,4228.846191,4301.666504,4185.641113,4258.077148,4481.153809,4507.051270,4393.846191,4492.179688,6523.000000,1.000000,17.000000,,,,0.000000,4.000000,4.000000,4.000000,4.000000,4.000000,4.000000,4.000000,4.000000,4.000000,4.000000,4.000000,4.000000,4.000000,4.000000,100.000000,,,,,,,,,,,,,,,,,,,,,,,,,,,,,,,,,,,,,,,,,,,,,,,,,,,,,,,,,,,,,,,,,,,,,,,,,,,,,,,,,,,,,,,,,,,,,,,,,,,,,,,,,,,,,,,,,,,,,,,,,,,,,,,,,
1739354558.097726,1739354558.098028,114.000000,0.000000,4281.794922,4265.384766,4317.563965,4270.128418,4254.743652,4249.871582,4237.692383,4300.384766,4189.487305,4262.820313,4479.615234,4508.589844,4396.025879,4491.410156,4973.000000,1.000000,17.000000,,,,0.000000,4.000000,4.000000,4.000000,4.000000,4.000000,4.000000,4.000000,4.000000,4.000000,4.000000,4.000000,4.000000,4.000000,4.000000,100.000000,,,,,,,,,,,,,,,,,,,,,,,,,,,,,,,,,,,,,,,,,,,,,,,,,,,,,,,,,,,,,,,,,,,,,,,,,,,,,,,,,,,,,,,,,,,,,,,,,,,,,,,,,,,,,,,,,,,,,,,,,,,,,,,,,
1739354558.105534,1739354558.105836,115.000000,0.000000,4267.820313,4251.025879,4309.487305,4259.615234,4240.769043,4242.436035,4230.384766,4297.051270,4179.615234,4250.641113,4471.153809,4496.153809,4384.487305,4481.282227,5407.000000,1.000000,17.000000,,,,0.000000,4.000000,4.000000,4.000000,4.000000,4.000000,4.000000,4.000000,4.000000,4.000000,4.000000,4.000000,4.000000,4.000000,4.000000,100.000000,,,,,,,,,,,,,,,,,,,,,,,,,,,,,,,,,,,,,,,,,,,,,,,,,,,,,,,,,,,,,,,,,,,,,,,,,,,,,,,,,,,,,,,,,,,,,,,,,,,,,,,,,,,,,,,,,,,,,,,,,,,,,,,,,
1739354558.113342,1739354558.113744,116.000000,0.000000,4259.358887,4238.461426,4300.000000,4257.307617,4230.641113,4231.410156,4227.307617,4291.794922,4171.410156,4241.794922,4459.743652,4487.948730,4377.563965,4473.717773,5494.000000,1.000000,17.000000,,,,0.000000,4.000000,4.000000,4.000000,4.000000,4.000000,4.000000,4.000000,4.000000,4.000000,4.000000,4.000000,4.000000,4.000000,4.000000,100.000000,,,,,,,,,,,,,,,,,29.000000,0.000000,0.359041,0.466858,-0.519348,0.619202,0.948358,-0.294470,0.023929,-39.037266,-29.812828,44.223785,,,,,,,,,,,,,,,,,,,,,,,,,,,,,,,,,,,,,,,,,,,,,,,,,,,,,,,,,,,,,,,,,,,,,,,,,,,,,,,,,,,,,,,,,,,,,,,,,,,,,
1739354558.121150,1739354558.121552,117.000000,0.000000,4278.333496,4257.563965,4317.051270,4275.256348,4252.307617,4250.128418,4248.717773,4300.256348,4189.230957,4255.128418,4471.025879,4506.794922,4391.025879,4485.769043,6523.000000,1.000000,17.000000,,,,0.000000,4.000000,4.000000,4.000000,4.000000,4.000000,4.000000,4.000000,4.000000,4.000000,4.000000,4.000000,4.000000,4.000000,4.000000,100.000000,,,,,,,,,,,,,,,,,,,,,,,,,,,,,,,,,,,,,,,,,,,,,,,,,,,,,,,,,,,,,,,,,,,,,,,,,,,,,,,,,,,,,,,,,,,,,,,,,,,,,,,,,,,,,,,,,,,,,,,,,,,,,,,,,
1739354558.128958,1739354558.129460,118.000000,0.000000,4295.000000,4278.589844,4335.641113,4290.641113,4272.307617,4270.000000,4267.307617,4312.820313,4206.282227,4273.589844,4486.282227,4526.410156,4406.922852,4504.615234,4973.000000,1.000000,17.000000,,,,0.000000,4.000000,4.000000,4.000000,4.000000,4.000000,4.000000,4.000000,4.000000,4.000000,4.000000,4.000000,4.000000,4.000000,4.000000,100.000000,,,,,,,,,,,,,,,,,,,,,,,,,,,,,,,,,,,,,,,,,,,,,,,,,,,,,,,,,,,,,,,,,,,,,,,,,,,,,,,,,,,,,,,,,,,,,,,,,,,,,,,,,,,,,,,,,,,,,,,,,,,,,,,,,
1739354558.136766,1739354558.137268,119.000000,0.000000,4284.102539,4267.692383,4326.666504,4280.897461,4261.025879,4255.512695,4251.538574,4309.102539,4191.666504,4266.666504,4476.666504,4514.102539,4400.769043,4499.487305,5407.000000,1.000000,17.000000,,,,0.000000,4.000000,4.000000,4.000000,4.000000,4.000000,4.000000,4.000000,4.000000,4.000000,4.000000,4.000000,4.000000,4.000000,4.000000,100.000000,,,,,,,,,,,,,,,,,,,,,,,,,,,,,,,,,,,,,,,,,,,,,,,,,,,,,,,,,,,,,,,,,,,,,,,,,,,,,,,,,,,,,,,,,,,,,,,,,,,,,,,,,,,,,,,,,,,,,,,,,,,,,,,,,
1739354558.144574,1739354558.145176,120.000000,0.000000,4278.589844,4259.487305,4323.589844,4276.410156,4252.051270,4243.077148,4232.820313,4303.077148,4184.358887,4251.538574,4472.820313,4506.410156,4395.641113,4493.846191,5494.000000,1.000000,17.000000,,,,0.000000,4.000000,4.000000,4.000000,4.000000,4.000000,4.000000,4.000000,4.000000,4.000000,4.000000,4.000000,4.000000,4.000000,4.000000,100.000000,,,,,,,,,,,,,,,,,30.000000,0.000000,0.359306,0.466858,-0.519165,0.619202,0.952265,-0.301306,0.027347,-39.133541,-29.898212,44.251408,,,,,,,,,,,,,,,,,,,,,,,,,,,,,,,,,,,,,,,,,,,,,,,,,,,,,,,,,,,,,,,,,,,,,,,,,,,,,,,,,,,,,,,,,,,,,,,,,,,,,
1739354558.152382,1739354558.152984,121.000000,0.000000,4284.358887,4267.307617,4329.487305,4286.410156,4253.717773,4249.102539,4230.512695,4306.666504,4198.333496,4250.512695,4478.717773,4510.897461,4402.436035,4498.717773,6523.000000,1.000000,17.000000,,,,0.000000,4.000000,4.000000,4.000000,4.000000,4.000000,4.000000,4.000000,4.000000,4.000000,4.000000,4.000000,4.000000,4.000000,4.000000,100.000000,,,,,,,,,,,,,,,,,,,,,,,,,,,,,,,,,,,,,,,,,,,,,,,,,,,,,,,,,,,,,,,,,,,,,,,,,,,,,,,,,,,,,,,,,,,,,,,,,,,,,,,,,,,,,,,,,,,,,,,,,,,,,,,,,
1739354558.160190,1739354558.160892,122.000000,0.000000,4278.974121,4265.384766,4316.794922,4278.974121,4247.692383,4243.974121,4221.025879,4302.307617,4195.512695,4251.153809,4466.282227,4496.153809,4396.538574,4489.615234,4973.000000,1.000000,17.000000,,,,0.000000,4.000000,4.000000,4.000000,4.000000,4.000000,4.000000,4.000000,4.000000,4.000000,4.000000,4.000000,4.000000,4.000000,4.000000,100.000000,,,,,,,,,,,,,,,,,,,,,,,,,,,,,,,,,,,,,,,,,,,,,,,,,,,,,,,,,,,,2.450056,1.587656,1.187297,1.182594,1.051560,4.159015,2.852388,1.661788,0.911886,1.009590,1.865644,1.265996,0.785753,1.055282,0.933739,6.070592,1.181769,0.846341,0.801465,1.068704,1.853269,0.737956,0.540055,0.802853,0.772014,1.530668,0.995425,0.450732,0.706687,0.749355,1.944679,2.958770,1.277902,0.929759,0.917127,0.193897,0.314845,0.397394,0.289409,0.197550,3.453907,1.848430,2.086540,1.160428,0.784752,2.502622,1.827088,1.498619,1.204755,1.089881,10.100888,3.189232,0.930520,1.488617,0.995383,3.230915,1.948285,1.620844,1.716550,1.323333,2.290446,1.718416,0.648076,1.243300,0.988906,1.037740,1.293051,1.183464,1.385061,1.009094
1739354558.167998,1739354558.168700,123.000000,0.000000,4277.563965,4264.871582,4307.948730,4268.974121,4249.743652,4236.153809,4215.000000,4292.051270,4188.077148,4252.436035,4458.461426,4484.102539,4388.077148,4486.538574,5407.000000,1.000000,17.000000,,,,0.000000,4.000000,4.000000,4.000000,4.000000,4.000000,4.000000,4.000000,4.000000,4.000000,4.000000,4.000000,4.000000,4.000000,4.000000,100.000000,,,,,,,,,,,,,,,,,,,,,,,,,,,,,,,,,,,,,,,,,,,,,,,,,,,,,,,,,,,,,,,,,,,,,,,,,,,,,,,,,,,,,,,,,,,,,,,,,,,,,,,,,,,,,,,,,,,,,,,,,,,,,,,,,
1739354558.175806,1739354558.176608,124.000000,0.000000,4269.358887,4256.410156,4300.641113,4262.179688,4242.436035,4229.871582,4206.538574,4283.717773,4179.615234,4242.563965,4452.820313,4471.538574,4382.820313,4479.102539,5494.000000,1.000000,17.000000,,,,0.000000,4.000000,4.000000,4.000000,4.000000,4.000000,4.000000,4.000000,4.000000,4.000000,4.000000,4.000000,4.000000,4.000000,4.000000,100.000000,,,,,,,,,,,,,,,,,31.000000,0.000000,0.359729,0.466736,-0.518982,0.619202,0.945916,-0.306190,0.023929,-39.070187,-29.741724,44.292934,,,,,,,,,,,,,,,,,,,,,,,,,,,,,,,,,,,,,,,,,,,,,,,,,,,,,,,,,,,,,,,,,,,,,,,,,,,,,,,,,,,,,,,,,,,,,,,,,,,,,
1739354558.183614,1739354558.184416,125.000000,0.000000,4255.128418,4243.846191,4291.794922,4258.717773,4231.025879,4226.025879,4198.589844,4286.025879,4167.436035,4229.871582,4443.333496,4464.487305,4381.153809,4467.692383,6523.000000,1.000000,17.000000,,,,0.000000,4.000000,4.000000,4.000000,4.000000,4.000000,4.000000,4.000000,4.000000,4.000000,4.000000,4.000000,4.000000,4.000000,4.000000,100.000000,,,,,,,,,,,,,,,,,,,,,,,,,,,,,,,,,,,,,,,,,,,,,,,,,,,,,,,,,,,,,,,,,,,,,,,,,,,,,,,,,,,,,,,,,,,,,,,,,,,,,,,,,,,,,,,,,,,,,,,,,,,,,,,,,
1739354558.191423,1739354558.192324,126.000000,0.000000,4266.410156,4256.922852,4307.563965,4274.743652,4249.871582,4242.692383,4219.871582,4303.717773,4176.538574,4242.307617,4458.974121,4487.563965,4397.948730,4484.487305,4973.000000,1.000000,17.000000,,,,0.000000,4.000000,4.000000,4.000000,4.000000,4.000000,4.000000,4.000000,4.000000,4.000000,4.000000,4.000000,4.000000,4.000000,4.000000,100.000000,,,,,,,,,,,,,,,,,,,,,,,,,,,,,,,,,,,,,,,,,,,,,,,,,,,,,,,,,,,,,,,,,,,,,,,,,,,,,,,,,,,,,,,,,,,,,,,,,,,,,,,,,,,,,,,,,,,,,,,,,,,,,,,,,
1739354558.199231,1739354558.200132,127.000000,0.000000,4286.410156,4270.256348,4324.743652,4288.461426,4268.974121,4263.974121,4243.333496,4316.666504,4190.897461,4258.846191,4477.307617,4507.436035,4411.922852,4505.897461,17.000000,1.000000,17.000000,,,,0.000000,4.000000,4.000000,4.000000,4.000000,4.000000,4.000000,4.000000,4.000000,4.000000,4.000000,4.000000,4.000000,4.000000,4.000000,100.000000,,,,,,,,,,,,,,,,,,,,,,,,,,,,,,,,,,,,,,,,,,,,,,,,,,,,,,,,,,,,,,,,,,,,,,,,,,,,,,,,,,,,,,,,,,,,,,,,,,,,,,,,,,,,,,,,,,,,,,,,,,,,,,,,,
1739354558.207039,1739354558.207840,0.000000,0.000000,4280.128418,4263.717773,4315.128418,4282.692383,4261.153809,4259.615234,4236.666504,4310.000000,4184.358887,4251.666504,4467.820313,4496.282227,4400.128418,4497.692383,5085.000000,1.000000,17.000000,,,,0.000000,4.000000,4.000000,4.000000,4.000000,4.000000,4.000000,4.000000,4.000000,4.000000,4.000000,4.000000,4.000000,4.000000,4.000000,100.000000,,,,,,,,,,,,,,,,,0.000000,0.000000,0.360247,0.466553,-0.518860,0.619141,0.956171,-0.303748,0.027347,-38.963169,-29.650885,44.163639,,,,,,,,,,,,,,,,,,,,,,,,,,,,,,,,,,,,,,,,,,,,,,,,,,,,,,,,,,,,,,,,,,,,,,,,,,,,,,,,,,,,,,,,,,,,,,,,,,,,,
1739354558.214847,1739354558.215648,1.000000,0.000000,4266.666504,4260.641113,4306.922852,4275.897461,4253.461426,4251.153809,4233.333496,4304.871582,4177.820313,4238.589844,4455.256348,4485.384766,4385.128418,4482.563965,5460.000000,1.000000,17.000000,,,,0.000000,4.000000,4.000000,4.000000,4.000000,4.000000,4.000000,4.000000,4.000000,4.000000,4.000000,4.000000,4.000000,4.000000,4.000000,100.000000,,,,,,,,,,,,,,,,,,,,,,,,,,,,,,,,,,,,,,,,,,,,,,,,,,,,,,,,,,,,,,,,,,,,,,,,,,,,,,,,,,,,,,,,,,,,,,,,,,,,,,,,,,,,,,,,,,,,,,,,,,,,,,,,,
1739354558.222655,1739354558.223356,2.000000,0.000000,4261.666504,4257.436035,4306.282227,4269.743652,4255.000000,4257.692383,4240.128418,4313.333496,4183.846191,4234.871582,4451.410156,4481.666504,4383.717773,4479.871582,5462.000000,1.000000,17.000000,,,,0.000000,4.000000,4.000000,4.000000,4.000000,4.000000,4.000000,4.000000,4.000000,4.000000,4.000000,4.000000,4.000000,4.000000,4.000000,100.000000,,,,,,,,,,,,,,,,,,,,,,,,,,,,,,,,,,,,,,,,,,,,,,,,,,,,,,,,,,,,,,,,,,,,,,,,,,,,,,,,,,,,,,,,,,,,,,,,,,,,,,,,,,,,,,,,,,,,,,,,,,,,,,,,,
1739354558.230463,1739354558.231164,3.000000,0.000000,4259.871582,4248.717773,4299.102539,4263.205078,4250.897461,4257.692383,4233.717773,4312.692383,4183.077148,4235.128418,4447.563965,4473.974121,4380.384766,4479.102539,5375.000000,1.000000,17.000000,,,,0.000000,4.000000,4.000000,4.000000,4.000000,4.000000,4.000000,4.000000,4.000000,4.000000,4.000000,4.000000,4.000000,4.000000,4.000000,100.000000,,,,,,,,,,,,,,,,,,,,,,,,,,,,,,,,,,,,,,,,,,,,,,,,,,,,,,,,,,,,,,,,,,,,,,,,,,,,,,,,,,,,,,,,,,,,,,,,,,,,,,,,,,,,,,,,,,,,,,,,,,,,,,,,,
1739354558.238271,1739354558.238872,4.000000,0.000000,4265.897461,4254.743652,4301.538574,4268.717773,4247.948730,4247.948730,4229.230957,4307.948730,4182.051270,4241.282227,4454.358887,4479.615234,4376.922852,4484.487305,5360.000000,1.000000,17.000000,,,,0.000000,4.000000,4.000000,4.000000,4.000000,4.000000,4.000000,4.000000,4.000000,4.000000,4.000000,4.000000,4.000000,4.000000,4.000000,100.000000,,,,,,,,,,,,,,,,,1.000000,0.000000,0.360449,0.466614,-0.518738,0.619080,0.960078,-0.302283,0.021975,-38.883518,-29.669130,44.163944,,,,,,,,,,,,,,,,,,,,,,,,,,,,,,,,,,,,,,,,,,,,,,,,,,,,,,,,,,,,,,,,,,,,,,,,,,,,,,,,,,,,,,,,,,,,,,,,,,,,,
1739354558.246079,1739354558.246680,5.000000,0.000000,4267.436035,4258.717773,4303.589844,4265.512695,4246.922852,4244.358887,4228.205078,4311.153809,4186.666504,4240.641113,4458.846191,4483.974121,4374.871582,4483.461426,5389.000000,1.000000,17.000000,,,,0.000000,4.000000,4.000000,4.000000,4.000000,4.000000,4.000000,4.000000,4.000000,4.000000,4.000000,4.000000,4.000000,4.000000,4.000000,100.000000,,,,,,,,,,,,,,,,,,,,,,,,,,,,,,,,,,,,,,,,,,,,,,,,,,,,,,,,,,,,,,,,,,,,,,,,,,,,,,,,,,,,,,,,,,,,,,,,,,,,,,,,,,,,,,,,,,,,,,,,,,,,,,,,,
1739354558.253887,1739354558.254388,6.000000,0.000000,4263.333496,4251.282227,4298.846191,4254.871582,4249.230957,4249.102539,4221.666504,4313.333496,4190.384766,4237.436035,4451.922852,4481.410156,4371.410156,4477.436035,5347.000000,1.000000,17.000000,,,,0.000000,4.000000,4.000000,4.000000,4.000000,4.000000,4.000000,4.000000,4.000000,4.000000,4.000000,4.000000,4.000000,4.000000,4.000000,100.000000,,,,,,,,,,,,,,,,,,,,,,,,,,,,,,,,,,,,,,,,,,,,,,,,,,,,,,,,,,,,,,,,,,,,,,,,,,,,,,,,,,,,,,,,,,,,,,,,,,,,,,,,,,,,,,,,,,,,,,,,,,,,,,,,,
1739354558.261695,1739354558.262296,7.000000,0.000000,4252.179688,4239.487305,4292.563965,4252.307617,4243.846191,4237.436035,4207.563965,4303.589844,4181.282227,4228.974121,4437.692383,4471.538574,4359.615234,4469.871582,2585.000000,1.000000,17.000000,,,,0.000000,4.000000,4.000000,4.000000,4.000000,4.000000,4.000000,4.000000,4.000000,4.000000,4.000000,4.000000,4.000000,4.000000,4.000000,100.000000,,,,,,,,,,,,,,,,,,,,,,,,,,,,,,,,,,,,,,,,,,,,,,,,,,,,,,,,,,,,,,,,,,,,,,,,,,,,,,,,,,,,,,,,,,,,,,,,,,,,,,,,,,,,,,,,,,,,,,,,,,,,,,,,,
1739354558.269503,1739354558.270104,8.000000,0.000000,4244.871582,4229.358887,4288.333496,4254.615234,4231.794922,4225.769043,4205.256348,4297.051270,4173.077148,4220.512695,4436.153809,4462.179688,4356.025879,4463.205078,5128.000000,1.000000,17.000000,,,,0.000000,4.000000,4.000000,4.000000,4.000000,4.000000,4.000000,4.000000,4.000000,4.000000,4.000000,4.000000,4.000000,4.000000,4.000000,100.000000,,,,,,,,,,,,,,,,,2.000000,0.000000,0.360860,0.466797,-0.518433,0.618958,0.949823,-0.287144,0.022464,-38.961834,-29.618883,44.297550,,,,,,,,,,,,,,,,,,,,,,,,,,,,,,,,,,,,,,,,,,,,,,,,,,,,,,,,,,,,,,,,,,,,,,,,,,,,,,,,,,,,,,,,,,,,,,,,,,,,,
1739354558.277311,1739354558.278012,9.000000,0.000000,4263.974121,4241.666504,4302.563965,4267.692383,4238.717773,4247.692383,4228.077148,4310.384766,4192.948730,4242.051270,4464.358887,4483.461426,4380.384766,4481.538574,5465.000000,1.000000,17.000000,,,,0.000000,4.000000,4.000000,4.000000,4.000000,4.000000,4.000000,4.000000,4.000000,4.000000,4.000000,4.000000,4.000000,4.000000,4.000000,100.000000,,,,,,,,,,,,,,,,,,,,,,,,,,,,,,,,,,,,,,,,,,,,,,,,,,,,,,,,,,,,,,,,,,,,,,,,,,,,,,,,,,,,,,,,,,,,,,,,,,,,,,,,,,,,,,,,,,,,,,,,,,,,,,,,,
1739354558.285119,1739354558.285821,10.000000,0.000000,4278.974121,4263.461426,4317.051270,4279.230957,4255.769043,4264.230957,4240.256348,4316.794922,4208.461426,4265.641113,4478.333496,4502.948730,4396.922852,4498.717773,4954.000000,1.000000,17.000000,,,,0.000000,4.000000,4.000000,4.000000,4.000000,4.000000,4.000000,4.000000,4.000000,4.000000,4.000000,4.000000,4.000000,4.000000,4.000000,100.000000,1.000000,25.000000,4.000000,3.000000,3.000000,1.000000,1.000000,1.000000,1.000000,3.000000,3.000000,1.000000,1.000000,3.000000,4.000000,4.000000,,,,,,,,,,,,,,,,,,,,,,,,,,,,,,,,,,,,,,,,,,,,2.508147,2.053152,1.425086,1.141006,1.008071,4.851547,3.627328,2.222372,0.882147,1.011056,1.947048,1.683589,0.961932,1.015906,0.849539,4.891857,1.585819,1.043350,0.764097,0.967908,1.705550,0.835217,0.728480,0.733825,0.709616,1.403554,1.136142,0.581936,0.703667,0.692971,1.786421,3.555465,1.276597,0.919926,0.895606,0.205032,0.367826,0.460408,0.293059,0.184930,2.616538,2.152816,2.402260,1.286594,0.725513,2.741895,2.020083,1.612540,1.314856,1.020546,9.680038,3.573284,1.091773,1.615347,0.913183,3.429255,2.629014,1.843790,1.752820,1.232466,2.582127,1.970354,0.546605,1.243237,0.967227,1.285608,1.727529,1.275372,1.385900,0.946675
1739354558.292927,1739354558.293729,11.000000,0.000000,4265.384766,4259.358887,4305.897461,4277.563965,4254.743652,4248.461426,4225.256348,4302.307617,4192.179688,4251.282227,4453.333496,4483.205078,4381.410156,4485.256348,5382.000000,1.000000,17.000000,,,,0.000000,4.000000,4.000000,4.000000,4.000000,4.000000,4.000000,4.000000,4.000000,4.000000,4.000000,4.000000,4.000000,4.000000,4.000000,100.000000,,,,,,,,,,,,,,,,,,,,,,,,,,,,,,,,,,,,,,,,,,,,,,,,,,,,,,,,,,,,,,,,,,,,,,,,,,,,,,,,,,,,,,,,,,,,,,,,,,,,,,,,,,,,,,,,,,,,,,,,,,,,,,,,,
1739354558.300736,1739354558.301537,12.000000,0.000000,4260.897461,4238.974121,4304.871582,4273.205078,4239.230957,4242.179688,4227.179688,4299.102539,4184.230957,4235.641113,4450.384766,4476.153809,4377.051270,4482.692383,5489.000000,1.000000,17.000000,,,,0.000000,4.000000,4.000000,4.000000,4.000000,4.000000,4.000000,4.000000,4.000000,4.000000,4.000000,4.000000,4.000000,4.000000,4.000000,100.000000,,,,,,,,,,,,,,,,,3.000000,0.000000,0.361095,0.466980,-0.518250,0.618835,0.943963,-0.292028,0.026370,-39.032314,-29.706995,44.167793,,,,,,,,,,,,,,,,,,,,,,,,,,,,,,,,,,,,,,,,,,,,,,,,,,,,,,,,,,,,,,,,,,,,,,,,,,,,,,,,,,,,,,,,,,,,,,,,,,,,,
1739354558.308544,1739354558.309445,13.000000,0.000000,4286.410156,4250.897461,4331.538574,4278.205078,4250.769043,4267.179688,4255.384766,4315.256348,4207.051270,4260.000000,4483.205078,4512.051270,4398.846191,4511.410156,6514.000000,1.000000,17.000000,,,,0.000000,4.000000,4.000000,4.000000,4.000000,4.000000,4.000000,4.000000,4.000000,4.000000,4.000000,4.000000,4.000000,4.000000,4.000000,100.000000,,,,,,,,,,,,,,,,,,,,,,,,,,,,,,,,,,,,,,,,,,,,,,,,,,,,,,,,,,,,,,,,,,,,,,,,,,,,,,,,,,,,,,,,,,,,,,,,,,,,,,,,,,,,,,,,,,,,,,,,,,,,,,,,,
1739354558.316352,1739354558.317253,14.000000,0.000000,4286.922852,4272.820313,4329.487305,4285.128418,4274.743652,4274.102539,4251.282227,4310.384766,4209.615234,4266.282227,4477.692383,4512.051270,4395.897461,4513.205078,4954.000000,1.000000,17.000000,,,,0.000000,4.000000,4.000000,4.000000,4.000000,4.000000,4.000000,4.000000,4.000000,4.000000,4.000000,4.000000,4.000000,4.000000,4.000000,100.000000,,,,,,,,,,,,,,,,,,,,,,,,,,,,,,,,,,,,,,,,,,,,,,,,,,,,,,,,,,,,,,,,,,,,,,,,,,,,,,,,,,,,,,,,,,,,,,,,,,,,,,,,,,,,,,,,,,,,,,,,,,,,,,,,,
1739354558.324160,1739354558.325161,15.000000,0.000000,4262.436035,4265.641113,4304.230957,4298.205078,4268.461426,4259.358887,4224.230957,4293.205078,4184.871582,4234.743652,4455.256348,4474.871582,4374.102539,4489.358887,5382.000000,1.000000,17.000000,,,,0.000000,4.000000,4.000000,4.000000,4.000000,4.000000,4.000000,4.000000,4.000000,4.000000,4.000000,4.000000,4.000000,4.000000,4.000000,100.000000,,,,,,,,,,,,,,,,,,,,,,,,,,,,,,,,,,,,,,,,,,,,,,,,,,,,,,,,,,,,,,,,,,,,,,,,,,,,,,,,,,,,,,,,,,,,,,,,,,,,,,,,,,,,,,,,,,,,,,,,,,,,,,,,,
1739354558.331968,1739354558.332969,16.000000,0.000000,4268.846191,4265.128418,4308.846191,4338.589844,4263.974121,4261.922852,4223.077148,4300.641113,4188.461426,4230.384766,4475.897461,4482.436035,4383.717773,4498.461426,0.000000,1.000000,17.000000,,,,0.000000,4.000000,4.000000,4.000000,4.000000,4.000000,4.000000,4.000000,4.000000,4.000000,4.000000,4.000000,4.000000,4.000000,4.000000,100.000000,,,,,,,,,,,,,,,,,4.000000,0.000000,0.361846,0.467102,-0.517761,0.618713,0.959101,-0.280308,0.029300,-39.095753,-29.786295,44.134350,,,,,,,,,,,,,,,,,,,,,,,,,,,,,,,,,,,,,,,,,,,,,,,,,,,,,,,,,,,,,,,,,,,,,,,,,,,,,,,,,,,,,,,,,,,,,,,,,,,,,
1739354558.339776,1739354558.340878,17.000000,0.000000,4300.897461,4289.743652,4336.153809,4397.179688,4276.922852,4278.205078,4252.436035,4316.282227,4225.641113,4266.282227,4515.128418,4524.487305,4412.051270,4530.641113,0.000000,1.000000,17.000000,,,,0.000000,4.000000,4.000000,4.000000,4.000000,4.000000,4.000000,4.000000,4.000000,4.000000,4.000000,4.000000,4.000000,4.000000,4.000000,100.000000,,,,,,,,,,,,,,,,,,,,,,,,,,,,,,,,,,,,,,,,,,,,,,,,,,,,,,,,,,,,,,,,,,,,,,,,,,,,,,,,,,,,,,,,,,,,,,,,,,,,,,,,,,,,,,,,,,,,,,,,,,,,,,,,,
1739354558.347584,1739354558.348686,18.000000,0.000000,4317.563965,4299.230957,4354.102539,4444.358887,4277.307617,4296.282227,4282.820313,4322.307617,4248.461426,4284.615234,4546.666504,4545.512695,4419.102539,4543.205078,0.000000,1.000000,17.000000,,,,0.000000,4.000000,4.000000,4.000000,4.000000,4.000000,4.000000,4.000000,4.000000,4.000000,4.000000,4.000000,4.000000,4.000000,4.000000,100.000000,,,,,,,,,,,,,,,,,,,,,,,,,,,,,,,,,,,,,,,,,,,,,,,,,,,,,,,,,,,,,,,,,,,,,,,,,,,,,,,,,,,,,,,,,,,,,,,,,,,,,,,,,,,,,,,,,,,,,,,,,,,,,,,,,
1739354558.355392,1739354558.356594,19.000000,0.000000,4287.948730,4271.922852,4330.000000,4451.666504,4263.974121,4295.256348,4269.102539,4311.922852,4224.358887,4251.794922,4542.563965,4513.205078,4395.641113,4513.461426,0.000000,1.000000,17.000000,,,,0.000000,4.000000,4.000000,4.000000,4.000000,4.000000,4.000000,4.000000,4.000000,4.000000,4.000000,4.000000,4.000000,4.000000,4.000000,100.000000,,,,,,,,,,,,,,,,,,,,,,,,,,,,,,,,,,,,,,,,,,,,,,,,,,,,,,,,,,,,,,,,,,,,,,,,,,,,,,,,,,,,,,,,,,,,,,,,,,,,,,,,,,,,,,,,,,,,,,,,,,,,,,,,,
1739354558.363200,1739354558.364402,20.000000,0.000000,4258.461426,4263.333496,4298.333496,4457.179688,4276.282227,4283.974121,4240.897461,4299.358887,4200.897461,4222.436035,4529.230957,4481.922852,4380.512695,4488.077148,0.000000,1.000000,17.000000,,,,0.000000,4.000000,4.000000,4.000000,4.000000,4.000000,4.000000,4.000000,4.000000,4.000000,4.000000,4.000000,4.000000,4.000000,4.000000,100.000000,,,,,,,,,,,,,,,,,5.000000,0.000000,0.362580,0.466858,-0.517395,0.618774,0.971310,-0.300818,0.023440,-39.186176,-29.757666,44.170914,,,,,,,,,,,,,,,,,,,,,,,,,,,,,,,,,,,,,,,,,,,,,,,,,,,,,,,,,,,,,,,,,,,,,,,,,,,,,,,,,,,,,,,,,,,,,,,,,,,,,
1739354558.371008,1739354558.372309,21.000000,0.000000,4283.846191,4300.384766,4315.384766,4501.794922,4307.307617,4297.820313,4254.743652,4304.487305,4229.743652,4247.692383,4582.307617,4503.589844,4412.436035,4514.230957,0.000000,1.000000,17.000000,,,,0.000000,4.000000,4.000000,4.000000,4.000000,4.000000,4.000000,4.000000,4.000000,4.000000,4.000000,4.000000,4.000000,4.000000,4.000000,100.000000,,,,,,,,,,,,,,,,,,,,,,,,,,,,,,,,,,,,,,,,,,,,,,,,,,,,,,,,,,,,,,,,,,,,,,,,,,,,,,,,,,,,,,,,,,,,,,,,,,,,,,,,,,,,,,,,,,,,,,,,,,,,,,,,,
1739354558.378816,1739354558.380117,22.000000,0.000000,4341.410156,4351.922852,4363.846191,4573.333496,4333.589844,4338.846191,4306.153809,4325.384766,4278.589844,4305.897461,4729.487305,4560.897461,4468.461426,4563.846191,0.000000,1.000000,17.000000,,,,0.000000,4.000000,4.000000,4.000000,4.000000,4.000000,4.000000,4.000000,4.000000,4.000000,4.000000,4.000000,4.000000,4.000000,4.000000,100.000000,,,,,,,,,,,,,,,,,,,,,,,,,,,,,,,,,,,,,,,,,,,,,,,,,,,,,,,,,,,,,,,,,,,,,,,,,,,,,,,,,,,,,,,,,,,,,,,,,,,,,,,,,,,,,,,,,,,,,,,,,,,,,,,,,
1739354558.386624,1739354558.387826,23.000000,0.000000,4365.512695,4376.538574,4385.000000,4635.897461,4342.179688,4360.128418,4337.051270,4339.487305,4285.897461,4313.077148,4914.615234,4596.538574,4475.769043,4577.307617,0.000000,1.000000,17.000000,,,,0.000000,4.000000,4.000000,4.000000,4.000000,4.000000,4.000000,4.000000,4.000000,4.000000,4.000000,4.000000,4.000000,4.000000,4.000000,100.000000,,,,,,,,,,,,,,,,,,,,,,,,,,,,,,,,,,,,,,,,,,,,,,,,,,,,,,,,,,,,,,,,,,,,,,,,,,,,,,,,,,,,,,,,,,,,,,,,,,,,,,,,,,,,,,,,,,,,,,,,,,,,,,,,,
1739354558.394432,1739354558.395734,24.000000,0.000000,4351.538574,4367.948730,4373.205078,4655.256348,4334.102539,4349.102539,4325.769043,4330.897461,4267.948730,4288.461426,5120.769043,4580.384766,4456.410156,4557.051270,0.000000,1.000000,17.000000,,,,0.000000,4.000000,4.000000,4.000000,4.000000,4.000000,4.000000,4.000000,4.000000,4.000000,4.000000,4.000000,4.000000,4.000000,4.000000,100.000000,,,,,,,,,,,,,,,,,6.000000,0.000000,0.362790,0.466492,-0.517578,0.618774,0.954706,-0.305213,0.029789,-39.134224,-29.681900,44.203823,,,,,,,,,,,,,,,,,,,,,,,,,,,,,,,,,,,,,,,,,,,,,,,,,,,,,,,,,,,,,,,,,,,,,,,,,,,,,,,,,,,,,,,,,,,,,,,,,,,,,
1739354558.402241,1739354558.403542,25.000000,0.000000,4375.384766,4389.102539,4385.384766,4680.769043,4363.974121,4373.974121,4332.051270,4326.922852,4302.179688,4336.410156,5435.128418,4583.974121,4498.717773,4574.871582,0.000000,1.000000,17.000000,,,,0.000000,4.000000,4.000000,4.000000,4.000000,4.000000,4.000000,4.000000,4.000000,4.000000,4.000000,4.000000,4.000000,4.000000,4.000000,100.000000,,,,,,,,,,,,,,,,,,,,,,,,,,,,,,,,,,,,,,,,,,,,,,,,,,,,,,,,,,,,,,,,,,,,,,,,,,,,,,,,,,,,,,,,,,,,,,,,,,,,,,,,,,,,,,,,,,,,,,,,,,,,,,,,,
1739354558.410049,1739354558.411450,26.000000,0.000000,4427.563965,4433.333496,4427.179688,4744.743652,4408.717773,4424.871582,4373.717773,4342.820313,4362.692383,4402.051270,5859.871582,4635.897461,4559.743652,4626.922852,0.000000,1.000000,17.000000,,,,0.000000,4.000000,4.000000,4.000000,4.000000,4.000000,4.000000,4.000000,4.000000,4.000000,4.000000,4.000000,4.000000,4.000000,4.000000,100.000000,,,,,,,,,,,,,,,,,,,,,,,,,,,,,,,,,,,,,,,,,,,,,,,,,,,,,,,,,,,,2.518089,2.503311,1.648017,1.086980,0.999148,5.492645,4.252144,2.676204,0.859849,1.052985,1.939388,2.141840,1.140138,0.970505,0.802862,3.614478,2.062885,1.218942,0.726475,0.910459,1.518850,0.907028,0.920797,0.674549,0.672367,1.264989,1.256218,0.722170,0.697382,0.680009,1.553611,4.070008,1.270365,0.902635,0.918944,0.253404,0.433046,0.532678,0.312766,0.201257,2.128654,2.462833,2.540905,1.375352,0.730846,2.904522,2.170511,1.710588,1.378788,1.002701,8.468733,3.706452,1.281871,1.675975,0.904191,3.438677,3.316167,2.081164,1.751026,1.211595,2.724991,2.136534,0.482135,1.202137,0.981021,1.535245,2.170039,1.358004,1.349529,0.937209
1739354558.417857,1739354558.419258,27.000000,0.000000,4437.820313,4440.000000,4444.230957,4777.051270,4401.666504,4429.102539,4391.410156,4352.692383,4369.743652,4387.307617,6277.436035,4661.794922,4553.333496,4641.282227,0.000000,1.000000,17.000000,,,,0.000000,4.000000,4.000000,4.000000,4.000000,4.000000,4.000000,4.000000,4.000000,4.000000,4.000000,4.000000,4.000000,4.000000,4.000000,100.000000,,,,,,,,,,,,,,,,,,,,,,,,,,,,,,,,,,,,,,,,,,,,,,,,,,,,,,,,,,,,,,,,,,,,,,,,,,,,,,,,,,,,,,,,,,,,,,,,,,,,,,,,,,,,,,,,,,,,,,,,,,,,,,,,,
1739354558.425665,1739354558.427066,28.000000,0.000000,4433.589844,4442.051270,4440.897461,4773.461426,4398.974121,4417.436035,4383.461426,4351.666504,4361.410156,4377.820313,6630.256348,4655.897461,4549.102539,4637.692383,0.000000,1.000000,17.000000,,,,0.000000,4.000000,4.000000,4.000000,4.000000,4.000000,4.000000,4.000000,4.000000,4.000000,4.000000,4.000000,4.000000,4.000000,4.000000,100.000000,,,,,,,,,,,,,,,,,7.000000,0.000000,0.362981,0.466248,-0.517883,0.618591,0.939079,-0.280796,0.017092,-39.037468,-29.780376,44.233440,,,,,,,,,,,,,,,,,,,,,,,,,,,,,,,,,,,,,,,,,,,,,,,,,,,,,,,,,,,,,,,,,,,,,,,,,,,,,,,,,,,,,,,,,,,,,,,,,,,,,
1739354558.433473,1739354558.434774,29.000000,0.000000,4471.666504,4482.307617,4466.025879,4807.051270,4443.974121,4447.436035,4412.563965,4367.436035,4401.666504,4427.820313,6966.922852,4688.461426,4600.769043,4677.436035,0.000000,1.000000,17.000000,,,,0.000000,4.000000,4.000000,4.000000,4.000000,4.000000,4.000000,4.000000,4.000000,4.000000,4.000000,4.000000,4.000000,4.000000,4.000000,100.000000,,,,,,,,,,,,,,,,,,,,,,,,,,,,,,,,,,,,,,,,,,,,,,,,,,,,,,,,,,,,,,,,,,,,,,,,,,,,,,,,,,,,,,,,,,,,,,,,,,,,,,,,,,,,,,,,,,,,,,,,,,,,,,,,,
1739354558.441281,1739354558.442582,30.000000,0.000000,4515.128418,4517.051270,4501.410156,4863.205078,4466.538574,4481.282227,4456.794922,4385.000000,4448.461426,4460.769043,7246.666504,4737.948730,4632.051270,4725.256348,0.000000,1.000000,17.000000,,,,0.000000,4.000000,4.000000,4.000000,4.000000,4.000000,4.000000,4.000000,4.000000,4.000000,4.000000,4.000000,4.000000,4.000000,4.000000,100.000000,,,,,,,,,,,,,,,,,,,,,,,,,,,,,,,,,,,,,,,,,,,,,,,,,,,,,,,,,,,,,,,,,,,,,,,,,,,,,,,,,,,,,,,,,,,,,,,,,,,,,,,,,,,,,,,,,,,,,,,,,,,,,,,,,
1739354558.449089,1739354558.450290,31.000000,0.000000,4508.717773,4507.051270,4497.051270,4865.641113,4447.820313,4473.846191,4449.871582,4374.871582,4444.743652,4464.743652,7390.641113,4729.487305,4620.256348,4725.897461,0.000000,1.000000,17.000000,,,,0.000000,4.000000,4.000000,4.000000,4.000000,4.000000,4.000000,4.000000,4.000000,4.000000,4.000000,4.000000,4.000000,4.000000,4.000000,100.000000,,,,,,,,,,,,,,,,,,,,,,,,,,,,,,,,,,,,,,,,,,,,,,,,,,,,,,,,,,,,,,,,,,,,,,,,,,,,,,,,,,,,,,,,,,,,,,,,,,,,,,,,,,,,,,,,,,,,,,,,,,,,,,,,,
1739354558.456897,1739354558.458098,32.000000,0.000000,4497.436035,4497.948730,4484.743652,4849.615234,4457.692383,4474.615234,4433.846191,4369.230957,4428.077148,4470.897461,7476.282227,4714.358887,4621.538574,4723.205078,0.000000,1.000000,17.000000,,,,0.000000,4.000000,4.000000,4.000000,4.000000,4.000000,4.000000,4.000000,4.000000,4.000000,4.000000,4.000000,4.000000,4.000000,4.000000,100.000000,,,,,,,,,,,,,,,,,8.000000,0.000000,0.362981,0.465881,-0.518066,0.618713,0.928336,-0.295935,0.020510,-38.950390,-29.869005,44.226761,,,,,,,,,,,,,,,,,,,,,,,,,,,,,,,,,,,,,,,,,,,,,,,,,,,,,,,,,,,,,,,,,,,,,,,,,,,,,,,,,,,,,,,,,,,,,,,,,,,,,
1739354558.464705,1739354558.465807,33.000000,0.000000,4494.102539,4492.948730,4476.538574,4845.128418,4465.000000,4481.538574,4429.102539,4369.230957,4417.948730,4447.692383,7545.128418,4712.307617,4619.871582,4729.102539,0.000000,1.000000,17.000000,,,,0.000000,4.000000,4.000000,4.000000,4.000000,4.000000,4.000000,4.000000,4.000000,4.000000,4.000000,4.000000,4.000000,4.000000,4.000000,100.000000,,,,,,,,,,,,,,,,,,,,,,,,,,,,,,,,,,,,,,,,,,,,,,,,,,,,,,,,,,,,,,,,,,,,,,,,,,,,,,,,,,,,,,,,,,,,,,,,,,,,,,,,,,,,,,,,,,,,,,,,,,,,,,,,,
1739354558.472513,1739354558.473615,34.000000,0.000000,4490.641113,4478.846191,4465.897461,4846.025879,4443.589844,4468.589844,4421.538574,4366.410156,4417.051270,4421.410156,7562.948730,4708.974121,4609.487305,4733.846191,0.000000,1.000000,17.000000,,,,0.000000,4.000000,4.000000,4.000000,4.000000,4.000000,4.000000,4.000000,4.000000,4.000000,4.000000,4.000000,4.000000,4.000000,4.000000,100.000000,,,,,,,,,,,,,,,,,,,,,,,,,,,,,,,,,,,,,,,,,,,,,,,,,,,,,,,,,,,,,,,,,,,,,,,,,,,,,,,,,,,,,,,,,,,,,,,,,,,,,,,,,,,,,,,,,,,,,,,,,,,,,,,,,
1739354558.480321,1739354558.481323,35.000000,0.000000,4520.128418,4501.410156,4492.307617,4882.948730,4463.717773,4483.589844,4448.077148,4384.102539,4461.153809,4464.358887,7559.743652,4745.256348,4646.153809,4773.717773,0.000000,1.000000,17.000000,,,,0.000000,4.000000,4.000000,4.000000,4.000000,4.000000,4.000000,4.000000,4.000000,4.000000,4.000000,4.000000,4.000000,4.000000,4.000000,100.000000,,,,,,,,,,,,,,,,,,,,,,,,,,,,,,,,,,,,,,,,,,,,,,,,,,,,,,,,,,,,,,,,,,,,,,,,,,,,,,,,,,,,,,,,,,,,,,,,,,,,,,,,,,,,,,,,,,,,,,,,,,,,,,,,,
1739354558.488130,1739354558.489231,36.000000,0.000000,4557.179688,4541.922852,4531.922852,4928.589844,4497.436035,4518.205078,4489.487305,4403.333496,4501.538574,4514.358887,7562.563965,4790.256348,4687.563965,4820.000000,0.000000,1.000000,17.000000,,,,0.000000,4.000000,4.000000,4.000000,4.000000,4.000000,4.000000,4.000000,4.000000,4.000000,4.000000,4.000000,4.000000,4.000000,4.000000,100.000000,,,,,,,,,,,,,,,,,9.000000,0.000000,0.363043,0.465454,-0.518188,0.618896,0.944940,-0.312538,0.028812,-38.972015,-29.865438,44.220753,,,,,,,,,,,,,,,,,,,,,,,,,,,,,,,,,,,,,,,,,,,,,,,,,,,,,,,,,,,,,,,,,,,,,,,,,,,,,,,,,,,,,,,,,,,,,,,,,,,,,
1739354558.495937,1739354558.497039,37.000000,0.000000,4551.794922,4538.077148,4525.000000,4934.615234,4483.333496,4511.538574,4482.948730,4397.051270,4486.153809,4490.128418,7558.974121,4782.563965,4670.384766,4814.743652,0.000000,1.000000,17.000000,,,,0.000000,4.000000,4.000000,4.000000,4.000000,4.000000,4.000000,4.000000,4.000000,4.000000,4.000000,4.000000,4.000000,4.000000,4.000000,100.000000,,,,,,,,,,,,,,,,,,,,,,,,,,,,,,,,,,,,,,,,,,,,,,,,,,,,,,,,,,,,,,,,,,,,,,,,,,,,,,,,,,,,,,,,,,,,,,,,,,,,,,,,,,,,,,,,,,,,,,,,,,,,,,,,,
1739354558.503746,1739354558.504947,38.000000,0.000000,4527.948730,4512.820313,4497.820313,4920.128418,4463.333496,4485.000000,4451.794922,4387.436035,4467.948730,4456.794922,7555.512695,4754.230957,4645.897461,4794.743652,0.000000,1.000000,17.000000,,,,0.000000,4.000000,4.000000,4.000000,4.000000,4.000000,4.000000,4.000000,4.000000,4.000000,4.000000,4.000000,4.000000,4.000000,4.000000,100.000000,,,,,,,,,,,,,,,,,,,,,,,,,,,,,,,,,,,,,,,,,,,,,,,,,,,,,,,,,,,,,,,,,,,,,,,,,,,,,,,,,,,,,,,,,,,,,,,,,,,,,,,,,,,,,,,,,,,,,,,,,,,,,,,,,
1739354558.511554,1739354558.512755,39.000000,0.000000,4543.333496,4521.538574,4508.846191,4927.820313,4473.717773,4490.256348,4455.769043,4393.461426,4489.871582,4478.717773,7558.205078,4770.128418,4662.436035,4813.717773,0.000000,1.000000,17.000000,,,,0.000000,4.000000,4.000000,4.000000,4.000000,4.000000,4.000000,4.000000,4.000000,4.000000,4.000000,4.000000,4.000000,4.000000,4.000000,100.000000,,,,,,,,,,,,,,,,,,,,,,,,,,,,,,,,,,,,,,,,,,,,,,,,,,,,,,,,,,,,,,,,,,,,,,,,,,,,,,,,,,,,,,,,,,,,,,,,,,,,,,,,,,,,,,,,,,,,,,,,,,,,,,,,,
1739354558.519362,1739354558.520663,40.000000,0.000000,4577.563965,4540.000000,4533.205078,4941.922852,4480.384766,4501.282227,4472.436035,4400.256348,4513.333496,4507.179688,7561.794922,4801.025879,4683.461426,4840.000000,0.000000,1.000000,17.000000,,,,0.000000,4.000000,4.000000,4.000000,4.000000,4.000000,4.000000,4.000000,4.000000,4.000000,4.000000,4.000000,4.000000,4.000000,4.000000,100.000000,,,,,,,,,,,,,,,,,10.000000,0.000000,0.363200,0.465332,-0.518188,0.618896,0.946893,-0.310585,0.028324,-39.024815,-29.745562,44.132011,,,,,,,,,,,,,,,,,,,,,,,,,,,,,,,,,,,,,,,,,,,,,,,,,,,,,,,,,,,,,,,,,,,,,,,,,,,,,,,,,,,,,,,,,,,,,,,,,,,,,
1739354558.527170,1739354558.528472,41.000000,0.000000,4562.307617,4515.641113,4512.948730,4912.179688,4457.948730,4480.769043,4453.846191,4389.358887,4493.717773,4478.461426,7557.179688,4778.077148,4661.410156,4819.871582,0.000000,1.000000,17.000000,,,,0.000000,4.000000,4.000000,4.000000,4.000000,4.000000,4.000000,4.000000,4.000000,4.000000,4.000000,4.000000,4.000000,4.000000,4.000000,100.000000,,,,,,,,,,,,,,,,,,,,,,,,,,,,,,,,,,,,,,,,,,,,,,,,,,,,,,,,,,,,,,,,,,,,,,,,,,,,,,,,,,,,,,,,,,,,,,,,,,,,,,,,,,,,,,,,,,,,,,,,,,,,,,,,,
1739354558.534978,1739354558.536379,42.000000,0.000000,4530.256348,4488.205078,4488.589844,4868.974121,4442.948730,4468.717773,4438.333496,4377.820313,4472.179688,4448.589844,7547.179688,4745.384766,4635.256348,4791.410156,0.000000,1.000000,17.000000,,,,0.000000,4.000000,4.000000,4.000000,4.000000,4.000000,4.000000,4.000000,4.000000,4.000000,4.000000,4.000000,4.000000,4.000000,4.000000,100.000000,,,,,,,,,,,,,,,,,,,,,,,,,,,,,,,,,,,,,,,,,,,,,,,,,,,,,,,,,,,,2.404586,2.868345,1.785401,1.025213,1.016723,5.757931,4.617571,2.871039,0.848746,1.104389,1.827679,2.605936,1.260128,0.926433,0.787864,2.873849,2.549428,1.349061,0.702470,0.884390,1.331388,1.004579,1.064821,0.632411,0.662367,1.140957,1.397619,0.846640,0.677806,0.696440,1.292528,4.501748,1.290043,0.874401,0.967654,0.369515,0.540883,0.623617,0.367439,0.248741,1.807106,2.737740,2.459371,1.386144,0.789344,2.900675,2.257914,1.757314,1.365692,1.031792,11.583830,4.538907,1.583998,1.641222,0.952362,3.189783,3.897545,2.262851,1.709419,1.246049,2.669125,2.176295,0.477707,1.121632,1.012426,1.707250,2.503914,1.411485,1.278629,0.962744
1739354558.542786,1739354558.544187,43.000000,0.000000,4548.333496,4506.538574,4510.384766,4862.692383,4463.333496,4490.256348,4459.615234,4385.897461,4492.307617,4472.692383,7542.179688,4768.846191,4645.384766,4806.153809,0.000000,1.000000,17.000000,,,,0.000000,4.000000,4.000000,4.000000,4.000000,4.000000,4.000000,4.000000,4.000000,4.000000,4.000000,4.000000,4.000000,4.000000,4.000000,100.000000,,,,,,,,,,,,,,,,,,,,,,,,,,,,,,,,,,,,,,,,,,,,,,,,,,,,,,,,,,,,,,,,,,,,,,,,,,,,,,,,,,,,,,,,,,,,,,,,,,,,,,,,,,,,,,,,,,,,,,,,,,,,,,,,,
1739354558.550594,1739354558.551995,44.000000,0.000000,4560.384766,4512.948730,4518.974121,4837.692383,4466.538574,4488.589844,4463.333496,4386.410156,4493.589844,4476.922852,7496.922852,4780.128418,4641.922852,4811.410156,0.000000,1.000000,17.000000,,,,0.000000,4.000000,4.000000,4.000000,4.000000,4.000000,4.000000,4.000000,4.000000,4.000000,4.000000,4.000000,4.000000,4.000000,4.000000,100.000000,,,,,,,,,,,,,,,,,11.000000,0.000000,0.363573,0.465393,-0.517944,0.618835,0.963985,-0.297400,0.026859,-39.155666,-29.721004,44.252144,,,,,,,,,,,,,,,,,,,,,,,,,,,,,,,,,,,,,,,,,,,,,,,,,,,,,,,,,,,,,,,,,,,,,,,,,,,,,,,,,,,,,,,,,,,,,,,,,,,,,
1739354558.558402,1739354558.559803,45.000000,0.000000,4521.410156,4469.102539,4480.512695,4760.384766,4428.717773,4449.743652,4426.538574,4366.153809,4448.461426,4427.307617,7374.487305,4733.461426,4603.077148,4775.256348,0.000000,1.000000,17.000000,,,,0.000000,4.000000,4.000000,4.000000,4.000000,4.000000,4.000000,4.000000,4.000000,4.000000,4.000000,4.000000,4.000000,4.000000,4.000000,100.000000,,,,,,,,,,,,,,,,,,,,,,,,,,,,,,,,,,,,,,,,,,,,,,,,,,,,,,,,,,,,,,,,,,,,,,,,,,,,,,,,,,,,,,,,,,,,,,,,,,,,,,,,,,,,,,,,,,,,,,,,,,,,,,,,,
1739354558.566210,1739354558.567711,46.000000,0.000000,4502.820313,4445.512695,4462.563965,4705.769043,4413.205078,4435.641113,4413.461426,4362.436035,4435.897461,4410.256348,7237.563965,4718.589844,4588.205078,4764.871582,0.000000,1.000000,17.000000,,,,0.000000,4.000000,4.000000,4.000000,4.000000,4.000000,4.000000,4.000000,4.000000,4.000000,4.000000,4.000000,4.000000,4.000000,4.000000,100.000000,,,,,,,,,,,,,,,,,,,,,,,,,,,,,,,,,,,,,,,,,,,,,,,,,,,,,,,,,,,,,,,,,,,,,,,,,,,,,,,,,,,,,,,,,,,,,,,,,,,,,,,,,,,,,,,,,,,,,,,,,,,,,,,,,
1739354558.574018,1739354558.575519,47.000000,0.000000,4530.769043,4469.358887,4486.794922,4696.922852,4433.589844,4454.487305,4442.179688,4376.922852,4462.563965,4442.692383,7118.205078,4754.230957,4606.922852,4793.846191,0.000000,1.000000,17.000000,,,,0.000000,4.000000,4.000000,4.000000,4.000000,4.000000,4.000000,4.000000,4.000000,4.000000,4.000000,4.000000,4.000000,4.000000,4.000000,100.000000,,,,,,,,,,,,,,,,,,,,,,,,,,,,,,,,,,,,,,,,,,,,,,,,,,,,,,,,,,,,,,,,,,,,,,,,,,,,,,,,,,,,,,,,,,,,,,,,,,,,,,,,,,,,,,,,,,,,,,,,,,,,,,,,,
1739354558.581826,1739354558.583227,48.000000,0.000000,4529.871582,4463.461426,4482.563965,4658.717773,4422.179688,4438.846191,4434.615234,4365.384766,4442.948730,4433.077148,6925.000000,4744.487305,4594.871582,4784.487305,0.000000,1.000000,17.000000,,,,0.000000,4.000000,4.000000,4.000000,4.000000,4.000000,4.000000,4.000000,4.000000,4.000000,4.000000,4.000000,4.000000,4.000000,4.000000,100.000000,,,,,,,,,,,,,,,,,12.000000,0.000000,0.363912,0.464966,-0.517944,0.618958,0.975705,-0.296911,0.020510,-39.173435,-29.748905,44.126930,,,,,,,,,,,,,,,,,,,,,,,,,,,,,,,,,,,,,,,,,,,,,,,,,,,,,,,,,,,,,,,,,,,,,,,,,,,,,,,,,,,,,,,,,,,,,,,,,,,,,
1739354558.589635,1739354558.591035,49.000000,0.000000,4489.102539,4421.410156,4442.307617,4585.641113,4376.410156,4386.153809,4385.641113,4343.205078,4394.102539,4379.487305,6639.615234,4697.948730,4557.692383,4741.538574,0.000000,1.000000,17.000000,,,,0.000000,4.000000,4.000000,4.000000,4.000000,4.000000,4.000000,4.000000,4.000000,4.000000,4.000000,4.000000,4.000000,4.000000,4.000000,100.000000,,,,,,,,,,,,,,,,,,,,,,,,,,,,,,,,,,,,,,,,,,,,,,,,,,,,,,,,,,,,,,,,,,,,,,,,,,,,,,,,,,,,,,,,,,,,,,,,,,,,,,,,,,,,,,,,,,,,,,,,,,,,,,,,,
1739354558.597443,1739354558.598743,50.000000,0.000000,4475.256348,4406.410156,4433.717773,4543.589844,4361.922852,4371.922852,4372.051270,4350.000000,4389.230957,4367.563965,6377.307617,4694.615234,4548.974121,4739.743652,0.000000,1.000000,17.000000,,,,0.000000,4.000000,4.000000,4.000000,4.000000,4.000000,4.000000,4.000000,4.000000,4.000000,4.000000,4.000000,4.000000,4.000000,4.000000,100.000000,,,,,,,,,,,,,,,,,,,,,,,,,,,,,,,,,,,,,,,,,,,,,,,,,,,,,,,,,,,,,,,,,,,,,,,,,,,,,,,,,,,,,,,,,,,,,,,,,,,,,,,,,,,,,,,,,,,,,,,,,,,,,,,,,
1739354558.605251,1739354558.606551,51.000000,0.000000,4500.256348,4417.820313,4460.128418,4543.205078,4380.641113,4392.820313,4394.871582,4367.436035,4419.743652,4402.051270,6179.358887,4729.487305,4566.282227,4772.563965,0.000000,1.000000,17.000000,,,,0.000000,4.000000,4.000000,4.000000,4.000000,4.000000,4.000000,4.000000,4.000000,4.000000,4.000000,4.000000,4.000000,4.000000,4.000000,100.000000,,,,,,,,,,,,,,,,,,,,,,,,,,,,,,,,,,,,,,,,,,,,,,,,,,,,,,,,,,,,,,,,,,,,,,,,,,,,,,,,,,,,,,,,,,,,,,,,,,,,,,,,,,,,,,,,,,,,,,,,,,,,,,,,,
1739354558.613059,1739354558.614259,52.000000,0.000000,4508.205078,4418.077148,4459.102539,4531.922852,4376.025879,4381.025879,4389.487305,4364.230957,4420.897461,4403.589844,5962.563965,4735.256348,4561.025879,4775.000000,0.000000,1.000000,17.000000,,,,0.000000,4.000000,4.000000,4.000000,4.000000,4.000000,4.000000,4.000000,4.000000,4.000000,4.000000,4.000000,4.000000,4.000000,4.000000,100.000000,,,,,,,,,,,,,,,,,13.000000,0.000000,0.364179,0.464417,-0.518250,0.618958,0.941033,-0.306678,0.032230,-39.122757,-29.807346,44.130901,,,,,,,,,,,,,,,,,,,,,,,,,,,,,,,,,,,,,,,,,,,,,,,,,,,,,,,,,,,,,,,,,,,,,,,,,,,,,,,,,,,,,,,,,,,,,,,,,,,,,
1739354558.620867,1739354558.622067,53.000000,0.000000,4473.333496,4398.205078,4421.410156,4482.820313,4345.000000,4342.436035,4350.000000,4345.769043,4378.205078,4358.333496,5705.769043,4690.512695,4525.641113,4735.256348,0.000000,1.000000,17.000000,,,,0.000000,4.000000,4.000000,4.000000,4.000000,4.000000,4.000000,4.000000,4.000000,4.000000,4.000000,4.000000,4.000000,4.000000,4.000000,100.000000,,,,,,,,,,,,,,,,,,,,,,,,,,,,,,,,,,,,,,,,,,,,,,,,,,,,,,,,,,,,,,,,,,,,,,,,,,,,,,,,,,,,,,,,,,,,,,,,,,,,,,,,,,,,,,,,,,,,,,,,,,,,,,,,,
1739354558.628675,1739354558.629775,54.000000,0.000000,4467.563965,4400.128418,4419.743652,4467.563965,4349.487305,4351.282227,4350.641113,4342.948730,4369.871582,4356.538574,5511.794922,4674.358887,4525.641113,4727.563965,0.000000,1.000000,17.000000,,,,0.000000,4.000000,4.000000,4.000000,4.000000,4.000000,4.000000,4.000000,4.000000,4.000000,4.000000,4.000000,4.000000,4.000000,4.000000,100.000000,,,,,,,,,,,,,,,,,,,,,,,,,,,,,,,,,,,,,,,,,,,,,,,,,,,,,,,,,,,,,,,,,,,,,,,,,,,,,,,,,,,,,,,,,,,,,,,,,,,,,,,,,,,,,,,,,,,,,,,,,,,,,,,,,
1739354558.636483,1739354558.637583,55.000000,0.000000,4500.000000,4422.820313,4448.846191,4495.256348,4380.384766,4391.538574,4391.410156,4352.436035,4404.871582,4398.589844,5387.307617,4707.179688,4551.922852,4758.461426,0.000000,1.000000,17.000000,,,,0.000000,4.000000,4.000000,4.000000,4.000000,4.000000,4.000000,4.000000,4.000000,4.000000,4.000000,4.000000,4.000000,4.000000,4.000000,100.000000,,,,,,,,,,,,,,,,,,,,,,,,,,,,,,,,,,,,,,,,,,,,,,,,,,,,,,,,,,,,,,,,,,,,,,,,,,,,,,,,,,,,,,,,,,,,,,,,,,,,,,,,,,,,,,,,,,,,,,,,,,,,,,,,,
1739354558.644291,1739354558.645291,56.000000,0.000000,4479.487305,4400.641113,4431.282227,4471.025879,4365.512695,4381.794922,4386.153809,4346.153809,4386.666504,4377.179688,5232.051270,4690.000000,4527.563965,4741.538574,0.000000,1.000000,17.000000,,,,0.000000,4.000000,4.000000,4.000000,4.000000,4.000000,4.000000,4.000000,4.000000,4.000000,4.000000,4.000000,4.000000,4.000000,4.000000,100.000000,,,,,,,,,,,,,,,,,14.000000,0.000000,0.364776,0.464233,-0.518066,0.618896,0.967403,-0.310585,0.019045,-39.060482,-29.826612,44.101147,,,,,,,,,,,,,,,,,,,,,,,,,,,,,,,,,,,,,,,,,,,,,,,,,,,,,,,,,,,,,,,,,,,,,,,,,,,,,,,,,,,,,,,,,,,,,,,,,,,,,
1739354558.652099,1739354558.653099,57.000000,0.000000,4440.897461,4366.794922,4404.743652,4426.153809,4336.025879,4360.512695,4362.948730,4342.692383,4346.666504,4334.871582,5075.000000,4647.948730,4498.205078,4711.025879,0.000000,1.000000,17.000000,,,,0.000000,4.000000,4.000000,4.000000,4.000000,4.000000,4.000000,4.000000,4.000000,4.000000,4.000000,4.000000,4.000000,4.000000,4.000000,100.000000,,,,,,,,,,,,,,,,,,,,,,,,,,,,,,,,,,,,,,,,,,,,,,,,,,,,,,,,,,,,,,,,,,,,,,,,,,,,,,,,,,,,,,,,,,,,,,,,,,,,,,,,,,,,,,,,,,,,,,,,,,,,,,,,,
1739354558.659907,1739354558.660807,58.000000,0.000000,4457.307617,4383.333496,4420.897461,4435.641113,4351.794922,4379.487305,4379.615234,4359.230957,4364.871582,4359.743652,4985.384766,4666.794922,4522.692383,4732.307617,0.000000,1.000000,17.000000,,,,0.000000,4.000000,4.000000,4.000000,4.000000,4.000000,4.000000,4.000000,4.000000,4.000000,4.000000,4.000000,4.000000,4.000000,4.000000,100.000000,,,,,,,,,,,,,,,,,,,,,,,,,,,,,,,,,,,,,,,,,,,,,,,,,,,,,,,,,,,,2.146710,3.116045,1.774502,0.974049,1.061026,5.400742,4.670558,2.716285,0.866250,1.142872,1.587787,3.039387,1.277031,0.898260,0.804138,3.662772,2.960172,1.442263,0.727132,0.875798,1.191599,1.162845,1.112996,0.614755,0.680355,1.064030,1.597289,0.922130,0.640925,0.732431,1.099600,4.866400,1.336107,0.848313,1.032833,0.572321,0.709578,0.728922,0.468007,0.322812,1.689275,2.938266,2.165979,1.307178,0.894133,2.869485,2.304405,1.702910,1.283328,1.119280,85.735870,13.481491,2.395375,1.509520,1.046448,2.718553,4.286704,2.321002,1.658470,1.327698,2.569591,2.126785,0.529344,1.023172,1.057645,1.666845,2.653537,1.407140,1.196276,1.013914
1739354558.667715,1739354558.668615,59.000000,0.000000,4480.769043,4409.871582,4437.948730,4451.922852,4377.948730,4395.384766,4397.820313,4372.820313,4390.512695,4391.410156,4928.717773,4698.717773,4546.025879,4754.358887,0.000000,1.000000,17.000000,,,,0.000000,4.000000,4.000000,4.000000,4.000000,4.000000,4.000000,4.000000,4.000000,4.000000,4.000000,4.000000,4.000000,4.000000,4.000000,100.000000,,,,,,,,,,,,,,,,,,,,,,,,,,,,,,,,,,,,,,,,,,,,,,,,,,,,,,,,,,,,,,,,,,,,,,,,,,,,,,,,,,,,,,,,,,,,,,,,,,,,,,,,,,,,,,,,,,,,,,,,,,,,,,,,,
1739354558.675523,1739354558.676323,60.000000,0.000000,4457.307617,4391.794922,4419.743652,4421.666504,4363.077148,4375.128418,4376.794922,4364.743652,4368.205078,4363.077148,4848.846191,4676.025879,4520.256348,4732.563965,0.000000,1.000000,17.000000,,,,0.000000,4.000000,4.000000,4.000000,4.000000,4.000000,4.000000,4.000000,4.000000,4.000000,4.000000,4.000000,4.000000,4.000000,4.000000,100.000000,,,,,,,,,,,,,,,,,15.000000,0.000000,0.365296,0.464478,-0.517700,0.618713,0.957148,-0.272983,0.037602,-39.021099,-29.827284,44.191032,,,,,,,,,,,,,,,,,,,,,,,,,,,,,,,,,,,,,,,,,,,,,,,,,,,,,,,,,,,,,,,,,,,,,,,,,,,,,,,,,,,,,,,,,,,,,,,,,,,,,
1739354558.683331,1739354558.684131,61.000000,0.000000,4444.487305,4381.025879,4411.922852,4404.230957,4347.307617,4365.256348,4360.000000,4359.230957,4351.153809,4341.153809,4776.666504,4660.000000,4508.589844,4726.538574,0.000000,1.000000,17.000000,,,,0.000000,4.000000,4.000000,4.000000,4.000000,4.000000,4.000000,4.000000,4.000000,4.000000,4.000000,4.000000,4.000000,4.000000,4.000000,100.000000,,,,,,,,,,,,,,,,,,,,,,,,,,,,,,,,,,,,,,,,,,,,,,,,,,,,,,,,,,,,,,,,,,,,,,,,,,,,,,,,,,,,,,,,,,,,,,,,,,,,,,,,,,,,,,,,,,,,,,,,,,,,,,,,,
1739354558.691140,1739354558.691840,62.000000,0.000000,4453.461426,4392.307617,4418.589844,4418.077148,4349.230957,4367.563965,4356.153809,4360.897461,4353.077148,4348.205078,4731.410156,4667.051270,4520.256348,4736.153809,0.000000,1.000000,17.000000,,,,0.000000,4.000000,4.000000,4.000000,4.000000,4.000000,4.000000,4.000000,4.000000,4.000000,4.000000,4.000000,4.000000,4.000000,4.000000,100.000000,,,,,,,,,,,,,,,,,,,,,,,,,,,,,,,,,,,,,,,,,,,,,,,,,,,,,,,,,,,,,,,,,,,,,,,,,,,,,,,,,,,,,,,,,,,,,,,,,,,,,,,,,,,,,,,,,,,,,,,,,,,,,,,,,
1739354558.698948,1739354558.699748,63.000000,0.000000,4437.563965,4372.179688,4405.769043,4410.512695,4325.384766,4345.897461,4335.512695,4352.820313,4332.692383,4328.077148,4677.307617,4644.102539,4502.820313,4711.666504,0.000000,1.000000,17.000000,,,,0.000000,4.000000,4.000000,4.000000,4.000000,4.000000,4.000000,4.000000,4.000000,4.000000,4.000000,4.000000,4.000000,4.000000,4.000000,100.000000,,,,,,,,,,,,,,,,,,,,,,,,,,,,,,,,,,,,,,,,,,,,,,,,,,,,,,,,,,,,,,,,,,,,,,,,,,,,,,,,,,,,,,,,,,,,,,,,,,,,,,,,,,,,,,,,,,,,,,,,,,,,,,,,,
1739354558.706756,1739354558.707556,64.000000,0.000000,4432.179688,4359.102539,4410.641113,4396.538574,4308.205078,4341.282227,4329.487305,4353.589844,4326.025879,4314.615234,4638.974121,4635.897461,4491.666504,4701.153809,5135.000000,1.000000,17.000000,,,,0.000000,4.000000,4.000000,4.000000,4.000000,4.000000,4.000000,4.000000,4.000000,4.000000,4.000000,4.000000,4.000000,4.000000,4.000000,100.000000,,,,,,,,,,,,,,,,,16.000000,0.000000,0.364718,0.464661,-0.517578,0.619019,0.964962,-0.297400,0.045416,-38.902325,-29.961224,43.938595,,,,,,,,,,,,,,,,,,,,,,,,,,,,,,,,,,,,,,,,,,,,,,,,,,,,,,,,,,,,,,,,,,,,,,,,,,,,,,,,,,,,,,,,,,,,,,,,,,,,,
1739354558.714564,1739354558.715464,65.000000,0.000000,4448.717773,4382.307617,4428.333496,4397.307617,4328.717773,4358.589844,4334.871582,4362.051270,4344.358887,4334.871582,4635.641113,4656.282227,4510.000000,4718.974121,5531.000000,1.000000,17.000000,,,,0.000000,4.000000,4.000000,4.000000,4.000000,4.000000,4.000000,4.000000,4.000000,4.000000,4.000000,4.000000,4.000000,4.000000,4.000000,100.000000,,,,,,,,,,,,,,,,,,,,,,,,,,,,,,,,,,,,,,,,,,,,,,,,,,,,,,,,,,,,,,,,,,,,,,,,,,,,,,,,,,,,,,,,,,,,,,,,,,,,,,,,,,,,,,,,,,,,,,,,,,,,,,,,,
1739354558.722372,1739354558.723272,66.000000,0.000000,4440.000000,4383.205078,4414.615234,4395.000000,4334.487305,4349.358887,4322.179688,4354.615234,4335.512695,4332.820313,4624.743652,4645.256348,4511.025879,4710.256348,5519.000000,1.000000,17.000000,,,,0.000000,4.000000,4.000000,4.000000,4.000000,4.000000,4.000000,4.000000,4.000000,4.000000,4.000000,4.000000,4.000000,4.000000,4.000000,100.000000,,,,,,,,,,,,,,,,,,,,,,,,,,,,,,,,,,,,,,,,,,,,,,,,,,,,,,,,,,,,,,,,,,,,,,,,,,,,,,,,,,,,,,,,,,,,,,,,,,,,,,,,,,,,,,,,,,,,,,,,,,,,,,,,,
1739354558.730180,1739354558.731180,67.000000,0.000000,4415.256348,4354.102539,4392.563965,4390.897461,4312.051270,4332.307617,4310.128418,4343.205078,4313.717773,4309.615234,4605.000000,4618.589844,4492.436035,4686.410156,5435.000000,1.000000,17.000000,,,,0.000000,4.000000,4.000000,4.000000,4.000000,4.000000,4.000000,4.000000,4.000000,4.000000,4.000000,4.000000,4.000000,4.000000,4.000000,100.000000,,,,,,,,,,,,,,,,,,,,,,,,,,,,,,,,,,,,,,,,,,,,,,,,,,,,,,,,,,,,,,,,,,,,,,,,,,,,,,,,,,,,,,,,,,,,,,,,,,,,,,,,,,,,,,,,,,,,,,,,,,,,,,,,,
1739354558.737988,1739354558.738988,68.000000,0.000000,4388.974121,4327.563965,4376.538574,4383.589844,4289.743652,4323.077148,4296.410156,4334.358887,4291.538574,4282.179688,4583.846191,4595.641113,4471.794922,4663.589844,5414.000000,1.000000,17.000000,,,,0.000000,4.000000,4.000000,4.000000,4.000000,4.000000,4.000000,4.000000,4.000000,4.000000,4.000000,4.000000,4.000000,4.000000,4.000000,100.000000,,,,,,,,,,,,,,,,,17.000000,0.000000,0.364217,0.464661,-0.517639,0.619263,0.955683,-0.298865,0.023440,-38.978756,-29.798433,43.928070,,,,,,,,,,,,,,,,,,,,,,,,,,,,,,,,,,,,,,,,,,,,,,,,,,,,,,,,,,,,,,,,,,,,,,,,,,,,,,,,,,,,,,,,,,,,,,,,,,,,,
1739354558.745796,1739354558.746896,69.000000,0.000000,4363.333496,4311.922852,4359.615234,4383.205078,4274.230957,4313.333496,4282.692383,4330.641113,4267.948730,4253.077148,4568.974121,4570.384766,4457.820313,4643.717773,5442.000000,1.000000,17.000000,,,,0.000000,4.000000,4.000000,4.000000,4.000000,4.000000,4.000000,4.000000,4.000000,4.000000,4.000000,4.000000,4.000000,4.000000,4.000000,100.000000,,,,,,,,,,,,,,,,,,,,,,,,,,,,,,,,,,,,,,,,,,,,,,,,,,,,,,,,,,,,,,,,,,,,,,,,,,,,,,,,,,,,,,,,,,,,,,,,,,,,,,,,,,,,,,,,,,,,,,,,,,,,,,,,,
1739354558.753604,1739354558.754704,70.000000,0.000000,4355.897461,4309.358887,4359.487305,4398.974121,4273.077148,4315.384766,4288.077148,4331.410156,4267.051270,4243.333496,4569.743652,4561.410156,4461.282227,4642.179688,5407.000000,1.000000,17.000000,,,,0.000000,4.000000,4.000000,4.000000,4.000000,4.000000,4.000000,4.000000,4.000000,4.000000,4.000000,4.000000,4.000000,4.000000,4.000000,100.000000,,,,,,,,,,,,,,,,,,,,,,,,,,,,,,,,,,,,,,,,,,,,,,,,,,,,,,,,,,,,,,,,,,,,,,,,,,,,,,,,,,,,,,,,,,,,,,,,,,,,,,,,,,,,,,,,,,,,,,,,,,,,,,,,,
1739354558.761412,1739354558.762412,71.000000,0.000000,4363.846191,4318.333496,4371.025879,4409.615234,4288.077148,4329.358887,4299.102539,4329.230957,4276.282227,4252.948730,4570.256348,4570.128418,4469.487305,4648.589844,2623.000000,1.000000,17.000000,,,,0.000000,4.000000,4.000000,4.000000,4.000000,4.000000,4.000000,4.000000,4.000000,4.000000,4.000000,4.000000,4.000000,4.000000,4.000000,100.000000,,,,,,,,,,,,,,,,,,,,,,,,,,,,,,,,,,,,,,,,,,,,,,,,,,,,,,,,,,,,,,,,,,,,,,,,,,,,,,,,,,,,,,,,,,,,,,,,,,,,,,,,,,,,,,,,,,,,,,,,,,,,,,,,,
1739354558.769220,1739354558.770220,72.000000,0.000000,4342.820313,4300.128418,4351.282227,4381.666504,4271.410156,4311.794922,4277.436035,4319.358887,4251.666504,4232.307617,4532.563965,4544.230957,4444.230957,4624.487305,5225.000000,1.000000,17.000000,,,,0.000000,4.000000,4.000000,4.000000,4.000000,4.000000,4.000000,4.000000,4.000000,4.000000,4.000000,4.000000,4.000000,4.000000,4.000000,100.000000,,,,,,,,,,,,,,,,,18.000000,0.000000,0.363646,0.464905,-0.517456,0.619568,0.962031,-0.297400,0.027347,-38.997547,-29.685257,43.868595,,,,,,,,,,,,,,,,,,,,,,,,,,,,,,,,,,,,,,,,,,,,,,,,,,,,,,,,,,,,,,,,,,,,,,,,,,,,,,,,,,,,,,,,,,,,,,,,,,,,,
1739354558.777028,1739354558.777928,73.000000,0.000000,4310.512695,4266.922852,4324.871582,4345.000000,4236.025879,4282.563965,4247.692383,4312.948730,4223.077148,4197.051270,4488.974121,4505.000000,4411.153809,4595.384766,5589.000000,1.000000,17.000000,,,,0.000000,4.000000,4.000000,4.000000,4.000000,4.000000,4.000000,4.000000,4.000000,4.000000,4.000000,4.000000,4.000000,4.000000,4.000000,100.000000,,,,,,,,,,,,,,,,,,,,,,,,,,,,,,,,,,,,,,,,,,,,,,,,,,,,,,,,,,,,,,,,,,,,,,,,,,,,,,,,,,,,,,,,,,,,,,,,,,,,,,,,,,,,,,,,,,,,,,,,,,,,,,,,,
1739354558.784836,1739354558.785736,74.000000,0.000000,4309.487305,4268.333496,4329.358887,4339.871582,4235.769043,4284.871582,4246.410156,4316.025879,4231.666504,4198.974121,4487.820313,4508.974121,4412.436035,4600.128418,5030.000000,1.000000,17.000000,,,,0.000000,4.000000,4.000000,4.000000,4.000000,4.000000,4.000000,4.000000,4.000000,4.000000,4.000000,4.000000,4.000000,4.000000,4.000000,100.000000,1.000000,8.333333,1.000000,1.000000,1.000000,0.000000,1.000000,1.000000,1.000000,4.000000,1.000000,1.000000,0.000000,1.000000,1.000000,1.000000,,,,,,,,,,,,,,,,,,,,,,,,,,,,,,,,,,,,,,,,,,,,2.137347,3.313579,1.624642,0.968914,1.156022,4.806320,4.506921,2.271678,0.950119,1.176825,1.460749,3.444596,1.206522,0.910975,0.871296,6.302662,3.365390,1.554517,0.856471,0.893505,1.294941,1.414954,1.058613,0.631078,0.736795,1.217591,1.895065,0.930115,0.595223,0.798506,1.209386,5.187597,1.386258,0.862658,1.130724,0.861265,0.923038,0.831723,0.609919,0.413829,2.028183,3.088857,1.755785,1.179064,1.065012,3.323326,2.422107,1.540714,1.184898,1.316005,327.879669,49.459335,4.659935,1.334034,1.201366,2.459083,4.488446,2.248494,1.659615,1.478255,2.831248,2.123979,0.625355,0.947706,1.145376,1.844858,2.648683,1.352162,1.146149,1.110077
1739354558.792645,1739354558.793444,75.000000,0.000000,4312.820313,4277.307617,4335.512695,4333.333496,4242.820313,4291.538574,4248.077148,4318.461426,4240.000000,4211.025879,4483.717773,4516.538574,4418.077148,4607.179688,5464.000000,1.000000,17.000000,,,,0.000000,4.000000,4.000000,4.000000,4.000000,4.000000,4.000000,4.000000,4.000000,4.000000,4.000000,4.000000,4.000000,4.000000,4.000000,100.000000,,,,,,,,,,,,,,,,,,,,,,,,,,,,,,,,,,,,,,,,,,,,,,,,,,,,,,,,,,,,,,,,,,,,,,,,,,,,,,,,,,,,,,,,,,,,,,,,,,,,,,,,,,,,,,,,,,,,,,,,,,,,,,,,,
1739354558.800453,1739354558.801252,76.000000,0.000000,4302.820313,4268.717773,4329.871582,4307.948730,4234.615234,4285.384766,4240.897461,4320.384766,4234.102539,4212.179688,4464.230957,4507.307617,4415.384766,4602.051270,4649.000000,1.000000,17.000000,,,,0.000000,4.000000,4.000000,4.000000,4.000000,4.000000,4.000000,4.000000,4.000000,4.000000,4.000000,4.000000,4.000000,4.000000,4.000000,100.000000,,,,,,,,,,,,,,,,,19.000000,0.000000,0.363013,0.465210,-0.517334,0.619812,0.960078,-0.286168,0.044439,-39.014462,-29.616732,43.848404,,,,,,,,,,,,,,,,,,,,,,,,,,,,,,,,,,,,,,,,,,,,,,,,,,,,,,,,,,,,,,,,,,,,,,,,,,,,,,,,,,,,,,,,,,,,,,,,,,,,,
1739354558.808261,1739354558.808960,77.000000,0.000000,4282.692383,4249.230957,4314.871582,4279.230957,4220.256348,4267.179688,4219.358887,4310.384766,4220.384766,4197.436035,4445.384766,4487.179688,4404.102539,4584.615234,6613.000000,1.000000,17.000000,,,,0.000000,4.000000,4.000000,4.000000,4.000000,4.000000,4.000000,4.000000,4.000000,4.000000,4.000000,4.000000,4.000000,4.000000,4.000000,100.000000,,,,,,,,,,,,,,,,,,,,,,,,,,,,,,,,,,,,,,,,,,,,,,,,,,,,,,,,,,,,,,,,,,,,,,,,,,,,,,,,,,,,,,,,,,,,,,,,,,,,,,,,,,,,,,,,,,,,,,,,,,,,,,,,,
1739354558.816069,1739354558.816768,78.000000,0.000000,4261.153809,4232.948730,4301.153809,4262.948730,4205.256348,4249.358887,4200.128418,4297.436035,4203.846191,4174.102539,4432.436035,4463.974121,4388.974121,4565.000000,5030.000000,1.000000,17.000000,,,,0.000000,4.000000,4.000000,4.000000,4.000000,4.000000,4.000000,4.000000,4.000000,4.000000,4.000000,4.000000,4.000000,4.000000,4.000000,100.000000,,,,,,,,,,,,,,,,,,,,,,,,,,,,,,,,,,,,,,,,,,,,,,,,,,,,,,,,,,,,,,,,,,,,,,,,,,,,,,,,,,,,,,,,,,,,,,,,,,,,,,,,,,,,,,,,,,,,,,,,,,,,,,,,,
