title:Yousef Rihani1739356737262, start timestamp:1739356738.527877, stop timestamp:1739356800.219527, headset type:EPOCX, headset serial:E50208A5, headset firmware:720, channels:168, sampling rate:eeg_128;mot_32;pm_0.1;pow_8, samples:7902      , version:2.2, 
Timestamp,OriginalTimestamp,EEG.Counter,EEG.Interpolated,EEG.AF3,EEG.F7,EEG.F3,EEG.FC5,EEG.T7,EEG.P7,EEG.O1,EEG.O2,EEG.P8,EEG.T8,EEG.FC6,EEG.F4,EEG.F8,EEG.AF4,EEG.RawCq,EEG.Battery,EEG.BatteryPercent,MarkerIndex,MarkerType,MarkerValueInt,EEG.MarkerHardware,CQ.AF3,CQ.F7,CQ.F3,CQ.FC5,CQ.T7,CQ.P7,CQ.O1,CQ.O2,CQ.P8,CQ.T8,CQ.FC6,CQ.F4,CQ.F8,CQ.AF4,CQ.Overall,EQ.SampleRateQuality,EQ.OVERALL,EQ.AF3,EQ.F7,EQ.F3,EQ.FC5,EQ.T7,EQ.P7,EQ.O1,EQ.O2,EQ.P8,EQ.T8,EQ.FC6,EQ.F4,EQ.F8,EQ.AF4,MOT.CounterMems,MOT.InterpolatedMems,MOT.Q0,MOT.Q1,MOT.Q2,MOT.Q3,MOT.AccX,MOT.AccY,MOT.AccZ,MOT.MagX,MOT.MagY,MOT.MagZ,PM.Attention.IsActive,PM.Attention.Scaled,PM.Attention.Raw,PM.Attention.Min,PM.Attention.Max,PM.Engagement.IsActive,PM.Engagement.Scaled,PM.Engagement.Raw,PM.Engagement.Min,PM.Engagement.Max,PM.Excitement.IsActive,PM.Excitement.Scaled,PM.Excitement.Raw,PM.Excitement.Min,PM.Excitement.Max,PM.LongTermExcitement,PM.Stress.IsActive,PM.Stress.Scaled,PM.Stress.Raw,PM.Stress.Min,PM.Stress.Max,PM.Relaxation.IsActive,PM.Relaxation.Scaled,PM.Relaxation.Raw,PM.Relaxation.Min,PM.Relaxation.Max,PM.Interest.IsActive,PM.Interest.Scaled,PM.Interest.Raw,PM.Interest.Min,PM.Interest.Max,POW.AF3.Theta,POW.AF3.Alpha,POW.AF3.BetaL,POW.AF3.BetaH,POW.AF3.Gamma,POW.F7.Theta,POW.F7.Alpha,POW.F7.BetaL,POW.F7.BetaH,POW.F7.Gamma,POW.F3.Theta,POW.F3.Alpha,POW.F3.BetaL,POW.F3.BetaH,POW.F3.Gamma,POW.FC5.Theta,POW.FC5.Alpha,POW.FC5.BetaL,POW.FC5.BetaH,POW.FC5.Gamma,POW.T7.Theta,POW.T7.Alpha,POW.T7.BetaL,POW.T7.BetaH,POW.T7.Gamma,POW.P7.Theta,POW.P7.Alpha,POW.P7.BetaL,POW.P7.BetaH,POW.P7.Gamma,POW.O1.Theta,POW.O1.Alpha,POW.O1.BetaL,POW.O1.BetaH,POW.O1.Gamma,POW.O2.Theta,POW.O2.Alpha,POW.O2.BetaL,POW.O2.BetaH,POW.O2.Gamma,POW.P8.Theta,POW.P8.Alpha,POW.P8.BetaL,POW.P8.BetaH,POW.P8.Gamma,POW.T8.Theta,POW.T8.Alpha,POW.T8.BetaL,POW.T8.BetaH,POW.T8.Gamma,POW.FC6.Theta,POW.FC6.Alpha,POW.FC6.BetaL,POW.FC6.BetaH,POW.FC6.Gamma,POW.F4.Theta,POW.F4.Alpha,POW.F4.BetaL,POW.F4.BetaH,POW.F4.Gamma,POW.F8.Theta,POW.F8.Alpha,POW.F8.BetaL,POW.F8.BetaH,POW.F8.Gamma,POW.AF4.Theta,POW.AF4.Alpha,POW.AF4.BetaL,POW.AF4.BetaH,POW.AF4.Gamma
1739356738.527877,1739356738.528544,71.000000,0.000000,4277.179688,4249.743652,4311.282227,4293.589844,4235.256348,4224.487305,4213.461426,4286.025879,4230.897461,4230.897461,4591.282227,4508.077148,4420.384766,4501.538574,2065.000000,0.000000,10.000000,,,,0.000000,4.000000,4.000000,4.000000,4.000000,4.000000,4.000000,4.000000,4.000000,4.000000,4.000000,4.000000,4.000000,4.000000,4.000000,100.000000,,,,,,,,,,,,,,,,,,,,,,,,,,,,,,,,,,,,,,,,,,,,,,,,,,,,,,,,,,,,,,,,,,,,,,,,,,,,,,,,,,,,,,,,,,,,,,,,,,,,,,,,,,,,,,,,,,,,,,,,,,,,,,,,,
1739356738.535685,1739356738.536252,72.000000,0.000000,4279.871582,4252.179688,4315.384766,4298.333496,4239.743652,4230.641113,4223.333496,4286.666504,4234.871582,4235.769043,4589.358887,4508.717773,4419.487305,4504.871582,5280.000000,0.000000,10.000000,,,,0.000000,4.000000,4.000000,4.000000,4.000000,4.000000,4.000000,4.000000,4.000000,4.000000,4.000000,4.000000,4.000000,4.000000,4.000000,100.000000,1.000000,75.000000,4.000000,4.000000,3.000000,4.000000,4.000000,3.000000,3.000000,3.000000,4.000000,3.000000,4.000000,3.000000,4.000000,3.000000,18.000000,0.000000,0.685114,0.068481,-0.698669,0.194397,0.984495,-0.177756,0.019534,-43.398819,-33.012100,41.565601,,,,,,,,,,,,,,,,,,,,,,,,,,,,,,,,0.880817,2.328995,0.804207,1.674520,1.113424,0.580488,2.058890,0.582883,1.397120,1.205293,0.482487,2.254666,0.682776,1.119736,0.998267,0.321052,3.084269,0.615836,1.554111,1.191502,0.393848,1.011827,0.455355,1.147168,0.916840,0.474437,0.291938,0.396868,1.003994,1.011030,0.396436,0.600715,0.593310,1.066067,1.302642,0.051413,0.358235,0.106358,0.158462,0.224112,0.499502,2.105340,0.568172,1.439448,1.050637,0.693464,2.007456,1.073936,1.699980,1.231109,2.458484,3.760142,1.288258,1.412378,1.329487,1.465553,3.751585,1.710056,2.138102,1.529715,0.679584,0.949152,0.712973,0.963615,0.815581,0.512026,1.798189,0.620888,1.435989,1.160404
1739356738.543493,1739356738.544160,73.000000,0.000000,4263.846191,4242.692383,4303.589844,4284.615234,4234.743652,4230.897461,4219.102539,4280.128418,4221.922852,4223.974121,4575.512695,4493.846191,4404.871582,4490.384766,5617.000000,0.000000,10.000000,,,,0.000000,4.000000,4.000000,4.000000,4.000000,4.000000,4.000000,4.000000,4.000000,4.000000,4.000000,4.000000,4.000000,4.000000,4.000000,100.000000,,,,,,,,,,,,,,,,,,,,,,,,,,,,,,,,,,,,,,,,,,,,,,,,,,,,,,,,,,,,,,,,,,,,,,,,,,,,,,,,,,,,,,,,,,,,,,,,,,,,,,,,,,,,,,,,,,,,,,,,,,,,,,,,,
1739356738.551301,1739356738.551968,74.000000,0.000000,4242.820313,4220.897461,4283.846191,4264.743652,4216.666504,4216.410156,4205.256348,4274.487305,4203.461426,4199.871582,4552.051270,4472.563965,4387.436035,4471.025879,4824.000000,0.000000,10.000000,,,,0.000000,4.000000,4.000000,4.000000,4.000000,4.000000,4.000000,4.000000,4.000000,4.000000,4.000000,4.000000,4.000000,4.000000,4.000000,100.000000,,,,,,,,,,,,,,,,,,,,,,,,,,,,,,,,,,,,,,,,,,,,,,,,,,,,,,,,,,,,,,,,,,,,,,,,,,,,,,,,,,,,,,,,,,,,,,,,,,,,,,,,,,,,,,,,,,,,,,,,,,,,,,,,,
1739356738.559109,1739356738.559876,75.000000,0.000000,4257.948730,4228.974121,4297.307617,4280.000000,4220.256348,4216.282227,4213.974121,4283.461426,4216.666504,4212.692383,4562.820313,4486.922852,4402.948730,4487.307617,5629.000000,0.000000,10.000000,,,,0.000000,4.000000,4.000000,4.000000,4.000000,4.000000,4.000000,4.000000,4.000000,4.000000,4.000000,4.000000,4.000000,4.000000,4.000000,100.000000,,,,,,,,,,,,,,,,,,,,,,,,,,,,,,,,,,,,,,,,,,,,,,,,,,,,,,,,,,,,,,,,,,,,,,,,,,,,,,,,,,,,,,,,,,,,,,,,,,,,,,,,,,,,,,,,,,,,,,,,,,,,,,,,,
1739356738.566917,1739356738.567685,76.000000,0.000000,4285.769043,4255.769043,4323.974121,4307.692383,4244.358887,4236.153809,4239.743652,4295.128418,4244.358887,4241.794922,4590.769043,4517.563965,4430.256348,4517.948730,5672.000000,0.000000,10.000000,,,,0.000000,4.000000,4.000000,4.000000,4.000000,4.000000,4.000000,4.000000,4.000000,4.000000,4.000000,4.000000,4.000000,4.000000,4.000000,100.000000,,,,,,,,,,,,,,,,,19.000000,0.000000,0.685220,0.068909,-0.698608,0.194092,0.987425,-0.169943,0.020022,-43.325603,-33.027557,41.525707,,,,,,,,,,,,,,,,,,,,,,,,,,,,,,,,,,,,,,,,,,,,,,,,,,,,,,,,,,,,,,,,,,,,,,,,,,,,,,,,,,,,,,,,,,,,,,,,,,,,,
1739356738.574726,1739356738.575593,77.000000,0.000000,4277.948730,4248.077148,4315.384766,4298.846191,4243.461426,4237.307617,4237.948730,4288.974121,4239.102539,4227.948730,4584.871582,4511.153809,4419.871582,4511.410156,6494.000000,0.000000,10.000000,,,,0.000000,4.000000,4.000000,4.000000,4.000000,4.000000,4.000000,4.000000,4.000000,4.000000,4.000000,4.000000,4.000000,4.000000,4.000000,100.000000,,,,,,,,,,,,,,,,,,,,,,,,,,,,,,,,,,,,,,,,,,,,,,,,,,,,,,,,,,,,,,,,,,,,,,,,,,,,,,,,,,,,,,,,,,,,,,,,,,,,,,,,,,,,,,,,,,,,,,,,,,,,,,,,,
1739356738.582533,1739356738.583401,78.000000,0.000000,4266.794922,4230.897461,4298.461426,4281.025879,4227.692383,4225.000000,4221.025879,4279.743652,4218.333496,4205.897461,4570.897461,4493.846191,4402.820313,4492.563965,4824.000000,0.000000,10.000000,,,,0.000000,4.000000,4.000000,4.000000,4.000000,4.000000,4.000000,4.000000,4.000000,4.000000,4.000000,4.000000,4.000000,4.000000,4.000000,100.000000,,,,,,,,,,,,,,,,,,,,,,,,,,,,,,,,,,,,,,,,,,,,,,,,,,,,,,,,,,,,,,,,,,,,,,,,,,,,,,,,,,,,,,,,,,,,,,,,,,,,,,,,,,,,,,,,,,,,,,,,,,,,,,,,,
1739356738.590342,1739356738.591309,79.000000,0.000000,4281.922852,4247.436035,4311.410156,4294.743652,4237.051270,4233.205078,4229.230957,4284.615234,4222.563965,4222.051270,4586.538574,4505.512695,4418.205078,4501.282227,5629.000000,0.000000,10.000000,,,,0.000000,4.000000,4.000000,4.000000,4.000000,4.000000,4.000000,4.000000,4.000000,4.000000,4.000000,4.000000,4.000000,4.000000,4.000000,100.000000,,,,,,,,,,,,,,,,,,,,,,,,,,,,,,,,,,,,,,,,,,,,,,,,,,,,,,,,,,,,,,,,,,,,,,,,,,,,,,,,,,,,,,,,,,,,,,,,,,,,,,,,,,,,,,,,,,,,,,,,,,,,,,,,,
1739356738.598150,1739356738.599117,80.000000,0.000000,4277.563965,4252.948730,4310.769043,4299.358887,4240.769043,4234.358887,4231.794922,4284.743652,4222.179688,4223.974121,4583.205078,4503.077148,4415.128418,4500.128418,5672.000000,0.000000,10.000000,,,,0.000000,4.000000,4.000000,4.000000,4.000000,4.000000,4.000000,4.000000,4.000000,4.000000,4.000000,4.000000,4.000000,4.000000,4.000000,100.000000,,,,,,,,,,,,,,,,,20.000000,0.000000,0.685325,0.069336,-0.698547,0.193787,0.981077,-0.163106,0.021487,-43.326378,-32.991470,41.589806,,,,,,,,,,,,,,,,,,,,,,,,,,,,,,,,,,,,,,,,,,,,,,,,,,,,,,,,,,,,,,,,,,,,,,,,,,,,,,,,,,,,,,,,,,,,,,,,,,,,,
1739356738.605958,1739356738.606825,81.000000,0.000000,4251.538574,4230.897461,4284.871582,4276.025879,4220.769043,4214.743652,4213.589844,4278.589844,4203.461426,4195.769043,4552.692383,4477.436035,4391.794922,4477.563965,6494.000000,0.000000,10.000000,,,,0.000000,4.000000,4.000000,4.000000,4.000000,4.000000,4.000000,4.000000,4.000000,4.000000,4.000000,4.000000,4.000000,4.000000,4.000000,100.000000,,,,,,,,,,,,,,,,,,,,,,,,,,,,,,,,,,,,,,,,,,,,,,,,,,,,,,,,,,,,,,,,,,,,,,,,,,,,,,,,,,,,,,,,,,,,,,,,,,,,,,,,,,,,,,,,,,,,,,,,,,,,,,,,,
1739356738.613766,1739356738.614633,82.000000,0.000000,4258.717773,4234.358887,4287.436035,4277.179688,4224.102539,4215.769043,4215.128418,4281.282227,4209.230957,4201.410156,4556.538574,4480.128418,4402.307617,4482.051270,4824.000000,0.000000,10.000000,,,,0.000000,4.000000,4.000000,4.000000,4.000000,4.000000,4.000000,4.000000,4.000000,4.000000,4.000000,4.000000,4.000000,4.000000,4.000000,100.000000,,,,,,,,,,,,,,,,,,,,,,,,,,,,,,,,,,,,,,,,,,,,,,,,,,,,,,,,,,,,,,,,,,,,,,,,,,,,,,,,,,,,,,,,,,,,,,,,,,,,,,,,,,,,,,,,,,,,,,,,,,,,,,,,,
1739356738.621574,1739356738.622341,83.000000,0.000000,4288.333496,4261.410156,4314.230957,4307.051270,4247.307617,4238.333496,4238.461426,4286.282227,4237.179688,4231.666504,4586.025879,4510.128418,4425.769043,4509.358887,5629.000000,0.000000,10.000000,,,,0.000000,4.000000,4.000000,4.000000,4.000000,4.000000,4.000000,4.000000,4.000000,4.000000,4.000000,4.000000,4.000000,4.000000,4.000000,100.000000,,,,,,,,,,,,,,,,,,,,,,,,,,,,,,,,,,,,,,,,,,,,,,,,,,,,,,,,,,,,,,,,,,,,,,,,,,,,,,,,,,,,,,,,,,,,,,,,,,,,,,,,,,,,,,,,,,,,,,,,,,,,,,,,,
1739356738.629382,1739356738.630149,84.000000,0.000000,4292.051270,4264.102539,4316.538574,4314.487305,4250.769043,4244.871582,4244.102539,4282.051270,4241.922852,4234.487305,4589.487305,4518.717773,4425.128418,4513.846191,5672.000000,0.000000,10.000000,,,,0.000000,4.000000,4.000000,4.000000,4.000000,4.000000,4.000000,4.000000,4.000000,4.000000,4.000000,4.000000,4.000000,4.000000,4.000000,100.000000,,,,,,,,,,,,,,,,,21.000000,0.000000,0.685402,0.069702,-0.698486,0.193604,0.986449,-0.164571,0.014162,-43.327072,-32.992321,41.530823,,,,,,,,,,,,,,,,,,,,,,,,,,,,,,,,,,,,,,,,,,,,,,,,,,,,,,,,,,,,,,,,,,,,,,,,,,,,,,,,,,,,,,,,,,,,,,,,,,,,,
1739356738.637190,1739356738.637857,85.000000,0.000000,4258.333496,4231.153809,4285.128418,4280.256348,4226.538574,4224.230957,4217.563965,4272.436035,4216.025879,4206.922852,4560.384766,4482.307617,4400.384766,4480.897461,6494.000000,0.000000,10.000000,,,,0.000000,4.000000,4.000000,4.000000,4.000000,4.000000,4.000000,4.000000,4.000000,4.000000,4.000000,4.000000,4.000000,4.000000,4.000000,100.000000,,,,,,,,,,,,,,,,,,,,,,,,,,,,,,,,,,,,,,,,,,,,,,,,,,,,,,,,,,,,,,,,,,,,,,,,,,,,,,,,,,,,,,,,,,,,,,,,,,,,,,,,,,,,,,,,,,,,,,,,,,,,,,,,,
1739356738.644998,1739356738.645665,86.000000,0.000000,4244.487305,4220.000000,4272.563965,4264.487305,4218.717773,4219.743652,4209.615234,4276.666504,4213.333496,4202.179688,4551.153809,4464.102539,4391.922852,4471.025879,4824.000000,0.000000,10.000000,,,,0.000000,4.000000,4.000000,4.000000,4.000000,4.000000,4.000000,4.000000,4.000000,4.000000,4.000000,4.000000,4.000000,4.000000,4.000000,100.000000,,,,,,,,,,,,,,,,,,,,,,,,,,,,,,,,,,,,,,,,,,,,,,,,,,,,,,,,,,,,,,,,,,,,,,,,,,,,,,,,,,,,,,,,,,,,,,,,,,,,,,,,,,,,,,,,,,,,,,,,,,,,,,,,,
1739356738.652806,1739356738.653373,87.000000,0.000000,4264.743652,4241.153809,4289.102539,4285.128418,4237.307617,4235.256348,4228.846191,4282.179688,4231.666504,4222.307617,4564.230957,4488.589844,4404.230957,4493.846191,5629.000000,0.000000,10.000000,,,,0.000000,4.000000,4.000000,4.000000,4.000000,4.000000,4.000000,4.000000,4.000000,4.000000,4.000000,4.000000,4.000000,4.000000,4.000000,100.000000,,,,,,,,,,,,,,,,,,,,,,,,,,,,,,,,,,,,,,,,,,,,,,,,,,,,,,,,,,,,,,,,,,,,,,,,,,,,,,,,,,,,,,,,,,,,,,,,,,,,,,,,,,,,,,,,,,,,,,,,,,,,,,,,,
1739356738.660614,1739356738.661181,88.000000,0.000000,4280.512695,4256.153809,4307.051270,4302.692383,4253.077148,4244.102539,4241.666504,4282.436035,4239.358887,4236.666504,4571.922852,4510.128418,4416.666504,4504.871582,5672.000000,0.000000,10.000000,,,,0.000000,4.000000,4.000000,4.000000,4.000000,4.000000,4.000000,4.000000,4.000000,4.000000,4.000000,4.000000,4.000000,4.000000,4.000000,100.000000,,,,,,,,,,,,,,,,,22.000000,0.000000,0.685581,0.069946,-0.698303,0.193542,0.984984,-0.165059,0.007813,-43.494366,-32.909756,41.511074,,,,,,,,,,,,,,,,,,,,,,,,,,,,,,,,1.070896,2.060188,0.683644,1.629918,1.207217,0.574100,1.769262,0.419657,1.427151,1.271059,0.843913,1.822041,0.650340,1.132814,1.059757,0.443830,2.278535,0.429590,1.557569,1.280285,0.414215,0.757699,0.408736,1.177451,0.948290,0.473803,0.302487,0.334218,1.053326,1.036584,0.369511,0.720874,0.434036,1.085487,1.342672,0.051035,0.390823,0.097614,0.139727,0.223130,0.515544,2.001912,0.431613,1.315740,1.111578,0.741624,1.784003,0.851171,1.537004,1.282537,2.316455,3.132127,1.123129,1.347188,1.433031,1.426487,3.027563,1.517717,2.026004,1.631866,0.758847,0.791758,0.723408,0.910445,0.877896,0.670132,1.718266,0.538567,1.377446,1.190100
1739356738.668422,1739356738.668889,89.000000,0.000000,4280.000000,4253.717773,4311.025879,4300.256348,4246.025879,4236.025879,4234.743652,4282.563965,4233.461426,4234.487305,4573.333496,4507.948730,4417.820313,4500.897461,6494.000000,0.000000,10.000000,,,,0.000000,4.000000,4.000000,4.000000,4.000000,4.000000,4.000000,4.000000,4.000000,4.000000,4.000000,4.000000,4.000000,4.000000,4.000000,100.000000,,,,,,,,,,,,,,,,,,,,,,,,,,,,,,,,,,,,,,,,,,,,,,,,,,,,,,,,,,,,,,,,,,,,,,,,,,,,,,,,,,,,,,,,,,,,,,,,,,,,,,,,,,,,,,,,,,,,,,,,,,,,,,,,,
1739356738.676231,1739356738.676697,90.000000,0.000000,4274.102539,4245.897461,4302.436035,4290.769043,4227.436035,4219.230957,4217.179688,4276.282227,4216.153809,4218.846191,4567.948730,4500.128418,4406.922852,4497.307617,4824.000000,0.000000,10.000000,,,,0.000000,4.000000,4.000000,4.000000,4.000000,4.000000,4.000000,4.000000,4.000000,4.000000,4.000000,4.000000,4.000000,4.000000,4.000000,100.000000,,,,,,,,,,,,,,,,,,,,,,,,,,,,,,,,,,,,,,,,,,,,,,,,,,,,,,,,,,,,,,,,,,,,,,,,,,,,,,,,,,,,,,,,,,,,,,,,,,,,,,,,,,,,,,,,,,,,,,,,,,,,,,,,,
1739356738.684039,1739356738.684405,91.000000,0.000000,4284.230957,4254.358887,4312.051270,4301.282227,4233.077148,4221.025879,4218.461426,4276.922852,4216.922852,4220.897461,4573.077148,4514.615234,4413.461426,4509.615234,5629.000000,0.000000,10.000000,,,,0.000000,4.000000,4.000000,4.000000,4.000000,4.000000,4.000000,4.000000,4.000000,4.000000,4.000000,4.000000,4.000000,4.000000,4.000000,100.000000,,,,,,,,,,,,,,,,,,,,,,,,,,,,,,,,,,,,,,,,,,,,,,,,,,,,,,,,,,,,,,,,,,,,,,,,,,,,,,,,,,,,,,,,,,,,,,,,,,,,,,,,,,,,,,,,,,,,,,,,,,,,,,,,,
1739356738.691847,1739356738.692213,92.000000,0.000000,4297.820313,4268.077148,4328.846191,4317.436035,4249.743652,4235.128418,4233.717773,4282.948730,4234.102539,4234.871582,4584.615234,4530.897461,4428.333496,4524.487305,5672.000000,0.000000,10.000000,,,,0.000000,4.000000,4.000000,4.000000,4.000000,4.000000,4.000000,4.000000,4.000000,4.000000,4.000000,4.000000,4.000000,4.000000,4.000000,100.000000,,,,,,,,,,,,,,,,,23.000000,0.000000,0.685847,0.069946,-0.698059,0.193481,0.980100,-0.157246,0.036626,-43.544930,-32.818779,41.693302,,,,,,,,,,,,,,,,,,,,,,,,,,,,,,,,,,,,,,,,,,,,,,,,,,,,,,,,,,,,,,,,,,,,,,,,,,,,,,,,,,,,,,,,,,,,,,,,,,,,,
1739356738.699655,1739356738.699921,93.000000,0.000000,4296.282227,4271.922852,4325.256348,4314.487305,4251.153809,4238.205078,4236.922852,4284.230957,4237.948730,4238.077148,4585.641113,4531.025879,4426.666504,4526.666504,6494.000000,0.000000,10.000000,,,,0.000000,4.000000,4.000000,4.000000,4.000000,4.000000,4.000000,4.000000,4.000000,4.000000,4.000000,4.000000,4.000000,4.000000,4.000000,100.000000,,,,,,,,,,,,,,,,,,,,,,,,,,,,,,,,,,,,,,,,,,,,,,,,,,,,,,,,,,,,,,,,,,,,,,,,,,,,,,,,,,,,,,,,,,,,,,,,,,,,,,,,,,,,,,,,,,,,,,,,,,,,,,,,,
1739356738.707463,1739356738.707729,94.000000,0.000000,4276.025879,4254.615234,4303.846191,4297.436035,4238.461426,4227.692383,4223.333496,4280.769043,4226.153809,4224.871582,4573.589844,4510.512695,4409.871582,4507.307617,4824.000000,0.000000,10.000000,,,,0.000000,4.000000,4.000000,4.000000,4.000000,4.000000,4.000000,4.000000,4.000000,4.000000,4.000000,4.000000,4.000000,4.000000,4.000000,100.000000,,,,,,,,,,,,,,,,,,,,,,,,,,,,,,,,,,,,,,,,,,,,,,,,,,,,,,,,,,,,,,,,,,,,,,,,,,,,,,,,,,,,,,,,,,,,,,,,,,,,,,,,,,,,,,,,,,,,,,,,,,,,,,,,,
1739356738.715271,1739356738.715437,95.000000,0.000000,4256.794922,4230.897461,4288.461426,4285.384766,4231.666504,4226.794922,4222.563965,4281.794922,4222.179688,4212.436035,4562.179688,4487.820313,4397.436035,4487.948730,5629.000000,0.000000,10.000000,,,,0.000000,4.000000,4.000000,4.000000,4.000000,4.000000,4.000000,4.000000,4.000000,4.000000,4.000000,4.000000,4.000000,4.000000,4.000000,100.000000,,,,,,,,,,,,,,,,,,,,,,,,,,,,,,,,,,,,,,,,,,,,,,,,,,,,,,,,,,,,,,,,,,,,,,,,,,,,,,,,,,,,,,,,,,,,,,,,,,,,,,,,,,,,,,,,,,,,,,,,,,,,,,,,,
1739356738.723079,1739356738.723245,96.000000,0.000000,4258.461426,4231.410156,4291.922852,4286.282227,4237.948730,4239.871582,4239.102539,4288.589844,4230.769043,4220.000000,4562.436035,4490.641113,4400.000000,4492.307617,5672.000000,0.000000,10.000000,,,,0.000000,4.000000,4.000000,4.000000,4.000000,4.000000,4.000000,4.000000,4.000000,4.000000,4.000000,4.000000,4.000000,4.000000,4.000000,100.000000,,,,,,,,,,,,,,,,,24.000000,0.000000,0.685971,0.069946,-0.697937,0.193481,0.988890,-0.174338,0.035161,-43.540436,-32.770237,41.690636,,,,,,,,,,,,,,,,,,,,,,,,,,,,,,,,,,,,,,,,,,,,,,,,,,,,,,,,,,,,,,,,,,,,,,,,,,,,,,,,,,,,,,,,,,,,,,,,,,,,,
1739356738.730887,1739356738.730953,97.000000,0.000000,4255.256348,4235.384766,4288.333496,4279.871582,4232.307617,4234.743652,4233.333496,4283.717773,4223.974121,4215.512695,4554.615234,4488.717773,4394.487305,4487.948730,6494.000000,0.000000,10.000000,,,,0.000000,4.000000,4.000000,4.000000,4.000000,4.000000,4.000000,4.000000,4.000000,4.000000,4.000000,4.000000,4.000000,4.000000,4.000000,100.000000,,,,,,,,,,,,,,,,,,,,,,,,,,,,,,,,,,,,,,,,,,,,,,,,,,,,,,,,,,,,,,,,,,,,,,,,,,,,,,,,,,,,,,,,,,,,,,,,,,,,,,,,,,,,,,,,,,,,,,,,,,,,,,,,,
1739356738.738695,1739356738.738861,98.000000,0.000000,4250.897461,4232.307617,4283.333496,4276.538574,4224.230957,4223.589844,4220.128418,4273.461426,4214.615234,4202.051270,4548.333496,4482.436035,4387.179688,4478.974121,4824.000000,0.000000,10.000000,,,,0.000000,4.000000,4.000000,4.000000,4.000000,4.000000,4.000000,4.000000,4.000000,4.000000,4.000000,4.000000,4.000000,4.000000,4.000000,100.000000,,,,,,,,,,,,,,,,,,,,,,,,,,,,,,,,,,,,,,,,,,,,,,,,,,,,,,,,,,,,,,,,,,,,,,,,,,,,,,,,,,,,,,,,,,,,,,,,,,,,,,,,,,,,,,,,,,,,,,,,,,,,,,,,,
1739356738.746503,1739356738.746670,99.000000,0.000000,4267.563965,4242.948730,4298.205078,4295.256348,4238.717773,4237.563965,4237.051270,4277.436035,4227.948730,4214.487305,4562.307617,4505.897461,4400.384766,4497.307617,5629.000000,0.000000,10.000000,,,,0.000000,4.000000,4.000000,4.000000,4.000000,4.000000,4.000000,4.000000,4.000000,4.000000,4.000000,4.000000,4.000000,4.000000,4.000000,100.000000,,,,,,,,,,,,,,,,,,,,,,,,,,,,,,,,,,,,,,,,,,,,,,,,,,,,,,,,,,,,,,,,,,,,,,,,,,,,,,,,,,,,,,,,,,,,,,,,,,,,,,,,,,,,,,,,,,,,,,,,,,,,,,,,,
1739356738.754311,1739356738.754578,100.000000,0.000000,4283.077148,4257.307617,4314.743652,4310.256348,4251.794922,4250.000000,4257.051270,4289.487305,4240.769043,4231.153809,4572.436035,4527.051270,4415.128418,4518.974121,5672.000000,0.000000,10.000000,,,,0.000000,4.000000,4.000000,4.000000,4.000000,4.000000,4.000000,4.000000,4.000000,4.000000,4.000000,4.000000,4.000000,4.000000,4.000000,100.000000,,,,,,,,,,,,,,,,,25.000000,0.000000,0.686182,0.069702,-0.697754,0.193481,0.983030,-0.165548,0.019534,-43.519726,-32.759880,41.821575,,,,,,,,,,,,,,,,,,,,,,,,,,,,,,,,,,,,,,,,,,,,,,,,,,,,,,,,,,,,,,,,,,,,,,,,,,,,,,,,,,,,,,,,,,,,,,,,,,,,,
1739356738.762119,1739356738.762386,101.000000,0.000000,4280.256348,4251.282227,4310.769043,4303.717773,4240.000000,4237.820313,4246.025879,4293.077148,4234.743652,4228.589844,4571.153809,4516.153809,4412.563965,4515.000000,6494.000000,0.000000,10.000000,,,,0.000000,4.000000,4.000000,4.000000,4.000000,4.000000,4.000000,4.000000,4.000000,4.000000,4.000000,4.000000,4.000000,4.000000,4.000000,100.000000,,,,,,,,,,,,,,,,,,,,,,,,,,,,,,,,,,,,,,,,,,,,,,,,,,,,,,,,,,,,,,,,,,,,,,,,,,,,,,,,,,,,,,,,,,,,,,,,,,,,,,,,,,,,,,,,,,,,,,,,,,,,,,,,,
1739356738.769928,1739356738.770294,102.000000,0.000000,4277.820313,4246.794922,4303.974121,4297.820313,4234.358887,4231.025879,4230.769043,4290.512695,4232.948730,4229.743652,4574.615234,4510.256348,4409.871582,4511.666504,4824.000000,0.000000,10.000000,,,,0.000000,4.000000,4.000000,4.000000,4.000000,4.000000,4.000000,4.000000,4.000000,4.000000,4.000000,4.000000,4.000000,4.000000,4.000000,100.000000,,,,,,,,,,,,,,,,,,,,,,,,,,,,,,,,,,,,,,,,,,,,,,,,,,,,,,,,,,,,,,,,,,,,,,,,,,,,,,,,,,,,,,,,,,,,,,,,,,,,,,,,,,,,,,,,,,,,,,,,,,,,,,,,,
1739356738.777736,1739356738.778102,103.000000,0.000000,4263.333496,4239.871582,4291.538574,4287.692383,4230.769043,4224.230957,4217.820313,4282.307617,4225.128418,4217.563965,4559.743652,4498.077148,4402.051270,4504.743652,5629.000000,0.000000,10.000000,,,,0.000000,4.000000,4.000000,4.000000,4.000000,4.000000,4.000000,4.000000,4.000000,4.000000,4.000000,4.000000,4.000000,4.000000,4.000000,100.000000,,,,,,,,,,,,,,,,,,,,,,,,,,,,,,,,,,,,,,,,,,,,,,,,,,,,,,,,,,,,,,,,,,,,,,,,,,,,,,,,,,,,,,,,,,,,,,,,,,,,,,,,,,,,,,,,,,,,,,,,,,,,,,,,,
1739356738.785544,1739356738.786010,104.000000,0.000000,4248.333496,4228.717773,4280.897461,4278.974121,4223.077148,4217.436035,4214.358887,4278.077148,4216.153809,4200.769043,4541.025879,4482.692383,4392.051270,4494.102539,5672.000000,0.000000,10.000000,,,,0.000000,4.000000,4.000000,4.000000,4.000000,4.000000,4.000000,4.000000,4.000000,4.000000,4.000000,4.000000,4.000000,4.000000,4.000000,100.000000,,,,,,,,,,,,,,,,,26.000000,0.000000,0.686303,0.069458,-0.697693,0.193359,0.985960,-0.168478,0.018069,-43.517754,-32.683891,41.839417,,,,,,,,,,,,,,,,,,,,,,,,,,,,,,,,1.363339,1.886595,0.829775,1.682021,1.341374,0.639453,1.529918,0.389643,1.484020,1.357918,1.429839,1.455593,0.809530,1.220612,1.150971,0.687483,1.598323,0.415470,1.592456,1.395033,0.438165,0.553864,0.413411,1.169580,0.987295,0.433219,0.334756,0.308050,1.077631,1.069147,0.342765,0.907869,0.321644,1.097369,1.354041,0.052955,0.419362,0.096498,0.126858,0.222476,0.539449,1.904311,0.340632,1.177269,1.200663,0.789549,1.544563,0.680318,1.397681,1.374099,2.419836,2.535784,1.116702,1.373652,1.569522,1.580240,2.358713,1.653933,2.030497,1.758388,0.835148,0.705825,0.825025,0.867356,0.985461,0.953442,1.739306,0.630372,1.408927,1.267256
1739356738.793352,1739356738.793818,105.000000,0.000000,4268.461426,4244.102539,4298.461426,4297.820313,4236.410156,4236.410156,4238.846191,4287.436035,4240.512695,4223.846191,4560.256348,4506.538574,4404.871582,4513.717773,6494.000000,0.000000,10.000000,,,,0.000000,4.000000,4.000000,4.000000,4.000000,4.000000,4.000000,4.000000,4.000000,4.000000,4.000000,4.000000,4.000000,4.000000,4.000000,100.000000,,,,,,,,,,,,,,,,,,,,,,,,,,,,,,,,,,,,,,,,,,,,,,,,,,,,,,,,,,,,,,,,,,,,,,,,,,,,,,,,,,,,,,,,,,,,,,,,,,,,,,,,,,,,,,,,,,,,,,,,,,,,,,,,,
1739356738.801160,1739356738.801726,106.000000,0.000000,4277.692383,4256.794922,4309.615234,4307.051270,4248.461426,4250.769043,4252.692383,4287.948730,4255.897461,4242.436035,4566.922852,4522.307617,4411.025879,4525.512695,4824.000000,0.000000,10.000000,,,,0.000000,4.000000,4.000000,4.000000,4.000000,4.000000,4.000000,4.000000,4.000000,4.000000,4.000000,4.000000,4.000000,4.000000,4.000000,100.000000,,,,,,,,,,,,,,,,,,,,,,,,,,,,,,,,,,,,,,,,,,,,,,,,,,,,,,,,,,,,,,,,,,,,,,,,,,,,,,,,,,,,,,,,,,,,,,,,,,,,,,,,,,,,,,,,,,,,,,,,,,,,,,,,,
1739356738.808968,1739356738.809534,107.000000,0.000000,4263.717773,4248.205078,4298.717773,4295.384766,4243.333496,4245.897461,4247.307617,4278.974121,4239.615234,4230.512695,4543.846191,4506.025879,4398.461426,4509.358887,5629.000000,0.000000,10.000000,,,,0.000000,4.000000,4.000000,4.000000,4.000000,4.000000,4.000000,4.000000,4.000000,4.000000,4.000000,4.000000,4.000000,4.000000,4.000000,100.000000,,,,,,,,,,,,,,,,,,,,,,,,,,,,,,,,,,,,,,,,,,,,,,,,,,,,,,,,,,,,,,,,,,,,,,,,,,,,,,,,,,,,,,,,,,,,,,,,,,,,,,,,,,,,,,,,,,,,,,,,,,,,,,,,,
1739356738.816776,1739356738.817442,108.000000,0.000000,4262.948730,4245.000000,4294.487305,4295.128418,4239.615234,4244.615234,4247.051270,4278.461426,4229.871582,4222.948730,4540.128418,4500.000000,4393.077148,4502.563965,5672.000000,0.000000,10.000000,,,,0.000000,4.000000,4.000000,4.000000,4.000000,4.000000,4.000000,4.000000,4.000000,4.000000,4.000000,4.000000,4.000000,4.000000,4.000000,100.000000,,,,,,,,,,,,,,,,,27.000000,0.000000,0.686305,0.069275,-0.697693,0.193420,0.977658,-0.166036,0.026370,-43.465977,-32.782169,41.855476,,,,,,,,,,,,,,,,,,,,,,,,,,,,,,,,,,,,,,,,,,,,,,,,,,,,,,,,,,,,,,,,,,,,,,,,,,,,,,,,,,,,,,,,,,,,,,,,,,,,,
1739356738.824584,1739356738.825250,109.000000,0.000000,4256.153809,4236.538574,4286.153809,4289.102539,4231.922852,4236.025879,4236.794922,4274.743652,4220.769043,4209.102539,4537.563965,4490.512695,4381.922852,4498.461426,6494.000000,0.000000,10.000000,,,,0.000000,4.000000,4.000000,4.000000,4.000000,4.000000,4.000000,4.000000,4.000000,4.000000,4.000000,4.000000,4.000000,4.000000,4.000000,100.000000,,,,,,,,,,,,,,,,,,,,,,,,,,,,,,,,,,,,,,,,,,,,,,,,,,,,,,,,,,,,,,,,,,,,,,,,,,,,,,,,,,,,,,,,,,,,,,,,,,,,,,,,,,,,,,,,,,,,,,,,,,,,,,,,,
1739356738.832392,1739356738.832958,110.000000,0.000000,4248.717773,4227.179688,4282.948730,4284.615234,4230.128418,4229.871582,4227.563965,4271.025879,4216.666504,4201.666504,4532.948730,4481.153809,4375.641113,4492.820313,4824.000000,0.000000,10.000000,,,,0.000000,4.000000,4.000000,4.000000,4.000000,4.000000,4.000000,4.000000,4.000000,4.000000,4.000000,4.000000,4.000000,4.000000,4.000000,100.000000,,,,,,,,,,,,,,,,,,,,,,,,,,,,,,,,,,,,,,,,,,,,,,,,,,,,,,,,,,,,,,,,,,,,,,,,,,,,,,,,,,,,,,,,,,,,,,,,,,,,,,,,,,,,,,,,,,,,,,,,,,,,,,,,,
1739356738.840200,1739356738.840766,111.000000,0.000000,4266.538574,4243.589844,4303.846191,4302.948730,4243.589844,4243.461426,4245.641113,4284.487305,4239.487305,4227.307617,4556.153809,4506.282227,4395.769043,4508.333496,5629.000000,0.000000,10.000000,,,,0.000000,4.000000,4.000000,4.000000,4.000000,4.000000,4.000000,4.000000,4.000000,4.000000,4.000000,4.000000,4.000000,4.000000,4.000000,100.000000,,,,,,,,,,,,,,,,,,,,,,,,,,,,,,,,,,,,,,,,,,,,,,,,,,,,,,,,,,,,,,,,,,,,,,,,,,,,,,,,,,,,,,,,,,,,,,,,,,,,,,,,,,,,,,,,,,,,,,,,,,,,,,,,,
1739356738.848008,1739356738.848474,112.000000,0.000000,4275.128418,4254.230957,4313.589844,4310.641113,4244.615234,4245.128418,4254.871582,4291.922852,4257.692383,4244.230957,4571.025879,4523.205078,4403.846191,4520.256348,5672.000000,0.000000,10.000000,,,,0.000000,4.000000,4.000000,4.000000,4.000000,4.000000,4.000000,4.000000,4.000000,4.000000,4.000000,4.000000,4.000000,4.000000,4.000000,100.000000,,,,,,,,,,,,,,,,,28.000000,0.000000,0.686350,0.069275,-0.697632,0.193481,0.990844,-0.152851,0.024417,-43.469379,-32.570618,41.703262,,,,,,,,,,,,,,,,,,,,,,,,,,,,,,,,,,,,,,,,,,,,,,,,,,,,,,,,,,,,,,,,,,,,,,,,,,,,,,,,,,,,,,,,,,,,,,,,,,,,,
1739356738.855816,1739356738.856282,113.000000,0.000000,4251.666504,4230.000000,4290.256348,4287.563965,4223.333496,4223.077148,4230.384766,4278.846191,4236.025879,4218.333496,4545.256348,4494.358887,4381.538574,4498.974121,6494.000000,0.000000,10.000000,,,,0.000000,4.000000,4.000000,4.000000,4.000000,4.000000,4.000000,4.000000,4.000000,4.000000,4.000000,4.000000,4.000000,4.000000,4.000000,100.000000,,,,,,,,,,,,,,,,,,,,,,,,,,,,,,,,,,,,,,,,,,,,,,,,,,,,,,,,,,,,,,,,,,,,,,,,,,,,,,,,,,,,,,,,,,,,,,,,,,,,,,,,,,,,,,,,,,,,,,,,,,,,,,,,,
1739356738.863624,1739356738.863990,114.000000,0.000000,4246.153809,4218.974121,4280.897461,4281.538574,4219.102539,4221.538574,4221.025879,4274.102539,4217.820313,4199.871582,4531.538574,4479.615234,4377.051270,4484.487305,4824.000000,0.000000,10.000000,,,,0.000000,4.000000,4.000000,4.000000,4.000000,4.000000,4.000000,4.000000,4.000000,4.000000,4.000000,4.000000,4.000000,4.000000,4.000000,100.000000,,,,,,,,,,,,,,,,,,,,,,,,,,,,,,,,,,,,,,,,,,,,,,,,,,,,,,,,,,,,,,,,,,,,,,,,,,,,,,,,,,,,,,,,,,,,,,,,,,,,,,,,,,,,,,,,,,,,,,,,,,,,,,,,,
1739356738.871433,1739356738.871798,115.000000,0.000000,4268.205078,4241.153809,4297.563965,4303.589844,4238.077148,4240.897461,4240.512695,4280.769043,4236.538574,4219.743652,4552.307617,4504.102539,4397.563965,4502.948730,5629.000000,0.000000,10.000000,,,,0.000000,4.000000,4.000000,4.000000,4.000000,4.000000,4.000000,4.000000,4.000000,4.000000,4.000000,4.000000,4.000000,4.000000,4.000000,100.000000,,,,,,,,,,,,,,,,,,,,,,,,,,,,,,,,,,,,,,,,,,,,,,,,,,,,,,,,,,,,,,,,,,,,,,,,,,,,,,,,,,,,,,,,,,,,,,,,,,,,,,,,,,,,,,,,,,,,,,,,,,,,,,,,,
1739356738.879241,1739356738.879506,116.000000,0.000000,4275.897461,4257.820313,4302.179688,4311.153809,4247.051270,4245.897461,4248.461426,4278.077148,4253.333496,4240.897461,4562.307617,4513.974121,4406.153809,4513.461426,5672.000000,0.000000,10.000000,,,,0.000000,4.000000,4.000000,4.000000,4.000000,4.000000,4.000000,4.000000,4.000000,4.000000,4.000000,4.000000,4.000000,4.000000,4.000000,100.000000,,,,,,,,,,,,,,,,,29.000000,0.000000,0.686444,0.069397,-0.697510,0.193542,0.995727,-0.173849,0.016604,-43.622440,-32.663555,41.666267,,,,,,,,,,,,,,,,,,,,,,,,,,,,,,,,,,,,,,,,,,,,,,,,,,,,,,,,,,,,,,,,,,,,,,,,,,,,,,,,,,,,,,,,,,,,,,,,,,,,,
1739356738.887049,1739356738.887314,117.000000,0.000000,4262.692383,4245.512695,4288.717773,4293.717773,4235.000000,4234.615234,4234.871582,4269.487305,4240.897461,4233.717773,4548.846191,4493.077148,4398.077148,4495.641113,6494.000000,0.000000,10.000000,,,,0.000000,4.000000,4.000000,4.000000,4.000000,4.000000,4.000000,4.000000,4.000000,4.000000,4.000000,4.000000,4.000000,4.000000,4.000000,100.000000,,,,,,,,,,,,,,,,,,,,,,,,,,,,,,,,,,,,,,,,,,,,,,,,,,,,,,,,,,,,,,,,,,,,,,,,,,,,,,,,,,,,,,,,,,,,,,,,,,,,,,,,,,,,,,,,,,,,,,,,,,,,,,,,,
1739356738.894857,1739356738.895022,118.000000,0.000000,4255.512695,4228.974121,4285.384766,4282.692383,4223.333496,4227.563965,4226.538574,4272.179688,4228.333496,4218.846191,4544.358887,4486.282227,4394.615234,4490.897461,4824.000000,0.000000,10.000000,,,,0.000000,4.000000,4.000000,4.000000,4.000000,4.000000,4.000000,4.000000,4.000000,4.000000,4.000000,4.000000,4.000000,4.000000,4.000000,100.000000,,,,,,,,,,,,,,,,,,,,,,,,,,,,,,,,,,,,,,,,,,,,,,,,,,,,,,,,,,,,,,,,,,,,,,,,,,,,,,,,,,,,,,,,,,,,,,,,,,,,,,,,,,,,,,,,,,,,,,,,,,,,,,,,,
1739356738.902665,1739356738.902930,119.000000,0.000000,4267.179688,4241.794922,4296.666504,4298.589844,4233.846191,4234.358887,4236.666504,4285.769043,4237.692383,4224.102539,4559.487305,4507.820313,4405.000000,4510.897461,5629.000000,0.000000,10.000000,,,,0.000000,4.000000,4.000000,4.000000,4.000000,4.000000,4.000000,4.000000,4.000000,4.000000,4.000000,4.000000,4.000000,4.000000,4.000000,100.000000,,,,,,,,,,,,,,,,,,,,,,,,,,,,,,,,,,,,,,,,,,,,,,,,,,,,,,,,,,,,,,,,,,,,,,,,,,,,,,,,,,,,,,,,,,,,,,,,,,,,,,,,,,,,,,,,,,,,,,,,,,,,,,,,,
1739356738.910473,1739356738.910738,120.000000,0.000000,4265.128418,4246.410156,4289.230957,4298.077148,4236.922852,4232.820313,4233.333496,4287.563965,4233.205078,4219.487305,4551.410156,4502.051270,4401.282227,4505.641113,5672.000000,0.000000,10.000000,,,,0.000000,4.000000,4.000000,4.000000,4.000000,4.000000,4.000000,4.000000,4.000000,4.000000,4.000000,4.000000,4.000000,4.000000,4.000000,100.000000,,,,,,,,,,,,,,,,,30.000000,0.000000,0.686258,0.069397,-0.697693,0.193542,0.980588,-0.157246,0.020510,-43.543530,-32.747200,41.799641,,,,,,,,,,,,,,,,,,,,,,,,,,,,,,,,1.720804,1.835613,1.250582,1.875629,1.500884,0.776510,1.374077,0.500506,1.571838,1.460345,2.151614,1.244121,1.166311,1.405605,1.267967,1.062846,1.180575,0.579865,1.682737,1.524324,0.459025,0.423843,0.485995,1.142364,1.032597,0.360211,0.373391,0.337786,1.077199,1.104139,0.314738,1.126154,0.291561,1.121516,1.339858,0.059469,0.448054,0.104880,0.128752,0.225236,0.550233,1.860178,0.323104,1.099257,1.318105,0.815826,1.318755,0.611484,1.354946,1.502043,2.682588,2.094809,1.301510,1.538804,1.724778,1.896391,1.936839,2.173979,2.242487,1.896418,0.895987,0.703522,1.003385,0.884726,1.130207,1.343159,1.826222,0.912357,1.585146,1.392004
1739356738.918281,1739356738.918546,121.000000,0.000000,4244.743652,4222.051270,4270.000000,4274.102539,4219.230957,4217.307617,4215.128418,4280.000000,4211.922852,4198.333496,4523.461426,4469.358887,4382.436035,4481.794922,6494.000000,0.000000,10.000000,,,,0.000000,4.000000,4.000000,4.000000,4.000000,4.000000,4.000000,4.000000,4.000000,4.000000,4.000000,4.000000,4.000000,4.000000,4.000000,100.000000,,,,,,,,,,,,,,,,,,,,,,,,,,,,,,,,,,,,,,,,,,,,,,,,,,,,,,,,,,,,,,,,,,,,,,,,,,,,,,,,,,,,,,,,,,,,,,,,,,,,,,,,,,,,,,,,,,,,,,,,,,,,,,,,,
1739356738.926089,1739356738.926255,122.000000,0.000000,4250.384766,4225.641113,4281.666504,4281.794922,4222.948730,4219.871582,4216.410156,4285.641113,4215.641113,4200.897461,4527.692383,4479.615234,4389.358887,4493.717773,4824.000000,0.000000,10.000000,,,,0.000000,4.000000,4.000000,4.000000,4.000000,4.000000,4.000000,4.000000,4.000000,4.000000,4.000000,4.000000,4.000000,4.000000,4.000000,100.000000,,,,,,,,,,,,,,,,,,,,,,,,,,,,,,,,,,,,,,,,,,,,,,,,,,,,,,,,,,,,,,,,,,,,,,,,,,,,,,,,,,,,,,,,,,,,,,,,,,,,,,,,,,,,,,,,,,,,,,,,,,,,,,,,,
1739356738.933897,1739356738.934163,123.000000,0.000000,4279.487305,4259.358887,4304.871582,4311.666504,4248.589844,4237.563965,4232.563965,4295.769043,4231.794922,4218.974121,4553.205078,4519.230957,4415.256348,4521.794922,5629.000000,0.000000,10.000000,,,,0.000000,4.000000,4.000000,4.000000,4.000000,4.000000,4.000000,4.000000,4.000000,4.000000,4.000000,4.000000,4.000000,4.000000,4.000000,100.000000,,,,,,,,,,,,,,,,,,,,,,,,,,,,,,,,,,,,,,,,,,,,,,,,,,,,,,,,,,,,,,,,,,,,,,,,,,,,,,,,,,,,,,,,,,,,,,,,,,,,,,,,,,,,,,,,,,,,,,,,,,,,,,,,,
1739356738.941705,1739356738.941971,124.000000,0.000000,4282.051270,4262.948730,4300.641113,4311.153809,4251.794922,4241.666504,4236.410156,4288.589844,4226.153809,4220.128418,4556.794922,4516.410156,4414.230957,4515.897461,5672.000000,0.000000,10.000000,,,,0.000000,4.000000,4.000000,4.000000,4.000000,4.000000,4.000000,4.000000,4.000000,4.000000,4.000000,4.000000,4.000000,4.000000,4.000000,100.000000,,,,,,,,,,,,,,,,,31.000000,0.000000,0.686341,0.069702,-0.697632,0.193359,0.992797,-0.165059,0.021975,-43.455845,-32.789146,41.869678,,,,,,,,,,,,,,,,,,,,,,,,,,,,,,,,,,,,,,,,,,,,,,,,,,,,,,,,,,,,,,,,,,,,,,,,,,,,,,,,,,,,,,,,,,,,,,,,,,,,,
1739356738.949513,1739356738.949879,125.000000,0.000000,4264.102539,4246.794922,4289.487305,4295.000000,4235.769043,4232.436035,4229.615234,4283.589844,4219.230957,4219.487305,4548.846191,4494.358887,4397.307617,4493.077148,6494.000000,0.000000,10.000000,,,,0.000000,4.000000,4.000000,4.000000,4.000000,4.000000,4.000000,4.000000,4.000000,4.000000,4.000000,4.000000,4.000000,4.000000,4.000000,100.000000,,,,,,,,,,,,,,,,,,,,,,,,,,,,,,,,,,,,,,,,,,,,,,,,,,,,,,,,,,,,,,,,,,,,,,,,,,,,,,,,,,,,,,,,,,,,,,,,,,,,,,,,,,,,,,,,,,,,,,,,,,,,,,,,,
1739356738.957322,1739356738.957687,126.000000,0.000000,4257.051270,4241.282227,4287.948730,4290.769043,4225.897461,4222.563965,4219.230957,4288.205078,4223.589844,4222.307617,4545.000000,4490.641113,4394.102539,4488.077148,4824.000000,0.000000,10.000000,,,,0.000000,4.000000,4.000000,4.000000,4.000000,4.000000,4.000000,4.000000,4.000000,4.000000,4.000000,4.000000,4.000000,4.000000,4.000000,100.000000,,,,,,,,,,,,,,,,,,,,,,,,,,,,,,,,,,,,,,,,,,,,,,,,,,,,,,,,,,,,,,,,,,,,,,,,,,,,,,,,,,,,,,,,,,,,,,,,,,,,,,,,,,,,,,,,,,,,,,,,,,,,,,,,,
1739356738.965130,1739356738.965595,127.000000,0.000000,4257.692383,4238.589844,4283.461426,4287.436035,4221.922852,4217.179688,4215.641113,4286.025879,4227.820313,4217.948730,4541.538574,4490.512695,4395.384766,4493.333496,10.000000,0.000000,10.000000,,,,0.000000,4.000000,4.000000,4.000000,4.000000,4.000000,4.000000,4.000000,4.000000,4.000000,4.000000,4.000000,4.000000,4.000000,4.000000,100.000000,,,,,,,,,,,,,,,,,,,,,,,,,,,,,,,,,,,,,,,,,,,,,,,,,,,,,,,,,,,,,,,,,,,,,,,,,,,,,,,,,,,,,,,,,,,,,,,,,,,,,,,,,,,,,,,,,,,,,,,,,,,,,,,,,
1739356738.972938,1739356738.973403,0.000000,0.000000,4258.846191,4237.948730,4282.179688,4290.897461,4227.948730,4227.820313,4233.461426,4286.666504,4237.692383,4223.077148,4542.948730,4493.589844,4391.538574,4493.974121,4944.000000,0.000000,10.000000,,,,0.000000,4.000000,4.000000,4.000000,4.000000,4.000000,4.000000,4.000000,4.000000,4.000000,4.000000,4.000000,4.000000,4.000000,4.000000,100.000000,,,,,,,,,,,,,,,,,0.000000,0.000000,0.686463,0.069885,-0.697510,0.193298,0.997192,-0.164083,0.034672,-43.410259,-32.876900,41.849377,,,,,,,,,,,,,,,,,,,,,,,,,,,,,,,,,,,,,,,,,,,,,,,,,,,,,,,,,,,,,,,,,,,,,,,,,,,,,,,,,,,,,,,,,,,,,,,,,,,,,
1739356738.980746,1739356738.981311,1.000000,0.000000,4256.666504,4242.692383,4283.846191,4298.846191,4236.922852,4240.000000,4246.025879,4292.436035,4246.025879,4231.410156,4546.922852,4495.897461,4390.128418,4490.000000,5574.000000,0.000000,10.000000,,,,0.000000,4.000000,4.000000,4.000000,4.000000,4.000000,4.000000,4.000000,4.000000,4.000000,4.000000,4.000000,4.000000,4.000000,4.000000,100.000000,,,,,,,,,,,,,,,,,,,,,,,,,,,,,,,,,,,,,,,,,,,,,,,,,,,,,,,,,,,,,,,,,,,,,,,,,,,,,,,,,,,,,,,,,,,,,,,,,,,,,,,,,,,,,,,,,,,,,,,,,,,,,,,,,
1739356738.988554,1739356738.989119,2.000000,0.000000,4248.461426,4237.948730,4273.846191,4288.205078,4230.897461,4232.179688,4232.436035,4284.102539,4234.615234,4217.179688,4536.153809,4480.384766,4390.769043,4481.666504,5582.000000,0.000000,10.000000,,,,0.000000,4.000000,4.000000,4.000000,4.000000,4.000000,4.000000,4.000000,4.000000,4.000000,4.000000,4.000000,4.000000,4.000000,4.000000,100.000000,,,,,,,,,,,,,,,,,,,,,,,,,,,,,,,,,,,,,,,,,,,,,,,,,,,,,,,,,,,,,,,,,,,,,,,,,,,,,,,,,,,,,,,,,,,,,,,,,,,,,,,,,,,,,,,,,,,,,,,,,,,,,,,,,
1739356738.996362,1739356738.997027,3.000000,0.000000,4250.897461,4233.461426,4269.615234,4281.794922,4228.205078,4227.436035,4225.384766,4275.384766,4224.871582,4210.000000,4528.333496,4477.692383,4396.153809,4483.077148,5539.000000,0.000000,10.000000,,,,0.000000,4.000000,4.000000,4.000000,4.000000,4.000000,4.000000,4.000000,4.000000,4.000000,4.000000,4.000000,4.000000,4.000000,4.000000,100.000000,,,,,,,,,,,,,,,,,,,,,,,,,,,,,,,,,,,,,,,,,,,,,,,,,,,,,,,,,,,,,,,,,,,,,,,,,,,,,,,,,,,,,,,,,,,,,,,,,,,,,,,,,,,,,,,,,,,,,,,,,,,,,,,,,
1739356739.004170,1739356739.004835,4.000000,0.000000,4265.128418,4244.615234,4283.846191,4292.307617,4240.769043,4237.307617,4233.974121,4282.692383,4234.743652,4229.743652,4540.512695,4497.948730,4404.358887,4496.922852,5511.000000,0.000000,10.000000,,,,0.000000,4.000000,4.000000,4.000000,4.000000,4.000000,4.000000,4.000000,4.000000,4.000000,4.000000,4.000000,4.000000,4.000000,4.000000,100.000000,,,,,,,,,,,,,,,,,1.000000,0.000000,0.686762,0.069824,-0.697205,0.193359,1.003541,-0.170431,0.027835,-43.402569,-32.939209,41.764439,,,,,,,,,,,,,,,,,,,,,,,,,,,,,,,,,,,,,,,,,,,,,,,,,,,,,,,,,,,,,,,,,,,,,,,,,,,,,,,,,,,,,,,,,,,,,,,,,,,,,
1739356739.011978,1739356739.012543,5.000000,0.000000,4259.230957,4243.717773,4278.589844,4283.461426,4241.153809,4233.846191,4226.410156,4282.051270,4232.051270,4227.948730,4538.846191,4488.974121,4397.563965,4491.025879,5474.000000,0.000000,10.000000,,,,0.000000,4.000000,4.000000,4.000000,4.000000,4.000000,4.000000,4.000000,4.000000,4.000000,4.000000,4.000000,4.000000,4.000000,4.000000,100.000000,,,,,,,,,,,,,,,,,,,,,,,,,,,,,,,,,,,,,,,,,,,,,,,,,,,,,,,,,,,,,,,,,,,,,,,,,,,,,,,,,,,,,,,,,,,,,,,,,,,,,,,,,,,,,,,,,,,,,,,,,,,,,,,,,
1739356739.019786,1739356739.020351,6.000000,0.000000,4242.820313,4228.461426,4260.128418,4269.615234,4230.897461,4223.589844,4210.512695,4273.077148,4214.871582,4206.153809,4524.743652,4469.358887,4386.153809,4471.282227,5465.000000,0.000000,10.000000,,,,0.000000,4.000000,4.000000,4.000000,4.000000,4.000000,4.000000,4.000000,4.000000,4.000000,4.000000,4.000000,4.000000,4.000000,4.000000,100.000000,,,,,,,,,,,,,,,,,,,,,,,,,,,,,,,,,,,,,,,,,,,,,,,,,,,,,,,,,,,,,,,,,,,,,,,,,,,,,,,,,,,,,,,,,,,,,,,,,,,,,,,,,,,,,,,,,,,,,,,,,,,,,,,,,
1739356739.027594,1739356739.028059,7.000000,0.000000,4256.410156,4239.743652,4274.102539,4285.897461,4237.948730,4233.589844,4221.538574,4279.358887,4220.897461,4216.153809,4542.692383,4486.538574,4398.974121,4480.641113,2059.000000,0.000000,10.000000,,,,0.000000,4.000000,4.000000,4.000000,4.000000,4.000000,4.000000,4.000000,4.000000,4.000000,4.000000,4.000000,4.000000,4.000000,4.000000,100.000000,,,,,,,,,,,,,,,,,,,,,,,,,,,,,,,,,,,,,,,,,,,,,,,,,,,,,,,,,,,,,,,,,,,,,,,,,,,,,,,,,,,,,,,,,,,,,,,,,,,,,,,,,,,,,,,,,,,,,,,,,,,,,,,,,
1739356739.035402,1739356739.035867,8.000000,0.000000,4283.846191,4267.307617,4301.153809,4306.666504,4254.871582,4250.000000,4245.641113,4289.743652,4246.666504,4242.820313,4580.769043,4513.846191,4422.051270,4507.307617,5262.000000,0.000000,10.000000,,,,0.000000,4.000000,4.000000,4.000000,4.000000,4.000000,4.000000,4.000000,4.000000,4.000000,4.000000,4.000000,4.000000,4.000000,4.000000,100.000000,1.000000,75.000000,4.000000,3.000000,3.000000,4.000000,4.000000,3.000000,3.000000,4.000000,4.000000,3.000000,4.000000,3.000000,4.000000,3.000000,2.000000,0.000000,0.686835,0.069885,-0.697144,0.193298,0.996704,-0.166036,0.025882,-43.278976,-32.845287,41.671329,,,,,,,,,,,,,,,,,,,,,,,,,,,,,,,,2.068840,1.895359,1.843597,2.193479,1.658010,0.961509,1.317678,0.722129,1.683340,1.561602,2.835015,1.209841,1.644719,1.671520,1.391685,1.515384,1.041698,0.877119,1.830207,1.645293,0.465047,0.356468,0.613227,1.121526,1.079782,0.273771,0.402502,0.418152,1.060160,1.130316,0.295286,1.315349,0.348367,1.177318,1.308863,0.071370,0.473047,0.122056,0.148580,0.232825,0.529292,1.862667,0.377682,1.131946,1.445875,0.802165,1.120647,0.654077,1.432275,1.647157,2.933683,1.848429,1.645906,1.828611,1.866613,2.274418,1.825911,2.948965,2.660124,2.022447,0.923793,0.774719,1.207527,0.987845,1.287171,1.765105,1.930058,1.333219,1.901415,1.542081
1739356739.043210,1739356739.043575,9.000000,0.000000,4278.205078,4260.897461,4296.282227,4297.948730,4253.205078,4247.179688,4244.102539,4284.871582,4248.205078,4240.384766,4582.948730,4513.077148,4420.000000,4502.436035,5604.000000,0.000000,10.000000,,,,0.000000,4.000000,4.000000,4.000000,4.000000,4.000000,4.000000,4.000000,4.000000,4.000000,4.000000,4.000000,4.000000,4.000000,4.000000,100.000000,,,,,,,,,,,,,,,,,,,,,,,,,,,,,,,,,,,,,,,,,,,,,,,,,,,,,,,,,,,,,,,,,,,,,,,,,,,,,,,,,,,,,,,,,,,,,,,,,,,,,,,,,,,,,,,,,,,,,,,,,,,,,,,,,
1739356739.051018,1739356739.051483,10.000000,0.000000,4253.846191,4238.077148,4278.846191,4279.871582,4237.436035,4235.128418,4226.282227,4280.769043,4227.179688,4223.077148,4561.538574,4497.692383,4404.230957,4485.256348,4827.000000,0.000000,10.000000,,,,0.000000,4.000000,4.000000,4.000000,4.000000,4.000000,4.000000,4.000000,4.000000,4.000000,4.000000,4.000000,4.000000,4.000000,4.000000,100.000000,,,,,,,,,,,,,,,,,,,,,,,,,,,,,,,,,,,,,,,,,,,,,,,,,,,,,,,,,,,,,,,,,,,,,,,,,,,,,,,,,,,,,,,,,,,,,,,,,,,,,,,,,,,,,,,,,,,,,,,,,,,,,,,,,
1739356739.058827,1739356739.059291,11.000000,0.000000,4266.025879,4250.256348,4294.230957,4290.512695,4240.512695,4241.666504,4236.538574,4291.538574,4235.769043,4234.102539,4578.205078,4510.128418,4413.205078,4502.179688,5614.000000,0.000000,10.000000,,,,0.000000,4.000000,4.000000,4.000000,4.000000,4.000000,4.000000,4.000000,4.000000,4.000000,4.000000,4.000000,4.000000,4.000000,4.000000,100.000000,,,,,,,,,,,,,,,,,,,,,,,,,,,,,,,,,,,,,,,,,,,,,,,,,,,,,,,,,,,,,,,,,,,,,,,,,,,,,,,,,,,,,,,,,,,,,,,,,,,,,,,,,,,,,,,,,,,,,,,,,,,,,,,,,
1739356739.066635,1739356739.067199,12.000000,0.000000,4280.000000,4255.512695,4303.333496,4297.307617,4240.641113,4240.000000,4241.922852,4290.769043,4248.846191,4240.897461,4592.948730,4518.717773,4417.692383,4510.512695,5654.000000,0.000000,10.000000,,,,0.000000,4.000000,4.000000,4.000000,4.000000,4.000000,4.000000,4.000000,4.000000,4.000000,4.000000,4.000000,4.000000,4.000000,4.000000,100.000000,,,,,,,,,,,,,,,,,3.000000,0.000000,0.686896,0.070129,-0.697144,0.192993,0.967892,-0.163594,0.015627,-43.184414,-32.910759,41.720863,,,,,,,,,,,,,,,,,,,,,,,,,,,,,,,,,,,,,,,,,,,,,,,,,,,,,,,,,,,,,,,,,,,,,,,,,,,,,,,,,,,,,,,,,,,,,,,,,,,,,
1739356739.074443,1739356739.075007,13.000000,0.000000,4258.846191,4233.077148,4280.641113,4278.077148,4219.487305,4218.717773,4216.794922,4282.307617,4232.948730,4221.410156,4574.487305,4497.563965,4401.794922,4489.615234,6479.000000,0.000000,10.000000,,,,0.000000,4.000000,4.000000,4.000000,4.000000,4.000000,4.000000,4.000000,4.000000,4.000000,4.000000,4.000000,4.000000,4.000000,4.000000,100.000000,,,,,,,,,,,,,,,,,,,,,,,,,,,,,,,,,,,,,,,,,,,,,,,,,,,,,,,,,,,,,,,,,,,,,,,,,,,,,,,,,,,,,,,,,,,,,,,,,,,,,,,,,,,,,,,,,,,,,,,,,,,,,,,,,
1739356739.082251,1739356739.082916,14.000000,0.000000,4254.230957,4234.230957,4277.692383,4277.563965,4220.384766,4223.589844,4218.846191,4287.820313,4229.743652,4222.436035,4572.307617,4493.461426,4403.461426,4486.538574,4827.000000,0.000000,10.000000,,,,0.000000,4.000000,4.000000,4.000000,4.000000,4.000000,4.000000,4.000000,4.000000,4.000000,4.000000,4.000000,4.000000,4.000000,4.000000,100.000000,,,,,,,,,,,,,,,,,,,,,,,,,,,,,,,,,,,,,,,,,,,,,,,,,,,,,,,,,,,,,,,,,,,,,,,,,,,,,,,,,,,,,,,,,,,,,,,,,,,,,,,,,,,,,,,,,,,,,,,,,,,,,,,,,
1739356739.090059,1739356739.090724,15.000000,0.000000,4272.692383,4254.743652,4297.051270,4298.589844,4243.846191,4249.358887,4248.717773,4291.282227,4243.461426,4238.589844,4582.179688,4511.538574,4417.051270,4499.230957,5614.000000,0.000000,10.000000,,,,0.000000,4.000000,4.000000,4.000000,4.000000,4.000000,4.000000,4.000000,4.000000,4.000000,4.000000,4.000000,4.000000,4.000000,4.000000,100.000000,,,,,,,,,,,,,,,,,,,,,,,,,,,,,,,,,,,,,,,,,,,,,,,,,,,,,,,,,,,,,,,,,,,,,,,,,,,,,,,,,,,,,,,,,,,,,,,,,,,,,,,,,,,,,,,,,,,,,,,,,,,,,,,,,
1739356739.097867,1739356739.098532,16.000000,0.000000,4272.051270,4255.641113,4294.871582,4301.666504,4246.922852,4255.641113,4254.358887,4282.307617,4236.922852,4230.769043,4575.512695,4508.717773,4414.871582,4497.563965,0.000000,0.000000,10.000000,,,,0.000000,4.000000,4.000000,4.000000,4.000000,4.000000,4.000000,4.000000,4.000000,4.000000,4.000000,4.000000,4.000000,4.000000,4.000000,100.000000,,,,,,,,,,,,,,,,,4.000000,0.000000,0.687074,0.070435,-0.697021,0.192688,0.975705,-0.144061,0.027835,-43.099304,-33.053017,41.765442,,,,,,,,,,,,,,,,,,,,,,,,,,,,,,,,,,,,,,,,,,,,,,,,,,,,,,,,,,,,,,,,,,,,,,,,,,,,,,,,,,,,,,,,,,,,,,,,,,,,,
1739356739.105675,1739356739.106240,17.000000,0.000000,4256.538574,4242.179688,4278.846191,4288.589844,4232.948730,4245.384766,4238.333496,4272.820313,4216.666504,4213.461426,4568.205078,4487.820313,4402.436035,4483.077148,0.000000,0.000000,10.000000,,,,0.000000,4.000000,4.000000,4.000000,4.000000,4.000000,4.000000,4.000000,4.000000,4.000000,4.000000,4.000000,4.000000,4.000000,4.000000,100.000000,,,,,,,,,,,,,,,,,,,,,,,,,,,,,,,,,,,,,,,,,,,,,,,,,,,,,,,,,,,,,,,,,,,,,,,,,,,,,,,,,,,,,,,,,,,,,,,,,,,,,,,,,,,,,,,,,,,,,,,,,,,,,,,,,
1739356739.113483,1739356739.114148,18.000000,0.000000,4254.230957,4240.512695,4282.051270,4286.922852,4230.128418,4240.000000,4232.179688,4270.641113,4208.333496,4209.487305,4570.897461,4486.794922,4397.179688,4477.307617,0.000000,0.000000,10.000000,,,,0.000000,4.000000,4.000000,4.000000,4.000000,4.000000,4.000000,4.000000,4.000000,4.000000,4.000000,4.000000,4.000000,4.000000,4.000000,100.000000,,,,,,,,,,,,,,,,,,,,,,,,,,,,,,,,,,,,,,,,,,,,,,,,,,,,,,,,,,,,,,,,,,,,,,,,,,,,,,,,,,,,,,,,,,,,,,,,,,,,,,,,,,,,,,,,,,,,,,,,,,,,,,,,,
1739356739.121291,1739356739.121956,19.000000,0.000000,4263.846191,4250.000000,4296.794922,4296.410156,4238.205078,4241.410156,4237.307617,4277.692383,4216.538574,4213.461426,4573.974121,4505.512695,4399.743652,4485.384766,0.000000,0.000000,10.000000,,,,0.000000,4.000000,4.000000,4.000000,4.000000,4.000000,4.000000,4.000000,4.000000,4.000000,4.000000,4.000000,4.000000,4.000000,4.000000,100.000000,,,,,,,,,,,,,,,,,,,,,,,,,,,,,,,,,,,,,,,,,,,,,,,,,,,,,,,,,,,,,,,,,,,,,,,,,,,,,,,,,,,,,,,,,,,,,,,,,,,,,,,,,,,,,,,,,,,,,,,,,,,,,,,,,
1739356739.129099,1739356739.129865,20.000000,0.000000,4265.000000,4249.743652,4299.871582,4297.051270,4238.333496,4238.846191,4232.948730,4283.717773,4223.846191,4215.384766,4571.153809,4511.153809,4396.410156,4487.820313,0.000000,0.000000,10.000000,,,,0.000000,4.000000,4.000000,4.000000,4.000000,4.000000,4.000000,4.000000,4.000000,4.000000,4.000000,4.000000,4.000000,4.000000,4.000000,100.000000,,,,,,,,,,,,,,,,,5.000000,0.000000,0.687233,0.070435,-0.696899,0.192566,0.982053,-0.156269,0.029789,-43.006042,-33.114384,41.755566,,,,,,,,,,,,,,,,,,,,,,,,,,,,,,,,,,,,,,,,,,,,,,,,,,,,,,,,,,,,,,,,,,,,,,,,,,,,,,,,,,,,,,,,,,,,,,,,,,,,,
1739356739.136907,1739356739.137673,21.000000,0.000000,4250.512695,4235.128418,4286.922852,4282.692383,4223.461426,4225.256348,4217.436035,4277.179688,4216.538574,4207.307617,4558.589844,4494.102539,4386.410156,4473.077148,0.000000,0.000000,10.000000,,,,0.000000,4.000000,4.000000,4.000000,4.000000,4.000000,4.000000,4.000000,4.000000,4.000000,4.000000,4.000000,4.000000,4.000000,4.000000,100.000000,,,,,,,,,,,,,,,,,,,,,,,,,,,,,,,,,,,,,,,,,,,,,,,,,,,,,,,,,,,,,,,,,,,,,,,,,,,,,,,,,,,,,,,,,,,,,,,,,,,,,,,,,,,,,,,,,,,,,,,,,,,,,,,,,
1739356739.144715,1739356739.145581,22.000000,0.000000,4250.000000,4232.820313,4284.743652,4279.487305,4219.487305,4223.717773,4219.487305,4277.307617,4221.538574,4211.794922,4561.666504,4493.846191,4392.563965,4476.153809,0.000000,0.000000,10.000000,,,,0.000000,4.000000,4.000000,4.000000,4.000000,4.000000,4.000000,4.000000,4.000000,4.000000,4.000000,4.000000,4.000000,4.000000,4.000000,100.000000,,,,,,,,,,,,,,,,,,,,,,,,,,,,,,,,,,,,,,,,,,,,,,,,,,,,,,,,,,,,,,,,,,,,,,,,,,,,,,,,,,,,,,,,,,,,,,,,,,,,,,,,,,,,,,,,,,,,,,,,,,,,,,,,,
1739356739.152523,1739356739.153389,23.000000,0.000000,4276.282227,4252.051270,4307.692383,4299.615234,4237.051270,4242.820313,4239.871582,4289.230957,4250.128418,4244.615234,4589.743652,4525.128418,4415.512695,4505.000000,0.000000,0.000000,10.000000,,,,0.000000,4.000000,4.000000,4.000000,4.000000,4.000000,4.000000,4.000000,4.000000,4.000000,4.000000,4.000000,4.000000,4.000000,4.000000,100.000000,,,,,,,,,,,,,,,,,,,,,,,,,,,,,,,,,,,,,,,,,,,,,,,,,,,,,,,,,,,,,,,,,,,,,,,,,,,,,,,,,,,,,,,,,,,,,,,,,,,,,,,,,,,,,,,,,,,,,,,,,,,,,,,,,
1739356739.160332,1739356739.161297,24.000000,0.000000,4277.563965,4252.436035,4306.153809,4298.846191,4236.538574,4240.769043,4236.410156,4285.256348,4251.538574,4251.025879,4593.461426,4528.461426,4414.102539,4505.769043,0.000000,0.000000,10.000000,,,,0.000000,4.000000,4.000000,4.000000,4.000000,4.000000,4.000000,4.000000,4.000000,4.000000,4.000000,4.000000,4.000000,4.000000,4.000000,100.000000,,,,,,,,,,,,,,,,,6.000000,0.000000,0.687057,0.069763,-0.697021,0.192993,0.987425,-0.167989,0.019534,-42.988770,-33.186275,41.763340,,,,,,,,,,,,,,,,,,,,,,,,,,,,,,,,2.321653,2.021568,2.423235,2.557609,1.778950,1.158625,1.351873,0.995737,1.804109,1.639538,3.296139,1.311074,2.096253,1.965891,1.493576,1.924248,1.097384,1.208111,2.010721,1.730404,0.456325,0.321329,0.753570,1.126384,1.120620,0.194939,0.408432,0.521873,1.037965,1.134841,0.299144,1.411031,0.465539,1.273270,1.272124,0.092428,0.483614,0.144444,0.182666,0.244653,0.483526,1.864682,0.469828,1.278936,1.553151,0.767655,0.957949,0.767008,1.600657,1.778841,3.027453,1.757689,2.028710,2.169219,1.957124,2.614019,1.956856,3.691413,3.187430,2.110542,0.926079,0.896886,1.362894,1.164486,1.419768,2.121823,2.012282,1.768483,2.290193,1.680564
1739356739.168140,1739356739.169105,25.000000,0.000000,4263.333496,4243.205078,4285.256348,4283.077148,4227.563965,4231.025879,4227.948730,4280.256348,4238.589844,4233.846191,4586.922852,4508.717773,4400.641113,4494.615234,0.000000,0.000000,10.000000,,,,0.000000,4.000000,4.000000,4.000000,4.000000,4.000000,4.000000,4.000000,4.000000,4.000000,4.000000,4.000000,4.000000,4.000000,4.000000,100.000000,,,,,,,,,,,,,,,,,,,,,,,,,,,,,,,,,,,,,,,,,,,,,,,,,,,,,,,,,,,,,,,,,,,,,,,,,,,,,,,,,,,,,,,,,,,,,,,,,,,,,,,,,,,,,,,,,,,,,,,,,,,,,,,,,
1739356739.175948,1739356739.177013,26.000000,0.000000,4261.282227,4238.461426,4282.820313,4276.922852,4228.717773,4232.307617,4228.717773,4284.487305,4241.922852,4231.538574,4587.563965,4504.487305,4396.794922,4490.641113,0.000000,0.000000,10.000000,,,,0.000000,4.000000,4.000000,4.000000,4.000000,4.000000,4.000000,4.000000,4.000000,4.000000,4.000000,4.000000,4.000000,4.000000,4.000000,100.000000,,,,,,,,,,,,,,,,,,,,,,,,,,,,,,,,,,,,,,,,,,,,,,,,,,,,,,,,,,,,,,,,,,,,,,,,,,,,,,,,,,,,,,,,,,,,,,,,,,,,,,,,,,,,,,,,,,,,,,,,,,,,,,,,,
1739356739.183756,1739356739.184821,27.000000,0.000000,4245.256348,4218.974121,4279.743652,4263.589844,4217.051270,4221.794922,4215.128418,4280.256348,4235.128418,4221.666504,4567.179688,4495.128418,4387.692383,4471.282227,0.000000,0.000000,10.000000,,,,0.000000,4.000000,4.000000,4.000000,4.000000,4.000000,4.000000,4.000000,4.000000,4.000000,4.000000,4.000000,4.000000,4.000000,4.000000,100.000000,,,,,,,,,,,,,,,,,,,,,,,,,,,,,,,,,,,,,,,,,,,,,,,,,,,,,,,,,,,,,,,,,,,,,,,,,,,,,,,,,,,,,,,,,,,,,,,,,,,,,,,,,,,,,,,,,,,,,,,,,,,,,,,,,
1739356739.191564,1739356739.192529,28.000000,0.000000,4242.179688,4220.384766,4280.897461,4268.717773,4219.743652,4225.000000,4220.512695,4281.410156,4232.692383,4219.102539,4558.333496,4494.743652,4393.077148,4467.051270,0.000000,0.000000,10.000000,,,,0.000000,4.000000,4.000000,4.000000,4.000000,4.000000,4.000000,4.000000,4.000000,4.000000,4.000000,4.000000,4.000000,4.000000,4.000000,100.000000,,,,,,,,,,,,,,,,,7.000000,0.000000,0.686981,0.069397,-0.697083,0.193176,0.961055,-0.168478,0.034184,-43.156559,-33.300983,41.720341,,,,,,,,,,,,,,,,,,,,,,,,,,,,,,,,,,,,,,,,,,,,,,,,,,,,,,,,,,,,,,,,,,,,,,,,,,,,,,,,,,,,,,,,,,,,,,,,,,,,,
1739356739.199372,1739356739.200437,29.000000,0.000000,4265.384766,4247.820313,4300.384766,4298.205078,4246.282227,4252.436035,4246.538574,4290.769043,4244.487305,4233.461426,4576.922852,4514.615234,4406.922852,4487.307617,0.000000,0.000000,10.000000,,,,0.000000,4.000000,4.000000,4.000000,4.000000,4.000000,4.000000,4.000000,4.000000,4.000000,4.000000,4.000000,4.000000,4.000000,4.000000,100.000000,,,,,,,,,,,,,,,,,,,,,,,,,,,,,,,,,,,,,,,,,,,,,,,,,,,,,,,,,,,,,,,,,,,,,,,,,,,,,,,,,,,,,,,,,,,,,,,,,,,,,,,,,,,,,,,,,,,,,,,,,,,,,,,,,
1739356739.207180,1739356739.208246,30.000000,0.000000,4260.641113,4244.487305,4302.820313,4299.358887,4244.358887,4250.256348,4240.769043,4286.153809,4232.307617,4225.000000,4576.025879,4512.179688,4396.025879,4483.333496,0.000000,0.000000,10.000000,,,,0.000000,4.000000,4.000000,4.000000,4.000000,4.000000,4.000000,4.000000,4.000000,4.000000,4.000000,4.000000,4.000000,4.000000,4.000000,100.000000,,,,,,,,,,,,,,,,,,,,,,,,,,,,,,,,,,,,,,,,,,,,,,,,,,,,,,,,,,,,,,,,,,,,,,,,,,,,,,,,,,,,,,,,,,,,,,,,,,,,,,,,,,,,,,,,,,,,,,,,,,,,,,,,,
1739356739.214988,1739356739.216054,31.000000,0.000000,4242.948730,4226.922852,4291.153809,4285.384766,4227.436035,4232.948730,4229.230957,4285.769043,4225.769043,4220.897461,4568.077148,4500.384766,4391.282227,4471.282227,0.000000,0.000000,10.000000,,,,0.000000,4.000000,4.000000,4.000000,4.000000,4.000000,4.000000,4.000000,4.000000,4.000000,4.000000,4.000000,4.000000,4.000000,4.000000,100.000000,,,,,,,,,,,,,,,,,,,,,,,,,,,,,,,,,,,,,,,,,,,,,,,,,,,,,,,,,,,,,,,,,,,,,,,,,,,,,,,,,,,,,,,,,,,,,,,,,,,,,,,,,,,,,,,,,,,,,,,,,,,,,,,,,
1739356739.222796,1739356739.223762,32.000000,0.000000,4246.538574,4230.256348,4291.025879,4289.102539,4228.077148,4232.307617,4242.692383,4297.820313,4243.846191,4242.179688,4572.692383,4504.487305,4400.384766,4478.974121,0.000000,0.000000,10.000000,,,,0.000000,4.000000,4.000000,4.000000,4.000000,4.000000,4.000000,4.000000,4.000000,4.000000,4.000000,4.000000,4.000000,4.000000,4.000000,100.000000,,,,,,,,,,,,,,,,,8.000000,0.000000,0.686865,0.068909,-0.697144,0.193542,0.982542,-0.170431,0.025882,-43.240906,-33.254219,41.964973,,,,,,,,,,,,,,,,,,,,,,,,,,,,,,,,,,,,,,,,,,,,,,,,,,,,,,,,,,,,,,,,,,,,,,,,,,,,,,,,,,,,,,,,,,,,,,,,,,,,,
1739356739.230604,1739356739.231570,33.000000,0.000000,4251.922852,4236.025879,4298.077148,4295.256348,4234.743652,4237.051270,4250.384766,4304.102539,4255.897461,4254.487305,4580.256348,4518.333496,4406.922852,4487.436035,0.000000,0.000000,10.000000,,,,0.000000,4.000000,4.000000,4.000000,4.000000,4.000000,4.000000,4.000000,4.000000,4.000000,4.000000,4.000000,4.000000,4.000000,4.000000,100.000000,,,,,,,,,,,,,,,,,,,,,,,,,,,,,,,,,,,,,,,,,,,,,,,,,,,,,,,,,,,,,,,,,,,,,,,,,,,,,,,,,,,,,,,,,,,,,,,,,,,,,,,,,,,,,,,,,,,,,,,,,,,,,,,,,
1739356739.238412,1739356739.239278,34.000000,0.000000,4252.307617,4230.769043,4302.436035,4292.436035,4232.563965,4236.538574,4239.743652,4301.794922,4258.717773,4253.461426,4587.307617,4527.820313,4408.461426,4490.512695,0.000000,0.000000,10.000000,,,,0.000000,4.000000,4.000000,4.000000,4.000000,4.000000,4.000000,4.000000,4.000000,4.000000,4.000000,4.000000,4.000000,4.000000,4.000000,100.000000,,,,,,,,,,,,,,,,,,,,,,,,,,,,,,,,,,,,,,,,,,,,,,,,,,,,,,,,,,,,,,,,,,,,,,,,,,,,,,,,,,,,,,,,,,,,,,,,,,,,,,,,,,,,,,,,,,,,,,,,,,,,,,,,,
1739356739.246220,1739356739.247186,35.000000,0.000000,4243.077148,4216.153809,4291.794922,4278.333496,4216.794922,4219.487305,4219.743652,4293.974121,4248.333496,4237.436035,4572.179688,4511.025879,4394.230957,4481.282227,0.000000,0.000000,10.000000,,,,0.000000,4.000000,4.000000,4.000000,4.000000,4.000000,4.000000,4.000000,4.000000,4.000000,4.000000,4.000000,4.000000,4.000000,4.000000,100.000000,,,,,,,,,,,,,,,,,,,,,,,,,,,,,,,,,,,,,,,,,,,,,,,,,,,,,,,,,,,,,,,,,,,,,,,,,,,,,,,,,,,,,,,,,,,,,,,,,,,,,,,,,,,,,,,,,,,,,,,,,,,,,,,,,
1739356739.254028,1739356739.254994,36.000000,0.000000,4239.615234,4217.948730,4285.641113,4273.846191,4214.358887,4213.974121,4214.358887,4294.102539,4234.743652,4224.743652,4562.820313,4498.589844,4387.948730,4477.692383,0.000000,0.000000,10.000000,,,,0.000000,4.000000,4.000000,4.000000,4.000000,4.000000,4.000000,4.000000,4.000000,4.000000,4.000000,4.000000,4.000000,4.000000,4.000000,100.000000,,,,,,,,,,,,,,,,,9.000000,0.000000,0.686780,0.068481,-0.697083,0.194214,0.987914,-0.190941,0.019534,-43.283482,-33.195461,42.035141,,,,,,,,,,,,,,,,,,,,,,,,,,,,,,,,,,,,,,,,,,,,,,,,,,,,,,,,,,,,,,,,,,,,,,,,,,,,,,,,,,,,,,,,,,,,,,,,,,,,,
1739356739.261837,1739356739.262802,37.000000,0.000000,4262.436035,4243.461426,4303.717773,4297.307617,4236.410156,4239.358887,4232.563965,4303.205078,4245.897461,4242.820313,4587.692383,4520.384766,4408.846191,4499.102539,0.000000,0.000000,10.000000,,,,0.000000,4.000000,4.000000,4.000000,4.000000,4.000000,4.000000,4.000000,4.000000,4.000000,4.000000,4.000000,4.000000,4.000000,4.000000,100.000000,,,,,,,,,,,,,,,,,,,,,,,,,,,,,,,,,,,,,,,,,,,,,,,,,,,,,,,,,,,,,,,,,,,,,,,,,,,,,,,,,,,,,,,,,,,,,,,,,,,,,,,,,,,,,,,,,,,,,,,,,,,,,,,,,
1739356739.269645,1739356739.270510,38.000000,0.000000,4271.666504,4247.820313,4308.717773,4304.743652,4241.282227,4246.666504,4238.974121,4300.128418,4253.333496,4245.512695,4591.538574,4525.769043,4412.563965,4506.922852,0.000000,0.000000,10.000000,,,,0.000000,4.000000,4.000000,4.000000,4.000000,4.000000,4.000000,4.000000,4.000000,4.000000,4.000000,4.000000,4.000000,4.000000,4.000000,100.000000,,,,,,,,,,,,,,,,,,,,,,,,,,,,,,,,,,,,,,,,,,,,,,,,,,,,,,,,,,,,,,,,,,,,,,,,,,,,,,,,,,,,,,,,,,,,,,,,,,,,,,,,,,,,,,,,,,,,,,,,,,,,,,,,,
1739356739.277453,1739356739.278318,39.000000,0.000000,4251.025879,4229.358887,4290.769043,4282.820313,4226.666504,4230.769043,4228.717773,4287.820313,4230.128418,4218.333496,4566.666504,4498.461426,4392.179688,4487.179688,0.000000,0.000000,10.000000,,,,0.000000,4.000000,4.000000,4.000000,4.000000,4.000000,4.000000,4.000000,4.000000,4.000000,4.000000,4.000000,4.000000,4.000000,4.000000,100.000000,,,,,,,,,,,,,,,,,,,,,,,,,,,,,,,,,,,,,,,,,,,,,,,,,,,,,,,,,,,,,,,,,,,,,,,,,,,,,,,,,,,,,,,,,,,,,,,,,,,,,,,,,,,,,,,,,,,,,,,,,,,,,,,,,
1739356739.285261,1739356739.286027,40.000000,0.000000,4243.589844,4229.102539,4282.820313,4274.615234,4228.461426,4232.307617,4228.974121,4285.384766,4213.589844,4208.974121,4564.358887,4484.743652,4387.179688,4478.333496,0.000000,0.000000,10.000000,,,,0.000000,4.000000,4.000000,4.000000,4.000000,4.000000,4.000000,4.000000,4.000000,4.000000,4.000000,4.000000,4.000000,4.000000,4.000000,100.000000,,,,,,,,,,,,,,,,,10.000000,0.000000,0.686696,0.068115,-0.697083,0.194641,0.963985,-0.177268,0.024905,-43.288467,-33.142582,41.931629,,,,,,,,,,,,,,,,,,,,,,,,,,,,,,,,2.412433,2.144252,2.806357,2.846162,1.836139,1.320526,1.435503,1.253870,1.901002,1.675187,3.397832,1.467999,2.366338,2.207335,1.547427,2.164829,1.224012,1.465238,2.167438,1.758429,0.439532,0.294716,0.861303,1.153956,1.145393,0.148008,0.385223,0.613940,1.017349,1.110411,0.345107,1.374189,0.597861,1.394322,1.239176,0.128721,0.470798,0.169664,0.221069,0.258676,0.429738,1.818421,0.553958,1.486693,1.610190,0.732304,0.830824,0.879222,1.783821,1.865782,2.893190,1.736669,2.300602,2.447677,1.969715,2.817067,2.173436,4.102673,3.656786,2.145411,0.922721,1.033415,1.413635,1.361523,1.493417,2.324383,2.042891,2.078686,2.629958,1.772373
1739356739.293069,1739356739.293834,41.000000,0.000000,4249.615234,4234.487305,4284.871582,4280.384766,4235.256348,4238.974121,4234.871582,4289.102539,4221.153809,4216.410156,4573.717773,4487.436035,4390.897461,4485.641113,0.000000,0.000000,10.000000,,,,0.000000,4.000000,4.000000,4.000000,4.000000,4.000000,4.000000,4.000000,4.000000,4.000000,4.000000,4.000000,4.000000,4.000000,4.000000,100.000000,,,,,,,,,,,,,,,,,,,,,,,,,,,,,,,,,,,,,,,,,,,,,,,,,,,,,,,,,,,,,,,,,,,,,,,,,,,,,,,,,,,,,,,,,,,,,,,,,,,,,,,,,,,,,,,,,,,,,,,,,,,,,,,,,
1739356739.300877,1739356739.301543,42.000000,0.000000,4241.666504,4227.307617,4283.333496,4279.230957,4231.794922,4234.615234,4233.077148,4292.307617,4233.077148,4220.769043,4572.820313,4487.436035,4392.692383,4486.025879,0.000000,0.000000,10.000000,,,,0.000000,4.000000,4.000000,4.000000,4.000000,4.000000,4.000000,4.000000,4.000000,4.000000,4.000000,4.000000,4.000000,4.000000,4.000000,100.000000,,,,,,,,,,,,,,,,,,,,,,,,,,,,,,,,,,,,,,,,,,,,,,,,,,,,,,,,,,,,,,,,,,,,,,,,,,,,,,,,,,,,,,,,,,,,,,,,,,,,,,,,,,,,,,,,,,,,,,,,,,,,,,,,,
1739356739.308685,1739356739.309451,43.000000,0.000000,4233.589844,4222.307617,4284.615234,4276.025879,4227.820313,4233.333496,4228.846191,4297.948730,4241.410156,4234.871582,4578.077148,4488.589844,4395.769043,4481.794922,0.000000,0.000000,10.000000,,,,0.000000,4.000000,4.000000,4.000000,4.000000,4.000000,4.000000,4.000000,4.000000,4.000000,4.000000,4.000000,4.000000,4.000000,4.000000,100.000000,,,,,,,,,,,,,,,,,,,,,,,,,,,,,,,,,,,,,,,,,,,,,,,,,,,,,,,,,,,,,,,,,,,,,,,,,,,,,,,,,,,,,,,,,,,,,,,,,,,,,,,,,,,,,,,,,,,,,,,,,,,,,,,,,
1739356739.316493,1739356739.317259,44.000000,0.000000,4240.769043,4223.717773,4289.230957,4275.897461,4229.615234,4232.948730,4229.615234,4297.436035,4248.077148,4248.974121,4589.871582,4493.077148,4397.307617,4484.358887,0.000000,0.000000,10.000000,,,,0.000000,4.000000,4.000000,4.000000,4.000000,4.000000,4.000000,4.000000,4.000000,4.000000,4.000000,4.000000,4.000000,4.000000,4.000000,100.000000,,,,,,,,,,,,,,,,,11.000000,0.000000,0.686831,0.068176,-0.696960,0.194580,0.983518,-0.181174,0.020510,-43.192951,-33.128326,42.088467,,,,,,,,,,,,,,,,,,,,,,,,,,,,,,,,,,,,,,,,,,,,,,,,,,,,,,,,,,,,,,,,,,,,,,,,,,,,,,,,,,,,,,,,,,,,,,,,,,,,,
1739356739.324301,1739356739.325167,45.000000,0.000000,4255.256348,4232.307617,4299.358887,4284.871582,4237.436035,4236.922852,4237.820313,4293.717773,4258.717773,4254.102539,4602.692383,4502.948730,4405.000000,4495.897461,0.000000,0.000000,10.000000,,,,0.000000,4.000000,4.000000,4.000000,4.000000,4.000000,4.000000,4.000000,4.000000,4.000000,4.000000,4.000000,4.000000,4.000000,4.000000,100.000000,,,,,,,,,,,,,,,,,,,,,,,,,,,,,,,,,,,,,,,,,,,,,,,,,,,,,,,,,,,,,,,,,,,,,,,,,,,,,,,,,,,,,,,,,,,,,,,,,,,,,,,,,,,,,,,,,,,,,,,,,,,,,,,,,
1739356739.332109,1739356739.332975,46.000000,0.000000,4247.307617,4225.897461,4296.282227,4283.077148,4227.179688,4230.000000,4226.666504,4290.512695,4249.743652,4245.128418,4598.461426,4496.538574,4400.512695,4493.077148,0.000000,0.000000,10.000000,,,,0.000000,4.000000,4.000000,4.000000,4.000000,4.000000,4.000000,4.000000,4.000000,4.000000,4.000000,4.000000,4.000000,4.000000,4.000000,100.000000,,,,,,,,,,,,,,,,,,,,,,,,,,,,,,,,,,,,,,,,,,,,,,,,,,,,,,,,,,,,,,,,,,,,,,,,,,,,,,,,,,,,,,,,,,,,,,,,,,,,,,,,,,,,,,,,,,,,,,,,,,,,,,,,,
1739356739.339918,1739356739.340883,47.000000,0.000000,4238.974121,4217.692383,4291.025879,4277.820313,4217.692383,4220.897461,4215.256348,4289.487305,4236.794922,4234.487305,4594.743652,4489.487305,4395.897461,4488.589844,0.000000,0.000000,10.000000,,,,0.000000,4.000000,4.000000,4.000000,4.000000,4.000000,4.000000,4.000000,4.000000,4.000000,4.000000,4.000000,4.000000,4.000000,4.000000,100.000000,,,,,,,,,,,,,,,,,,,,,,,,,,,,,,,,,,,,,,,,,,,,,,,,,,,,,,,,,,,,,,,,,,,,,,,,,,,,,,,,,,,,,,,,,,,,,,,,,,,,,,,,,,,,,,,,,,,,,,,,,,,,,,,,,
1739356739.347726,1739356739.348692,48.000000,0.000000,4263.974121,4241.794922,4310.256348,4300.384766,4238.205078,4238.846191,4236.666504,4292.179688,4252.179688,4246.153809,4616.410156,4510.000000,4413.205078,4506.794922,0.000000,0.000000,10.000000,,,,0.000000,4.000000,4.000000,4.000000,4.000000,4.000000,4.000000,4.000000,4.000000,4.000000,4.000000,4.000000,4.000000,4.000000,4.000000,100.000000,,,,,,,,,,,,,,,,,12.000000,0.000000,0.687051,0.068420,-0.696838,0.194153,0.984495,-0.170919,0.031254,-43.223656,-33.098827,42.079620,,,,,,,,,,,,,,,,,,,,,,,,,,,,,,,,,,,,,,,,,,,,,,,,,,,,,,,,,,,,,,,,,,,,,,,,,,,,,,,,,,,,,,,,,,,,,,,,,,,,,
1739356739.355533,1739356739.356599,49.000000,0.000000,4282.051270,4261.922852,4321.922852,4319.615234,4249.871582,4255.000000,4249.230957,4292.692383,4255.897461,4251.282227,4620.512695,4522.307617,4421.794922,4516.153809,0.000000,0.000000,10.000000,,,,0.000000,4.000000,4.000000,4.000000,4.000000,4.000000,4.000000,4.000000,4.000000,4.000000,4.000000,4.000000,4.000000,4.000000,4.000000,100.000000,,,,,,,,,,,,,,,,,,,,,,,,,,,,,,,,,,,,,,,,,,,,,,,,,,,,,,,,,,,,,,,,,,,,,,,,,,,,,,,,,,,,,,,,,,,,,,,,,,,,,,,,,,,,,,,,,,,,,,,,,,,,,,,,,
1739356739.363342,1739356739.364407,50.000000,0.000000,4271.410156,4252.051270,4314.230957,4310.897461,4235.769043,4245.256348,4233.717773,4287.692383,4231.666504,4233.717773,4593.846191,4506.282227,4408.717773,4508.846191,0.000000,0.000000,10.000000,,,,0.000000,4.000000,4.000000,4.000000,4.000000,4.000000,4.000000,4.000000,4.000000,4.000000,4.000000,4.000000,4.000000,4.000000,4.000000,100.000000,,,,,,,,,,,,,,,,,,,,,,,,,,,,,,,,,,,,,,,,,,,,,,,,,,,,,,,,,,,,,,,,,,,,,,,,,,,,,,,,,,,,,,,,,,,,,,,,,,,,,,,,,,,,,,,,,,,,,,,,,,,,,,,,,
1739356739.371150,1739356739.372115,51.000000,0.000000,4260.641113,4242.563965,4305.897461,4298.717773,4229.871582,4233.846191,4224.487305,4281.666504,4222.948730,4223.846191,4577.436035,4488.974121,4400.512695,4502.436035,0.000000,0.000000,10.000000,,,,0.000000,4.000000,4.000000,4.000000,4.000000,4.000000,4.000000,4.000000,4.000000,4.000000,4.000000,4.000000,4.000000,4.000000,4.000000,100.000000,,,,,,,,,,,,,,,,,,,,,,,,,,,,,,,,,,,,,,,,,,,,,,,,,,,,,,,,,,,,,,,,,,,,,,,,,,,,,,,,,,,,,,,,,,,,,,,,,,,,,,,,,,,,,,,,,,,,,,,,,,,,,,,,,
1739356739.378958,1739356739.379923,52.000000,0.000000,4268.717773,4253.846191,4303.846191,4303.205078,4238.974121,4238.589844,4230.128418,4284.743652,4239.102539,4235.897461,4587.692383,4492.179688,4408.589844,4503.077148,0.000000,0.000000,10.000000,,,,0.000000,4.000000,4.000000,4.000000,4.000000,4.000000,4.000000,4.000000,4.000000,4.000000,4.000000,4.000000,4.000000,4.000000,4.000000,100.000000,,,,,,,,,,,,,,,,,13.000000,0.000000,0.687541,0.068787,-0.696472,0.193604,0.979123,-0.174338,0.020022,-43.101292,-33.005611,42.004990,,,,,,,,,,,,,,,,,,,,,,,,,,,,,,,,,,,,,,,,,,,,,,,,,,,,,,,,,,,,,,,,,,,,,,,,,,,,,,,,,,,,,,,,,,,,,,,,,,,,,
1739356739.386766,1739356739.387631,53.000000,0.000000,4265.128418,4249.615234,4295.256348,4296.794922,4229.102539,4232.948730,4218.077148,4285.641113,4236.025879,4236.153809,4588.461426,4489.871582,4407.307617,4496.153809,0.000000,0.000000,10.000000,,,,0.000000,4.000000,4.000000,4.000000,4.000000,4.000000,4.000000,4.000000,4.000000,4.000000,4.000000,4.000000,4.000000,4.000000,4.000000,100.000000,,,,,,,,,,,,,,,,,,,,,,,,,,,,,,,,,,,,,,,,,,,,,,,,,,,,,,,,,,,,,,,,,,,,,,,,,,,,,,,,,,,,,,,,,,,,,,,,,,,,,,,,,,,,,,,,,,,,,,,,,,,,,,,,,
1739356739.394574,1739356739.395439,54.000000,0.000000,4247.436035,4224.743652,4284.102539,4276.025879,4210.641113,4214.743652,4201.025879,4279.102539,4214.615234,4215.128418,4569.358887,4471.666504,4390.897461,4483.846191,0.000000,0.000000,10.000000,,,,0.000000,4.000000,4.000000,4.000000,4.000000,4.000000,4.000000,4.000000,4.000000,4.000000,4.000000,4.000000,4.000000,4.000000,4.000000,100.000000,,,,,,,,,,,,,,,,,,,,,,,,,,,,,,,,,,,,,,,,,,,,,,,,,,,,,,,,,,,,,,,,,,,,,,,,,,,,,,,,,,,,,,,,,,,,,,,,,,,,,,,,,,,,,,,,,,,,,,,,,,,,,,,,,
1739356739.402382,1739356739.403148,55.000000,0.000000,4255.128418,4228.461426,4293.333496,4280.512695,4220.128418,4220.512695,4213.846191,4280.384766,4217.179688,4215.000000,4567.051270,4474.358887,4391.538574,4488.846191,0.000000,0.000000,10.000000,,,,0.000000,4.000000,4.000000,4.000000,4.000000,4.000000,4.000000,4.000000,4.000000,4.000000,4.000000,4.000000,4.000000,4.000000,4.000000,100.000000,,,,,,,,,,,,,,,,,,,,,,,,,,,,,,,,,,,,,,,,,,,,,,,,,,,,,,,,,,,,,,,,,,,,,,,,,,,,,,,,,,,,,,,,,,,,,,,,,,,,,,,,,,,,,,,,,,,,,,,,,,,,,,,,,
1739356739.410190,1739356739.410955,56.000000,0.000000,4281.794922,4256.794922,4314.230957,4307.820313,4242.051270,4245.384766,4238.333496,4289.615234,4243.077148,4245.256348,4588.077148,4504.230957,4414.743652,4511.025879,0.000000,0.000000,10.000000,,,,0.000000,4.000000,4.000000,4.000000,4.000000,4.000000,4.000000,4.000000,4.000000,4.000000,4.000000,4.000000,4.000000,4.000000,4.000000,100.000000,,,,,,,,,,,,,,,,,14.000000,0.000000,0.688047,0.069153,-0.696106,0.192993,0.986937,-0.161641,0.027835,-42.957829,-32.938381,41.921158,,,,,,,,,,,,,,,,,,,,,,,,,,,,,,,,2.320491,2.222402,2.890597,2.945700,1.819601,1.400451,1.522379,1.428196,1.934485,1.661089,3.130788,1.618980,2.372318,2.315289,1.542045,2.158839,1.330605,1.571037,2.236625,1.723344,0.420541,0.282254,0.901826,1.183699,1.147158,0.136407,0.341190,0.671872,1.003886,1.060099,0.428614,1.210721,0.701836,1.508914,1.216611,0.190793,0.435982,0.197043,0.251180,0.272476,0.402921,1.726224,0.592557,1.668748,1.601253,0.728466,0.769767,0.931481,1.897436,1.886972,2.588624,1.762651,2.346476,2.560743,1.900803,2.804004,2.360958,4.021393,3.897230,2.129142,0.942850,1.155963,1.341432,1.510134,1.488761,2.330008,2.033456,2.171317,2.794939,1.796474
1739356739.417998,1739356739.418664,57.000000,0.000000,4285.769043,4260.897461,4315.769043,4313.461426,4239.871582,4243.205078,4236.922852,4289.615234,4251.410156,4257.436035,4594.615234,4512.948730,4418.205078,4518.461426,0.000000,0.000000,10.000000,,,,0.000000,4.000000,4.000000,4.000000,4.000000,4.000000,4.000000,4.000000,4.000000,4.000000,4.000000,4.000000,4.000000,4.000000,4.000000,100.000000,,,,,,,,,,,,,,,,,,,,,,,,,,,,,,,,,,,,,,,,,,,,,,,,,,,,,,,,,,,,,,,,,,,,,,,,,,,,,,,,,,,,,,,,,,,,,,,,,,,,,,,,,,,,,,,,,,,,,,,,,,,,,,,,,
1739356739.425806,1739356739.426472,58.000000,0.000000,4272.307617,4249.743652,4307.436035,4300.000000,4227.179688,4225.769043,4222.436035,4282.948730,4242.436035,4242.051270,4580.000000,4502.179688,4406.282227,4506.666504,0.000000,0.000000,10.000000,,,,0.000000,4.000000,4.000000,4.000000,4.000000,4.000000,4.000000,4.000000,4.000000,4.000000,4.000000,4.000000,4.000000,4.000000,4.000000,100.000000,,,,,,,,,,,,,,,,,,,,,,,,,,,,,,,,,,,,,,,,,,,,,,,,,,,,,,,,,,,,,,,,,,,,,,,,,,,,,,,,,,,,,,,,,,,,,,,,,,,,,,,,,,,,,,,,,,,,,,,,,,,,,,,,,
1739356739.433614,1739356739.434180,59.000000,0.000000,4286.794922,4263.717773,4331.025879,4314.487305,4240.256348,4241.153809,4235.897461,4288.333496,4258.333496,4255.641113,4588.974121,4525.256348,4423.205078,4519.615234,0.000000,0.000000,10.000000,,,,0.000000,4.000000,4.000000,4.000000,4.000000,4.000000,4.000000,4.000000,4.000000,4.000000,4.000000,4.000000,4.000000,4.000000,4.000000,100.000000,,,,,,,,,,,,,,,,,,,,,,,,,,,,,,,,,,,,,,,,,,,,,,,,,,,,,,,,,,,,,,,,,,,,,,,,,,,,,,,,,,,,,,,,,,,,,,,,,,,,,,,,,,,,,,,,,,,,,,,,,,,,,,,,,
1739356739.441423,1739356739.441988,60.000000,0.000000,4287.307617,4258.589844,4336.794922,4315.384766,4238.589844,4242.820313,4239.743652,4287.051270,4264.487305,4267.179688,4590.769043,4534.230957,4423.974121,4524.871582,0.000000,0.000000,10.000000,,,,0.000000,4.000000,4.000000,4.000000,4.000000,4.000000,4.000000,4.000000,4.000000,4.000000,4.000000,4.000000,4.000000,4.000000,4.000000,100.000000,,,,,,,,,,,,,,,,,15.000000,0.000000,0.688293,0.069397,-0.695923,0.192688,0.979123,-0.156757,0.022952,-42.862045,-32.861210,41.912376,,,,,,,,,,,,,,,,,,,,,,,,,,,,,,,,,,,,,,,,,,,,,,,,,,,,,,,,,,,,,,,,,,,,,,,,,,,,,,,,,,,,,,,,,,,,,,,,,,,,,
1739356739.449231,1739356739.449696,61.000000,0.000000,4255.769043,4226.666504,4303.205078,4281.282227,4214.871582,4217.179688,4217.051270,4274.230957,4237.692383,4238.974121,4563.974121,4500.641113,4390.256348,4494.871582,0.000000,0.000000,10.000000,,,,0.000000,4.000000,4.000000,4.000000,4.000000,4.000000,4.000000,4.000000,4.000000,4.000000,4.000000,4.000000,4.000000,4.000000,4.000000,100.000000,,,,,,,,,,,,,,,,,,,,,,,,,,,,,,,,,,,,,,,,,,,,,,,,,,,,,,,,,,,,,,,,,,,,,,,,,,,,,,,,,,,,,,,,,,,,,,,,,,,,,,,,,,,,,,,,,,,,,,,,,,,,,,,,,
1739356739.457039,1739356739.457504,62.000000,0.000000,4250.256348,4225.641113,4298.333496,4275.641113,4220.897461,4222.051270,4218.717773,4272.179688,4230.256348,4227.820313,4559.230957,4489.102539,4384.743652,4484.358887,0.000000,0.000000,10.000000,,,,0.000000,4.000000,4.000000,4.000000,4.000000,4.000000,4.000000,4.000000,4.000000,4.000000,4.000000,4.000000,4.000000,4.000000,4.000000,100.000000,,,,,,,,,,,,,,,,,,,,,,,,,,,,,,,,,,,,,,,,,,,,,,,,,,,,,,,,,,,,,,,,,,,,,,,,,,,,,,,,,,,,,,,,,,,,,,,,,,,,,,,,,,,,,,,,,,,,,,,,,,,,,,,,,
1739356739.464847,1739356739.465212,63.000000,0.000000,4258.589844,4240.000000,4308.461426,4293.461426,4238.846191,4240.384766,4237.563965,4276.153809,4236.538574,4233.333496,4561.922852,4493.717773,4396.922852,4489.871582,0.000000,0.000000,10.000000,,,,0.000000,4.000000,4.000000,4.000000,4.000000,4.000000,4.000000,4.000000,4.000000,4.000000,4.000000,4.000000,4.000000,4.000000,4.000000,100.000000,,,,,,,,,,,,,,,,,,,,,,,,,,,,,,,,,,,,,,,,,,,,,,,,,,,,,,,,,,,,,,,,,,,,,,,,,,,,,,,,,,,,,,,,,,,,,,,,,,,,,,,,,,,,,,,,,,,,,,,,,,,,,,,,,
1739356739.472655,1739356739.473120,64.000000,0.000000,4248.333496,4241.666504,4295.384766,4294.230957,4232.436035,4235.384766,4232.179688,4273.461426,4223.846191,4216.922852,4544.615234,4476.666504,4387.692383,4477.692383,4996.000000,0.000000,10.000000,,,,0.000000,4.000000,4.000000,4.000000,4.000000,4.000000,4.000000,4.000000,4.000000,4.000000,4.000000,4.000000,4.000000,4.000000,4.000000,100.000000,,,,,,,,,,,,,,,,,16.000000,0.000000,0.688684,0.069824,-0.695679,0.192017,0.989867,-0.152851,0.010743,-42.742508,-32.808422,41.804470,,,,,,,,,,,,,,,,,,,,,,,,,,,,,,,,,,,,,,,,,,,,,,,,,,,,,,,,,,,,,,,,,,,,,,,,,,,,,,,,,,,,,,,,,,,,,,,,,,,,,
1739356739.480463,1739356739.480928,65.000000,0.000000,4247.692383,4244.487305,4289.871582,4293.333496,4227.948730,4231.282227,4216.794922,4269.871582,4210.384766,4204.358887,4537.692383,4464.230957,4382.179688,4472.948730,5624.000000,0.000000,10.000000,,,,0.000000,4.000000,4.000000,4.000000,4.000000,4.000000,4.000000,4.000000,4.000000,4.000000,4.000000,4.000000,4.000000,4.000000,4.000000,100.000000,,,,,,,,,,,,,,,,,,,,,,,,,,,,,,,,,,,,,,,,,,,,,,,,,,,,,,,,,,,,,,,,,,,,,,,,,,,,,,,,,,,,,,,,,,,,,,,,,,,,,,,,,,,,,,,,,,,,,,,,,,,,,,,,,
1739356739.488271,1739356739.488736,66.000000,0.000000,4265.769043,4252.051270,4306.410156,4305.512695,4241.153809,4241.538574,4226.410156,4270.897461,4214.615234,4215.641113,4555.256348,4477.051270,4395.512695,4492.179688,5632.000000,0.000000,10.000000,,,,0.000000,4.000000,4.000000,4.000000,4.000000,4.000000,4.000000,4.000000,4.000000,4.000000,4.000000,4.000000,4.000000,4.000000,4.000000,100.000000,,,,,,,,,,,,,,,,,,,,,,,,,,,,,,,,,,,,,,,,,,,,,,,,,,,,,,,,,,,,,,,,,,,,,,,,,,,,,,,,,,,,,,,,,,,,,,,,,,,,,,,,,,,,,,,,,,,,,,,,,,,,,,,,,
1739356739.496079,1739356739.496444,67.000000,0.000000,4270.256348,4252.051270,4311.282227,4305.384766,4240.256348,4240.512695,4232.820313,4271.025879,4217.051270,4216.922852,4564.743652,4485.897461,4396.025879,4500.256348,5587.000000,0.000000,10.000000,,,,0.000000,4.000000,4.000000,4.000000,4.000000,4.000000,4.000000,4.000000,4.000000,4.000000,4.000000,4.000000,4.000000,4.000000,4.000000,100.000000,,,,,,,,,,,,,,,,,,,,,,,,,,,,,,,,,,,,,,,,,,,,,,,,,,,,,,,,,,,,,,,,,,,,,,,,,,,,,,,,,,,,,,,,,,,,,,,,,,,,,,,,,,,,,,,,,,,,,,,,,,,,,,,,,
1739356739.503887,1739356739.504352,68.000000,0.000000,4269.615234,4251.153809,4306.025879,4296.794922,4230.512695,4231.922852,4219.871582,4272.436035,4218.333496,4216.025879,4565.256348,4486.922852,4394.358887,4496.666504,5549.000000,0.000000,10.000000,,,,0.000000,4.000000,4.000000,4.000000,4.000000,4.000000,4.000000,4.000000,4.000000,4.000000,4.000000,4.000000,4.000000,4.000000,4.000000,100.000000,,,,,,,,,,,,,,,,,17.000000,0.000000,0.688938,0.070313,-0.695496,0.191589,0.988890,-0.150897,0.030277,-42.618256,-32.744247,41.840691,,,,,,,,,,,,,,,,,,,,,,,,,,,,,,,,,,,,,,,,,,,,,,,,,,,,,,,,,,,,,,,,,,,,,,,,,,,,,,,,,,,,,,,,,,,,,,,,,,,,,
1739356739.511695,1739356739.512161,69.000000,0.000000,4278.461426,4253.589844,4309.871582,4297.563965,4233.205078,4232.436035,4216.282227,4280.000000,4228.974121,4231.410156,4571.025879,4497.948730,4408.846191,4503.333496,5514.000000,0.000000,10.000000,,,,0.000000,4.000000,4.000000,4.000000,4.000000,4.000000,4.000000,4.000000,4.000000,4.000000,4.000000,4.000000,4.000000,4.000000,4.000000,100.000000,,,,,,,,,,,,,,,,,,,,,,,,,,,,,,,,,,,,,,,,,,,,,,,,,,,,,,,,,,,,,,,,,,,,,,,,,,,,,,,,,,,,,,,,,,,,,,,,,,,,,,,,,,,,,,,,,,,,,,,,,,,,,,,,,
1739356739.519503,1739356739.520069,70.000000,0.000000,4275.897461,4249.871582,4312.179688,4298.717773,4232.179688,4230.769043,4217.179688,4284.230957,4232.179688,4235.384766,4566.282227,4503.974121,4412.948730,4505.897461,5504.000000,0.000000,10.000000,,,,0.000000,4.000000,4.000000,4.000000,4.000000,4.000000,4.000000,4.000000,4.000000,4.000000,4.000000,4.000000,4.000000,4.000000,4.000000,100.000000,,,,,,,,,,,,,,,,,,,,,,,,,,,,,,,,,,,,,,,,,,,,,,,,,,,,,,,,,,,,,,,,,,,,,,,,,,,,,,,,,,,,,,,,,,,,,,,,,,,,,,,,,,,,,,,,,,,,,,,,,,,,,,,,,
1739356739.527311,1739356739.527877,71.000000,0.000000,4275.128418,4251.538574,4320.512695,4303.846191,4230.384766,4230.384766,4215.384766,4280.641113,4230.769043,4229.230957,4565.384766,4507.436035,4410.128418,4506.025879,2077.000000,0.000000,10.000000,,,,0.000000,4.000000,4.000000,4.000000,4.000000,4.000000,4.000000,4.000000,4.000000,4.000000,4.000000,4.000000,4.000000,4.000000,4.000000,100.000000,,,,,,,,,,,,,,,,,,,,,,,,,,,,,,,,,,,,,,,,,,,,,,,,,,,,,,,,,,,,,,,,,,,,,,,,,,,,,,,,,,,,,,,,,,,,,,,,,,,,,,,,,,,,,,,,,,,,,,,,,,,,,,,,,
1739356739.535119,1739356739.535785,72.000000,0.000000,4286.025879,4259.230957,4332.307617,4311.666504,4234.743652,4234.487305,4221.666504,4278.589844,4235.897461,4237.820313,4576.666504,4519.487305,4417.692383,4515.000000,5297.000000,0.000000,10.000000,,,,0.000000,4.000000,4.000000,4.000000,4.000000,4.000000,4.000000,4.000000,4.000000,4.000000,4.000000,4.000000,4.000000,4.000000,4.000000,100.000000,1.000000,75.000000,4.000000,3.000000,3.000000,4.000000,3.000000,3.000000,3.000000,4.000000,4.000000,3.000000,4.000000,3.000000,4.000000,3.000000,18.000000,0.000000,0.689200,0.070496,-0.695251,0.191467,0.991332,-0.152851,0.028324,-42.773098,-32.819824,41.756622,,,,,,,,,,,,,,,,,,,,,,,,,,,,,,,,2.068314,2.255171,2.677941,2.796928,1.740083,1.363423,1.576782,1.473270,1.874621,1.604440,2.604806,1.745669,2.129207,2.240563,1.483546,1.924510,1.381461,1.500104,2.172962,1.636057,0.400714,0.295943,0.857027,1.186416,1.124861,0.160352,0.294661,0.681791,0.997912,0.995996,0.533947,0.973339,0.746748,1.582669,1.204042,0.280695,0.394259,0.225618,0.263178,0.283968,0.443210,1.653896,0.581226,1.748088,1.530872,0.774451,0.829228,0.922126,1.889758,1.838408,2.238878,1.864547,2.148887,2.461145,1.770004,2.566133,2.506986,3.489487,3.803855,2.076936,0.995627,1.244238,1.172060,1.554355,1.409266,2.153417,2.026258,2.033775,2.710821,1.751350
1739356739.542928,1739356739.543593,73.000000,0.000000,4270.512695,4241.410156,4316.538574,4292.948730,4222.820313,4223.333496,4216.025879,4273.205078,4224.871582,4233.333496,4564.358887,4506.410156,4408.205078,4501.666504,5632.000000,0.000000,10.000000,,,,0.000000,4.000000,4.000000,4.000000,4.000000,4.000000,4.000000,4.000000,4.000000,4.000000,4.000000,4.000000,4.000000,4.000000,4.000000,100.000000,,,,,,,,,,,,,,,,,,,,,,,,,,,,,,,,,,,,,,,,,,,,,,,,,,,,,,,,,,,,,,,,,,,,,,,,,,,,,,,,,,,,,,,,,,,,,,,,,,,,,,,,,,,,,,,,,,,,,,,,,,,,,,,,,
1739356739.550736,1739356739.551501,74.000000,0.000000,4243.974121,4216.025879,4291.922852,4267.307617,4207.436035,4209.615234,4203.461426,4263.717773,4207.692383,4208.589844,4541.538574,4479.102539,4384.743652,4473.846191,4846.000000,0.000000,10.000000,,,,0.000000,4.000000,4.000000,4.000000,4.000000,4.000000,4.000000,4.000000,4.000000,4.000000,4.000000,4.000000,4.000000,4.000000,4.000000,100.000000,,,,,,,,,,,,,,,,,,,,,,,,,,,,,,,,,,,,,,,,,,,,,,,,,,,,,,,,,,,,,,,,,,,,,,,,,,,,,,,,,,,,,,,,,,,,,,,,,,,,,,,,,,,,,,,,,,,,,,,,,,,,,,,,,
1739356739.558544,1739356739.559309,75.000000,0.000000,4253.846191,4228.846191,4299.358887,4281.153809,4221.282227,4222.563965,4217.948730,4270.256348,4221.153809,4215.000000,4550.384766,4491.410156,4390.128418,4485.897461,5632.000000,0.000000,10.000000,,,,0.000000,4.000000,4.000000,4.000000,4.000000,4.000000,4.000000,4.000000,4.000000,4.000000,4.000000,4.000000,4.000000,4.000000,4.000000,100.000000,,,,,,,,,,,,,,,,,,,,,,,,,,,,,,,,,,,,,,,,,,,,,,,,,,,,,,,,,,,,,,,,,,,,,,,,,,,,,,,,,,,,,,,,,,,,,,,,,,,,,,,,,,,,,,,,,,,,,,,,,,,,,,,,,
1739356739.566352,1739356739.567017,76.000000,0.000000,4273.205078,4252.179688,4315.256348,4302.692383,4237.948730,4236.794922,4232.051270,4285.897461,4236.282227,4235.128418,4560.769043,4514.358887,4404.487305,4512.948730,5679.000000,0.000000,10.000000,,,,0.000000,4.000000,4.000000,4.000000,4.000000,4.000000,4.000000,4.000000,4.000000,4.000000,4.000000,4.000000,4.000000,4.000000,4.000000,100.000000,,,,,,,,,,,,,,,,,19.000000,0.000000,0.689340,0.070496,-0.695129,0.191406,0.970333,-0.172873,0.039067,-42.762455,-32.854507,41.780960,,,,,,,,,,,,,,,,,,,,,,,,,,,,,,,,,,,,,,,,,,,,,,,,,,,,,,,,,,,,,,,,,,,,,,,,,,,,,,,,,,,,,,,,,,,,,,,,,,,,,
1739356739.574160,1739356739.574825,77.000000,0.000000,4263.717773,4246.025879,4310.128418,4296.025879,4232.563965,4229.743652,4219.871582,4288.974121,4220.128418,4217.692383,4545.384766,4499.230957,4391.410156,4500.512695,6492.000000,0.000000,10.000000,,,,0.000000,4.000000,4.000000,4.000000,4.000000,4.000000,4.000000,4.000000,4.000000,4.000000,4.000000,4.000000,4.000000,4.000000,4.000000,100.000000,,,,,,,,,,,,,,,,,,,,,,,,,,,,,,,,,,,,,,,,,,,,,,,,,,,,,,,,,,,,,,,,,,,,,,,,,,,,,,,,,,,,,,,,,,,,,,,,,,,,,,,,,,,,,,,,,,,,,,,,,,,,,,,,,
1739356739.581968,1739356739.582533,78.000000,0.000000,4253.333496,4240.128418,4305.769043,4290.000000,4229.615234,4226.922852,4210.769043,4285.641113,4209.102539,4196.410156,4537.820313,4482.563965,4381.025879,4484.615234,4846.000000,0.000000,10.000000,,,,0.000000,4.000000,4.000000,4.000000,4.000000,4.000000,4.000000,4.000000,4.000000,4.000000,4.000000,4.000000,4.000000,4.000000,4.000000,100.000000,,,,,,,,,,,,,,,,,,,,,,,,,,,,,,,,,,,,,,,,,,,,,,,,,,,,,,,,,,,,,,,,,,,,,,,,,,,,,,,,,,,,,,,,,,,,,,,,,,,,,,,,,,,,,,,,,,,,,,,,,,,,,,,,,
1739356739.589776,1739356739.590341,79.000000,0.000000,4263.974121,4247.307617,4312.563965,4297.436035,4235.384766,4234.358887,4215.769043,4291.282227,4221.538574,4211.025879,4550.897461,4497.179688,4392.051270,4496.666504,5632.000000,0.000000,10.000000,,,,0.000000,4.000000,4.000000,4.000000,4.000000,4.000000,4.000000,4.000000,4.000000,4.000000,4.000000,4.000000,4.000000,4.000000,4.000000,100.000000,,,,,,,,,,,,,,,,,,,,,,,,,,,,,,,,,,,,,,,,,,,,,,,,,,,,,,,,,,,,,,,,,,,,,,,,,,,,,,,,,,,,,,,,,,,,,,,,,,,,,,,,,,,,,,,,,,,,,,,,,,,,,,,,,
1739356739.597584,1739356739.598049,80.000000,0.000000,4271.025879,4241.922852,4312.436035,4293.205078,4231.666504,4231.922852,4221.282227,4296.666504,4230.769043,4227.948730,4563.846191,4509.102539,4402.179688,4502.948730,5679.000000,0.000000,10.000000,,,,0.000000,4.000000,4.000000,4.000000,4.000000,4.000000,4.000000,4.000000,4.000000,4.000000,4.000000,4.000000,4.000000,4.000000,4.000000,100.000000,,,,,,,,,,,,,,,,,20.000000,0.000000,0.689494,0.070190,-0.695007,0.191406,1.001587,-0.159199,0.033207,-42.652878,-32.802391,41.802864,,,,,,,,,,,,,,,,,,,,,,,,,,,,,,,,,,,,,,,,,,,,,,,,,,,,,,,,,,,,,,,,,,,,,,,,,,,,,,,,,,,,,,,,,,,,,,,,,,,,,
1739356739.605392,1739356739.605857,81.000000,0.000000,4282.051270,4244.743652,4316.922852,4294.358887,4233.077148,4235.256348,4234.871582,4300.769043,4239.743652,4236.794922,4580.769043,4517.563965,4413.077148,4510.512695,6492.000000,0.000000,10.000000,,,,0.000000,4.000000,4.000000,4.000000,4.000000,4.000000,4.000000,4.000000,4.000000,4.000000,4.000000,4.000000,4.000000,4.000000,4.000000,100.000000,,,,,,,,,,,,,,,,,,,,,,,,,,,,,,,,,,,,,,,,,,,,,,,,,,,,,,,,,,,,,,,,,,,,,,,,,,,,,,,,,,,,,,,,,,,,,,,,,,,,,,,,,,,,,,,,,,,,,,,,,,,,,,,,,
1739356739.613200,1739356739.613565,82.000000,0.000000,4281.538574,4250.128418,4315.512695,4298.461426,4231.922852,4237.051270,4233.846191,4297.948730,4238.077148,4237.307617,4580.769043,4514.102539,4412.051270,4512.692383,4846.000000,0.000000,10.000000,,,,0.000000,4.000000,4.000000,4.000000,4.000000,4.000000,4.000000,4.000000,4.000000,4.000000,4.000000,4.000000,4.000000,4.000000,4.000000,100.000000,,,,,,,,,,,,,,,,,,,,,,,,,,,,,,,,,,,,,,,,,,,,,,,,,,,,,,,,,,,,,,,,,,,,,,,,,,,,,,,,,,,,,,,,,,,,,,,,,,,,,,,,,,,,,,,,,,,,,,,,,,,,,,,,,
1739356739.621008,1739356739.621473,83.000000,0.000000,4253.461426,4232.179688,4293.589844,4279.230957,4213.333496,4218.974121,4213.205078,4284.358887,4214.871582,4213.846191,4554.230957,4486.666504,4390.641113,4485.769043,5632.000000,0.000000,10.000000,,,,0.000000,4.000000,4.000000,4.000000,4.000000,4.000000,4.000000,4.000000,4.000000,4.000000,4.000000,4.000000,4.000000,4.000000,4.000000,100.000000,,,,,,,,,,,,,,,,,,,,,,,,,,,,,,,,,,,,,,,,,,,,,,,,,,,,,,,,,,,,,,,,,,,,,,,,,,,,,,,,,,,,,,,,,,,,,,,,,,,,,,,,,,,,,,,,,,,,,,,,,,,,,,,,,
1739356739.628816,1739356739.629281,84.000000,0.000000,4254.358887,4232.436035,4296.153809,4281.410156,4214.743652,4221.922852,4220.769043,4285.256348,4219.615234,4216.153809,4564.743652,4490.641113,4396.025879,4485.256348,5679.000000,0.000000,10.000000,,,,0.000000,4.000000,4.000000,4.000000,4.000000,4.000000,4.000000,4.000000,4.000000,4.000000,4.000000,4.000000,4.000000,4.000000,4.000000,100.000000,,,,,,,,,,,,,,,,,21.000000,0.000000,0.689728,0.069763,-0.694885,0.191162,0.980100,-0.158711,0.034672,-42.604256,-32.755486,41.739243,,,,,,,,,,,,,,,,,,,,,,,,,,,,,,,,,,,,,,,,,,,,,,,,,,,,,,,,,,,,,,,,,,,,,,,,,,,,,,,,,,,,,,,,,,,,,,,,,,,,,
1739356739.636624,1739356739.637189,85.000000,0.000000,4283.717773,4256.025879,4324.358887,4308.205078,4237.563965,4244.743652,4243.333496,4298.846191,4246.794922,4247.307617,4601.794922,4525.000000,4421.282227,4518.461426,6492.000000,0.000000,10.000000,,,,0.000000,4.000000,4.000000,4.000000,4.000000,4.000000,4.000000,4.000000,4.000000,4.000000,4.000000,4.000000,4.000000,4.000000,4.000000,100.000000,,,,,,,,,,,,,,,,,,,,,,,,,,,,,,,,,,,,,,,,,,,,,,,,,,,,,,,,,,,,,,,,,,,,,,,,,,,,,,,,,,,,,,,,,,,,,,,,,,,,,,,,,,,,,,,,,,,,,,,,,,,,,,,,,
1739356739.644433,1739356739.644997,86.000000,0.000000,4285.512695,4253.589844,4326.282227,4305.641113,4235.769043,4241.153809,4238.461426,4296.153809,4245.384766,4247.948730,4602.820313,4528.846191,4414.871582,4519.102539,4846.000000,0.000000,10.000000,,,,0.000000,4.000000,4.000000,4.000000,4.000000,4.000000,4.000000,4.000000,4.000000,4.000000,4.000000,4.000000,4.000000,4.000000,4.000000,100.000000,,,,,,,,,,,,,,,,,,,,,,,,,,,,,,,,,,,,,,,,,,,,,,,,,,,,,,,,,,,,,,,,,,,,,,,,,,,,,,,,,,,,,,,,,,,,,,,,,,,,,,,,,,,,,,,,,,,,,,,,,,,,,,,,,
1739356739.652241,1739356739.652906,87.000000,0.000000,4271.025879,4236.922852,4312.307617,4285.512695,4215.000000,4225.384766,4221.025879,4287.051270,4230.128418,4228.974121,4586.410156,4511.025879,4394.871582,4496.666504,5632.000000,0.000000,10.000000,,,,0.000000,4.000000,4.000000,4.000000,4.000000,4.000000,4.000000,4.000000,4.000000,4.000000,4.000000,4.000000,4.000000,4.000000,4.000000,100.000000,,,,,,,,,,,,,,,,,,,,,,,,,,,,,,,,,,,,,,,,,,,,,,,,,,,,,,,,,,,,,,,,,,,,,,,,,,,,,,,,,,,,,,,,,,,,,,,,,,,,,,,,,,,,,,,,,,,,,,,,,,,,,,,,,
1739356739.660049,1739356739.660714,88.000000,0.000000,4279.102539,4241.794922,4319.487305,4290.256348,4214.615234,4230.128418,4223.717773,4289.743652,4236.153809,4232.692383,4590.000000,4519.615234,4398.974121,4503.077148,5679.000000,0.000000,10.000000,,,,0.000000,4.000000,4.000000,4.000000,4.000000,4.000000,4.000000,4.000000,4.000000,4.000000,4.000000,4.000000,4.000000,4.000000,4.000000,100.000000,,,,,,,,,,,,,,,,,22.000000,0.000000,0.689706,0.069702,-0.694946,0.191040,0.984495,-0.140642,0.022464,-42.510498,-32.713268,41.731987,,,,,,,,,,,,,,,,,,,,,,,,,,,,,,,,1.713629,2.249886,2.295208,2.431883,1.623157,1.205700,1.571475,1.421122,1.723927,1.522211,1.975434,1.843574,1.753010,1.997770,1.389568,1.553175,1.366171,1.323041,1.982700,1.518854,0.373136,0.337499,0.754109,1.145086,1.084210,0.198448,0.263104,0.664420,0.997754,0.934079,0.624938,0.738561,0.745565,1.594578,1.195598,0.388102,0.370116,0.251402,0.255531,0.291408,0.563540,1.717597,0.539115,1.690725,1.422270,0.864293,1.092563,0.893335,1.762090,1.733471,2.035683,2.090189,1.790655,2.176942,1.610702,2.156242,2.673860,2.722265,3.393579,2.006283,1.065954,1.294891,0.972152,1.479951,1.279225,1.841096,2.067793,1.754516,2.396627,1.651340
1739356739.667857,1739356739.668522,89.000000,0.000000,4284.615234,4245.897461,4326.410156,4298.205078,4225.256348,4233.846191,4234.615234,4290.897461,4239.230957,4237.820313,4590.256348,4531.282227,4403.717773,4513.974121,6492.000000,0.000000,10.000000,,,,0.000000,4.000000,4.000000,4.000000,4.000000,4.000000,4.000000,4.000000,4.000000,4.000000,4.000000,4.000000,4.000000,4.000000,4.000000,100.000000,,,,,,,,,,,,,,,,,,,,,,,,,,,,,,,,,,,,,,,,,,,,,,,,,,,,,,,,,,,,,,,,,,,,,,,,,,,,,,,,,,,,,,,,,,,,,,,,,,,,,,,,,,,,,,,,,,,,,,,,,,,,,,,,,
1739356739.675665,1739356739.676230,90.000000,0.000000,4278.974121,4243.974121,4320.897461,4294.358887,4230.128418,4230.769043,4232.179688,4287.692383,4230.128418,4229.358887,4582.179688,4520.897461,4397.692383,4507.179688,4846.000000,0.000000,10.000000,,,,0.000000,4.000000,4.000000,4.000000,4.000000,4.000000,4.000000,4.000000,4.000000,4.000000,4.000000,4.000000,4.000000,4.000000,4.000000,100.000000,,,,,,,,,,,,,,,,,,,,,,,,,,,,,,,,,,,,,,,,,,,,,,,,,,,,,,,,,,,,,,,,,,,,,,,,,,,,,,,,,,,,,,,,,,,,,,,,,,,,,,,,,,,,,,,,,,,,,,,,,,,,,,,,,
1739356739.683473,1739356739.684138,91.000000,0.000000,4282.692383,4250.000000,4319.871582,4300.512695,4233.077148,4235.641113,4221.410156,4288.333496,4229.615234,4227.692383,4581.794922,4515.384766,4396.794922,4500.769043,5632.000000,0.000000,10.000000,,,,0.000000,4.000000,4.000000,4.000000,4.000000,4.000000,4.000000,4.000000,4.000000,4.000000,4.000000,4.000000,4.000000,4.000000,4.000000,100.000000,,,,,,,,,,,,,,,,,,,,,,,,,,,,,,,,,,,,,,,,,,,,,,,,,,,,,,,,,,,,,,,,,,,,,,,,,,,,,,,,,,,,,,,,,,,,,,,,,,,,,,,,,,,,,,,,,,,,,,,,,,,,,,,,,
1739356739.691281,1739356739.691946,92.000000,0.000000,4277.820313,4248.717773,4314.358887,4300.897461,4229.615234,4230.897461,4210.769043,4284.358887,4219.871582,4216.282227,4568.333496,4508.589844,4391.922852,4493.461426,5679.000000,0.000000,10.000000,,,,0.000000,4.000000,4.000000,4.000000,4.000000,4.000000,4.000000,4.000000,4.000000,4.000000,4.000000,4.000000,4.000000,4.000000,4.000000,100.000000,,,,,,,,,,,,,,,,,23.000000,0.000000,0.689734,0.069824,-0.695007,0.190674,0.980588,-0.139177,0.028324,-42.676113,-32.708611,41.692120,,,,,,,,,,,,,,,,,,,,,,,,,,,,,,,,,,,,,,,,,,,,,,,,,,,,,,,,,,,,,,,,,,,,,,,,,,,,,,,,,,,,,,,,,,,,,,,,,,,,,
1739356739.699089,1739356739.699854,93.000000,0.000000,4271.666504,4251.410156,4311.794922,4300.512695,4234.102539,4229.743652,4217.307617,4280.000000,4207.563965,4200.641113,4557.051270,4501.922852,4389.102539,4492.948730,6492.000000,0.000000,10.000000,,,,0.000000,4.000000,4.000000,4.000000,4.000000,4.000000,4.000000,4.000000,4.000000,4.000000,4.000000,4.000000,4.000000,4.000000,4.000000,100.000000,,,,,,,,,,,,,,,,,,,,,,,,,,,,,,,,,,,,,,,,,,,,,,,,,,,,,,,,,,,,,,,,,,,,,,,,,,,,,,,,,,,,,,,,,,,,,,,,,,,,,,,,,,,,,,,,,,,,,,,,,,,,,,,,,
1739356739.706897,1739356739.707663,94.000000,0.000000,4262.051270,4250.000000,4303.974121,4295.641113,4233.205078,4227.563965,4213.333496,4274.615234,4198.589844,4184.487305,4542.692383,4484.871582,4376.282227,4482.179688,4846.000000,0.000000,10.000000,,,,0.000000,4.000000,4.000000,4.000000,4.000000,4.000000,4.000000,4.000000,4.000000,4.000000,4.000000,4.000000,4.000000,4.000000,4.000000,100.000000,,,,,,,,,,,,,,,,,,,,,,,,,,,,,,,,,,,,,,,,,,,,,,,,,,,,,,,,,,,,,,,,,,,,,,,,,,,,,,,,,,,,,,,,,,,,,,,,,,,,,,,,,,,,,,,,,,,,,,,,,,,,,,,,,
1739356739.714705,1739356739.715571,95.000000,0.000000,4243.974121,4232.563965,4287.307617,4279.871582,4216.282227,4215.128418,4196.538574,4271.922852,4187.436035,4168.461426,4520.256348,4465.769043,4355.384766,4463.333496,5632.000000,0.000000,10.000000,,,,0.000000,4.000000,4.000000,4.000000,4.000000,4.000000,4.000000,4.000000,4.000000,4.000000,4.000000,4.000000,4.000000,4.000000,4.000000,100.000000,,,,,,,,,,,,,,,,,,,,,,,,,,,,,,,,,,,,,,,,,,,,,,,,,,,,,,,,,,,,,,,,,,,,,,,,,,,,,,,,,,,,,,,,,,,,,,,,,,,,,,,,,,,,,,,,,,,,,,,,,,,,,,,,,
1739356739.722513,1739356739.723379,96.000000,0.000000,4251.410156,4236.794922,4295.897461,4288.846191,4225.769043,4227.051270,4214.871582,4283.333496,4207.948730,4188.589844,4536.922852,4483.717773,4369.615234,4476.025879,5679.000000,0.000000,10.000000,,,,0.000000,4.000000,4.000000,4.000000,4.000000,4.000000,4.000000,4.000000,4.000000,4.000000,4.000000,4.000000,4.000000,4.000000,4.000000,100.000000,,,,,,,,,,,,,,,,,24.000000,0.000000,0.689989,0.070068,-0.694763,0.190552,0.977658,-0.144549,0.028812,-42.891834,-32.854416,41.806244,,,,,,,,,,,,,,,,,,,,,,,,,,,,,,,,,,,,,,,,,,,,,,,,,,,,,,,,,,,,,,,,,,,,,,,,,,,,,,,,,,,,,,,,,,,,,,,,,,,,,
1739356739.730322,1739356739.731287,97.000000,0.000000,4277.692383,4262.692383,4317.051270,4313.717773,4249.871582,4249.487305,4246.282227,4293.846191,4245.897461,4234.230957,4573.205078,4515.512695,4402.307617,4500.897461,6492.000000,0.000000,10.000000,,,,0.000000,4.000000,4.000000,4.000000,4.000000,4.000000,4.000000,4.000000,4.000000,4.000000,4.000000,4.000000,4.000000,4.000000,4.000000,100.000000,,,,,,,,,,,,,,,,,,,,,,,,,,,,,,,,,,,,,,,,,,,,,,,,,,,,,,,,,,,,,,,,,,,,,,,,,,,,,,,,,,,,,,,,,,,,,,,,,,,,,,,,,,,,,,,,,,,,,,,,,,,,,,,,,
1739356739.738130,1739356739.739095,98.000000,0.000000,4281.153809,4266.538574,4313.846191,4315.512695,4242.948730,4242.307617,4239.871582,4290.128418,4247.692383,4249.871582,4573.846191,4517.307617,4405.897461,4500.897461,4846.000000,0.000000,10.000000,,,,0.000000,4.000000,4.000000,4.000000,4.000000,4.000000,4.000000,4.000000,4.000000,4.000000,4.000000,4.000000,4.000000,4.000000,4.000000,100.000000,,,,,,,,,,,,,,,,,,,,,,,,,,,,,,,,,,,,,,,,,,,,,,,,,,,,,,,,,,,,,,,,,,,,,,,,,,,,,,,,,,,,,,,,,,,,,,,,,,,,,,,,,,,,,,,,,,,,,,,,,,,,,,,,,
1739356739.745938,1739356739.747003,99.000000,0.000000,4270.000000,4253.846191,4306.538574,4303.333496,4231.538574,4228.974121,4226.025879,4286.025879,4231.666504,4235.128418,4564.487305,4511.922852,4398.205078,4494.871582,5632.000000,0.000000,10.000000,,,,0.000000,4.000000,4.000000,4.000000,4.000000,4.000000,4.000000,4.000000,4.000000,4.000000,4.000000,4.000000,4.000000,4.000000,4.000000,100.000000,,,,,,,,,,,,,,,,,,,,,,,,,,,,,,,,,,,,,,,,,,,,,,,,,,,,,,,,,,,,,,,,,,,,,,,,,,,,,,,,,,,,,,,,,,,,,,,,,,,,,,,,,,,,,,,,,,,,,,,,,,,,,,,,,
1739356739.753746,1739356739.754811,100.000000,0.000000,4270.256348,4254.487305,4316.025879,4303.589844,4241.153809,4234.487305,4234.743652,4290.000000,4235.769043,4232.307617,4575.512695,4523.205078,4405.384766,4497.179688,5679.000000,0.000000,10.000000,,,,0.000000,4.000000,4.000000,4.000000,4.000000,4.000000,4.000000,4.000000,4.000000,4.000000,4.000000,4.000000,4.000000,4.000000,4.000000,100.000000,,,,,,,,,,,,,,,,,25.000000,0.000000,0.690090,0.069885,-0.694580,0.190918,0.994262,-0.164571,0.041997,-42.802650,-32.952305,41.842285,,,,,,,,,,,,,,,,,,,,,,,,,,,,,,,,,,,,,,,,,,,,,,,,,,,,,,,,,,,,,,,,,,,,,,,,,,,,,,,,,,,,,,,,,,,,,,,,,,,,,
1739356739.761554,1739356739.762519,101.000000,0.000000,4264.230957,4250.769043,4311.282227,4296.282227,4243.717773,4238.205078,4237.820313,4291.025879,4236.282227,4232.563965,4572.563965,4517.563965,4402.307617,4488.974121,6492.000000,0.000000,10.000000,,,,0.000000,4.000000,4.000000,4.000000,4.000000,4.000000,4.000000,4.000000,4.000000,4.000000,4.000000,4.000000,4.000000,4.000000,4.000000,100.000000,,,,,,,,,,,,,,,,,,,,,,,,,,,,,,,,,,,,,,,,,,,,,,,,,,,,,,,,,,,,,,,,,,,,,,,,,,,,,,,,,,,,,,,,,,,,,,,,,,,,,,,,,,,,,,,,,,,,,,,,,,,,,,,,,
1739356739.769362,1739356739.770327,102.000000,0.000000,4248.589844,4233.974121,4295.769043,4280.256348,4240.769043,4241.025879,4236.410156,4286.666504,4227.948730,4220.769043,4556.282227,4498.333496,4387.436035,4475.897461,4846.000000,0.000000,10.000000,,,,0.000000,4.000000,4.000000,4.000000,4.000000,4.000000,4.000000,4.000000,4.000000,4.000000,4.000000,4.000000,4.000000,4.000000,4.000000,100.000000,,,,,,,,,,,,,,,,,,,,,,,,,,,,,,,,,,,,,,,,,,,,,,,,,,,,,,,,,,,,,,,,,,,,,,,,,,,,,,,,,,,,,,,,,,,,,,,,,,,,,,,,,,,,,,,,,,,,,,,,,,,,,,,,,
1739356739.777170,1739356739.778035,103.000000,0.000000,4247.051270,4231.538574,4298.846191,4278.333496,4247.948730,4249.871582,4245.000000,4284.871582,4231.153809,4220.256348,4561.153809,4498.846191,4387.179688,4475.512695,5632.000000,0.000000,10.000000,,,,0.000000,4.000000,4.000000,4.000000,4.000000,4.000000,4.000000,4.000000,4.000000,4.000000,4.000000,4.000000,4.000000,4.000000,4.000000,100.000000,,,,,,,,,,,,,,,,,,,,,,,,,,,,,,,,,,,,,,,,,,,,,,,,,,,,,,,,,,,,,,,,,,,,,,,,,,,,,,,,,,,,,,,,,,,,,,,,,,,,,,,,,,,,,,,,,,,,,,,,,,,,,,,,,
1739356739.784978,1739356739.785843,104.000000,0.000000,4253.974121,4239.615234,4307.563965,4279.230957,4246.153809,4247.820313,4246.025879,4284.358887,4233.205078,4230.641113,4576.922852,4509.102539,4394.230957,4482.692383,5679.000000,0.000000,10.000000,,,,0.000000,4.000000,4.000000,4.000000,4.000000,4.000000,4.000000,4.000000,4.000000,4.000000,4.000000,4.000000,4.000000,4.000000,4.000000,100.000000,,,,,,,,,,,,,,,,,26.000000,0.000000,0.689874,0.069641,-0.694702,0.191345,0.989867,-0.181663,0.045904,-42.855721,-32.873741,41.841389,,,,,,,,,,,,,,,,,,,,,,,,,,,,,,,,1.354445,2.224040,1.924013,1.952716,1.497740,0.968864,1.490434,1.365190,1.520443,1.431874,1.401311,1.915720,1.397913,1.655731,1.282068,1.185935,1.289129,1.178308,1.724580,1.396656,0.340555,0.389924,0.654826,1.063865,1.035456,0.237740,0.252399,0.661800,0.999734,0.887244,0.680874,0.565556,0.743135,1.542280,1.184261,0.485728,0.385113,0.268919,0.235069,0.293242,0.746920,2.035062,0.490497,1.511065,1.306059,0.976028,1.640327,0.873811,1.551918,1.598123,2.042761,2.459991,1.395656,1.788347,1.456076,1.696205,2.961568,1.984283,2.778993,1.927679,1.129012,1.335541,0.805368,1.314759,1.133557,1.485563,2.186208,1.468206,1.946576,1.520730
1739356739.792786,1739356739.793551,105.000000,0.000000,4262.436035,4244.615234,4314.358887,4280.641113,4245.384766,4248.205078,4248.461426,4287.820313,4238.333496,4236.153809,4590.512695,4520.256348,4396.794922,4491.025879,6492.000000,0.000000,10.000000,,,,0.000000,4.000000,4.000000,4.000000,4.000000,4.000000,4.000000,4.000000,4.000000,4.000000,4.000000,4.000000,4.000000,4.000000,4.000000,100.000000,,,,,,,,,,,,,,,,,,,,,,,,,,,,,,,,,,,,,,,,,,,,,,,,,,,,,,,,,,,,,,,,,,,,,,,,,,,,,,,,,,,,,,,,,,,,,,,,,,,,,,,,,,,,,,,,,,,,,,,,,,,,,,,,,
1739356739.800594,1739356739.801359,106.000000,0.000000,4269.358887,4248.461426,4322.436035,4284.358887,4254.230957,4254.871582,4255.000000,4292.820313,4251.282227,4238.974121,4604.102539,4528.205078,4398.974121,4495.128418,4846.000000,0.000000,10.000000,,,,0.000000,4.000000,4.000000,4.000000,4.000000,4.000000,4.000000,4.000000,4.000000,4.000000,4.000000,4.000000,4.000000,4.000000,4.000000,100.000000,,,,,,,,,,,,,,,,,,,,,,,,,,,,,,,,,,,,,,,,,,,,,,,,,,,,,,,,,,,,,,,,,,,,,,,,,,,,,,,,,,,,,,,,,,,,,,,,,,,,,,,,,,,,,,,,,,,,,,,,,,,,,,,,,
1739356739.808402,1739356739.809067,107.000000,0.000000,4259.615234,4240.256348,4315.512695,4276.282227,4240.897461,4241.666504,4238.205078,4290.000000,4244.102539,4234.102539,4607.948730,4516.282227,4396.410156,4486.922852,5632.000000,0.000000,10.000000,,,,0.000000,4.000000,4.000000,4.000000,4.000000,4.000000,4.000000,4.000000,4.000000,4.000000,4.000000,4.000000,4.000000,4.000000,4.000000,100.000000,,,,,,,,,,,,,,,,,,,,,,,,,,,,,,,,,,,,,,,,,,,,,,,,,,,,,,,,,,,,,,,,,,,,,,,,,,,,,,,,,,,,,,,,,,,,,,,,,,,,,,,,,,,,,,,,,,,,,,,,,,,,,,,,,
1739356739.816210,1739356739.816875,108.000000,0.000000,4256.538574,4233.974121,4306.410156,4272.436035,4225.769043,4227.820313,4222.307617,4286.025879,4231.922852,4227.948730,4611.282227,4506.666504,4395.641113,4482.692383,5679.000000,0.000000,10.000000,,,,0.000000,4.000000,4.000000,4.000000,4.000000,4.000000,4.000000,4.000000,4.000000,4.000000,4.000000,4.000000,4.000000,4.000000,4.000000,100.000000,,,,,,,,,,,,,,,,,27.000000,0.000000,0.689785,0.069641,-0.694824,0.191223,0.965938,-0.151874,0.032719,-43.003483,-32.869701,41.857250,,,,,,,,,,,,,,,,,,,,,,,,,,,,,,,,,,,,,,,,,,,,,,,,,,,,,,,,,,,,,,,,,,,,,,,,,,,,,,,,,,,,,,,,,,,,,,,,,,,,,
1739356739.824018,1739356739.824583,109.000000,0.000000,4282.436035,4256.538574,4325.512695,4297.563965,4244.358887,4241.666504,4240.256348,4291.282227,4244.871582,4243.461426,4630.512695,4530.769043,4409.230957,4502.051270,6492.000000,0.000000,10.000000,,,,0.000000,4.000000,4.000000,4.000000,4.000000,4.000000,4.000000,4.000000,4.000000,4.000000,4.000000,4.000000,4.000000,4.000000,4.000000,100.000000,,,,,,,,,,,,,,,,,,,,,,,,,,,,,,,,,,,,,,,,,,,,,,,,,,,,,,,,,,,,,,,,,,,,,,,,,,,,,,,,,,,,,,,,,,,,,,,,,,,,,,,,,,,,,,,,,,,,,,,,,,,,,,,,,
1739356739.831827,1739356739.832391,110.000000,0.000000,4300.000000,4277.307617,4343.846191,4318.205078,4261.153809,4254.487305,4250.384766,4292.563965,4252.692383,4254.487305,4642.820313,4551.538574,4419.743652,4522.692383,4846.000000,0.000000,10.000000,,,,0.000000,4.000000,4.000000,4.000000,4.000000,4.000000,4.000000,4.000000,4.000000,4.000000,4.000000,4.000000,4.000000,4.000000,4.000000,100.000000,,,,,,,,,,,,,,,,,,,,,,,,,,,,,,,,,,,,,,,,,,,,,,,,,,,,,,,,,,,,,,,,,,,,,,,,,,,,,,,,,,,,,,,,,,,,,,,,,,,,,,,,,,,,,,,,,,,,,,,,,,,,,,,,,
1739356739.839635,1739356739.840099,111.000000,0.000000,4291.410156,4267.692383,4332.820313,4310.769043,4250.256348,4247.179688,4232.436035,4285.769043,4236.538574,4235.641113,4630.128418,4538.717773,4411.538574,4517.307617,5632.000000,0.000000,10.000000,,,,0.000000,4.000000,4.000000,4.000000,4.000000,4.000000,4.000000,4.000000,4.000000,4.000000,4.000000,4.000000,4.000000,4.000000,4.000000,100.000000,,,,,,,,,,,,,,,,,,,,,,,,,,,,,,,,,,,,,,,,,,,,,,,,,,,,,,,,,,,,,,,,,,,,,,,,,,,,,,,,,,,,,,,,,,,,,,,,,,,,,,,,,,,,,,,,,,,,,,,,,,,,,,,,,
1739356739.847443,1739356739.847907,112.000000,0.000000,4287.307617,4260.000000,4325.769043,4307.051270,4243.846191,4241.922852,4228.333496,4284.871582,4227.948730,4223.717773,4617.563965,4526.922852,4404.102539,4508.589844,5679.000000,0.000000,10.000000,,,,0.000000,4.000000,4.000000,4.000000,4.000000,4.000000,4.000000,4.000000,4.000000,4.000000,4.000000,4.000000,4.000000,4.000000,4.000000,100.000000,,,,,,,,,,,,,,,,,28.000000,0.000000,0.689951,0.069885,-0.694702,0.190979,0.976682,-0.168966,0.040044,-42.903133,-32.882732,41.854858,,,,,,,,,,,,,,,,,,,,,,,,,,,,,,,,,,,,,,,,,,,,,,,,,,,,,,,,,,,,,,,,,,,,,,,,,,,,,,,,,,,,,,,,,,,,,,,,,,,,,
1739356739.855251,1739356739.855615,113.000000,0.000000,4290.897461,4262.692383,4331.282227,4307.692383,4244.358887,4240.512695,4233.589844,4286.666504,4233.974121,4233.846191,4617.179688,4532.563965,4409.487305,4513.589844,6492.000000,0.000000,10.000000,,,,0.000000,4.000000,4.000000,4.000000,4.000000,4.000000,4.000000,4.000000,4.000000,4.000000,4.000000,4.000000,4.000000,4.000000,4.000000,100.000000,,,,,,,,,,,,,,,,,,,,,,,,,,,,,,,,,,,,,,,,,,,,,,,,,,,,,,,,,,,,,,,,,,,,,,,,,,,,,,,,,,,,,,,,,,,,,,,,,,,,,,,,,,,,,,,,,,,,,,,,,,,,,,,,,
1739356739.863059,1739356739.863423,114.000000,0.000000,4282.307617,4257.820313,4325.128418,4295.769043,4232.820313,4231.410156,4220.512695,4284.230957,4233.333496,4235.128418,4615.384766,4528.717773,4410.384766,4512.436035,4846.000000,0.000000,10.000000,,,,0.000000,4.000000,4.000000,4.000000,4.000000,4.000000,4.000000,4.000000,4.000000,4.000000,4.000000,4.000000,4.000000,4.000000,4.000000,100.000000,,,,,,,,,,,,,,,,,,,,,,,,,,,,,,,,,,,,,,,,,,,,,,,,,,,,,,,,,,,,,,,,,,,,,,,,,,,,,,,,,,,,,,,,,,,,,,,,,,,,,,,,,,,,,,,,,,,,,,,,,,,,,,,,,
1739356739.870867,1739356739.871131,115.000000,0.000000,4276.922852,4256.666504,4316.922852,4291.922852,4229.743652,4229.487305,4213.846191,4285.000000,4231.538574,4229.230957,4616.153809,4519.487305,4408.974121,4507.179688,5632.000000,0.000000,10.000000,,,,0.000000,4.000000,4.000000,4.000000,4.000000,4.000000,4.000000,4.000000,4.000000,4.000000,4.000000,4.000000,4.000000,4.000000,4.000000,100.000000,,,,,,,,,,,,,,,,,,,,,,,,,,,,,,,,,,,,,,,,,,,,,,,,,,,,,,,,,,,,,,,,,,,,,,,,,,,,,,,,,,,,,,,,,,,,,,,,,,,,,,,,,,,,,,,,,,,,,,,,,,,,,,,,,
1739356739.878675,1739356739.878939,116.000000,0.000000,4287.051270,4260.512695,4322.948730,4301.282227,4238.974121,4236.794922,4223.333496,4285.897461,4238.974121,4237.820313,4622.051270,4523.974121,4416.666504,4512.436035,5679.000000,0.000000,10.000000,,,,0.000000,4.000000,4.000000,4.000000,4.000000,4.000000,4.000000,4.000000,4.000000,4.000000,4.000000,4.000000,4.000000,4.000000,4.000000,100.000000,,,,,,,,,,,,,,,,,29.000000,0.000000,0.690084,0.069946,-0.694580,0.190918,1.000610,-0.162618,0.026859,-42.896152,-32.811127,41.686039,,,,,,,,,,,,,,,,,,,,,,,,,,,,,,,,,,,,,,,,,,,,,,,,,,,,,,,,,,,,,,,,,,,,,,,,,,,,,,,,,,,,,,,,,,,,,,,,,,,,,
1739356739.886483,1739356739.886647,117.000000,0.000000,4277.307617,4244.615234,4313.846191,4285.641113,4227.563965,4226.922852,4218.077148,4278.974121,4230.897461,4229.743652,4605.641113,4514.358887,4409.102539,4506.025879,6492.000000,0.000000,10.000000,,,,0.000000,4.000000,4.000000,4.000000,4.000000,4.000000,4.000000,4.000000,4.000000,4.000000,4.000000,4.000000,4.000000,4.000000,4.000000,100.000000,,,,,,,,,,,,,,,,,,,,,,,,,,,,,,,,,,,,,,,,,,,,,,,,,,,,,,,,,,,,,,,,,,,,,,,,,,,,,,,,,,,,,,,,,,,,,,,,,,,,,,,,,,,,,,,,,,,,,,,,,,,,,,,,,
1739356739.894291,1739356739.894555,118.000000,0.000000,4252.179688,4225.769043,4291.922852,4262.179688,4212.179688,4214.871582,4209.615234,4274.871582,4211.282227,4206.922852,4581.410156,4491.922852,4392.436035,4487.563965,4846.000000,0.000000,10.000000,,,,0.000000,4.000000,4.000000,4.000000,4.000000,4.000000,4.000000,4.000000,4.000000,4.000000,4.000000,4.000000,4.000000,4.000000,4.000000,100.000000,,,,,,,,,,,,,,,,,,,,,,,,,,,,,,,,,,,,,,,,,,,,,,,,,,,,,,,,,,,,,,,,,,,,,,,,,,,,,,,,,,,,,,,,,,,,,,,,,,,,,,,,,,,,,,,,,,,,,,,,,,,,,,,,,
1739356739.902099,1739356739.902363,119.000000,0.000000,4255.897461,4233.205078,4296.538574,4273.333496,4229.487305,4232.307617,4224.358887,4284.487305,4220.000000,4213.717773,4593.077148,4496.922852,4398.846191,4495.384766,5632.000000,0.000000,10.000000,,,,0.000000,4.000000,4.000000,4.000000,4.000000,4.000000,4.000000,4.000000,4.000000,4.000000,4.000000,4.000000,4.000000,4.000000,4.000000,100.000000,,,,,,,,,,,,,,,,,,,,,,,,,,,,,,,,,,,,,,,,,,,,,,,,,,,,,,,,,,,,,,,,,,,,,,,,,,,,,,,,,,,,,,,,,,,,,,,,,,,,,,,,,,,,,,,,,,,,,,,,,,,,,,,,,
1739356739.909907,1739356739.910271,120.000000,0.000000,4278.461426,4250.769043,4315.641113,4295.512695,4248.846191,4250.384766,4241.153809,4291.025879,4242.436035,4231.922852,4612.948730,4515.128418,4412.051270,4514.230957,5679.000000,0.000000,10.000000,,,,0.000000,4.000000,4.000000,4.000000,4.000000,4.000000,4.000000,4.000000,4.000000,4.000000,4.000000,4.000000,4.000000,4.000000,4.000000,100.000000,,,,,,,,,,,,,,,,,30.000000,0.000000,0.690103,0.069763,-0.694580,0.190918,0.999634,-0.163106,0.036137,-42.956539,-32.680012,41.600769,,,,,,,,,,,,,,,,,,,,,,,,,,,,,,,,1.111697,2.188962,1.730605,1.480918,1.387267,0.725210,1.334072,1.393058,1.315138,1.345092,0.999756,1.968180,1.200585,1.302514,1.179944,0.938326,1.170174,1.182461,1.473134,1.289056,0.312561,0.433106,0.611272,0.958019,0.989767,0.269957,0.257013,0.702314,0.993800,0.860235,0.709333,0.469555,0.783494,1.435365,1.166379,0.554852,0.442170,0.279071,0.211625,0.288160,0.952573,2.638974,0.480659,1.260621,1.207528,1.089257,2.498900,0.897476,1.313581,1.462935,2.308459,2.946622,1.102217,1.392205,1.330655,1.342257,3.446419,1.522187,2.114128,1.844147,1.175400,1.418019,0.724008,1.110133,1.006843,1.190820,2.369950,1.313304,1.478872,1.388617
1739356739.917715,1739356739.918079,121.000000,0.000000,4278.077148,4249.871582,4316.538574,4292.948730,4235.897461,4236.794922,4233.974121,4286.025879,4236.282227,4221.666504,4602.051270,4513.333496,4407.692383,4506.025879,6492.000000,0.000000,10.000000,,,,0.000000,4.000000,4.000000,4.000000,4.000000,4.000000,4.000000,4.000000,4.000000,4.000000,4.000000,4.000000,4.000000,4.000000,4.000000,100.000000,,,,,,,,,,,,,,,,,,,,,,,,,,,,,,,,,,,,,,,,,,,,,,,,,,,,,,,,,,,,,,,,,,,,,,,,,,,,,,,,,,,,,,,,,,,,,,,,,,,,,,,,,,,,,,,,,,,,,,,,,,,,,,,,,
1739356739.925524,1739356739.925987,122.000000,0.000000,4274.102539,4245.384766,4317.820313,4291.025879,4230.769043,4228.589844,4226.666504,4286.153809,4226.153809,4212.179688,4596.282227,4517.051270,4407.820313,4500.769043,4846.000000,0.000000,10.000000,,,,0.000000,4.000000,4.000000,4.000000,4.000000,4.000000,4.000000,4.000000,4.000000,4.000000,4.000000,4.000000,4.000000,4.000000,4.000000,100.000000,,,,,,,,,,,,,,,,,,,,,,,,,,,,,,,,,,,,,,,,,,,,,,,,,,,,,,,,,,,,,,,,,,,,,,,,,,,,,,,,,,,,,,,,,,,,,,,,,,,,,,,,,,,,,,,,,,,,,,,,,,,,,,,,,
1739356739.933332,1739356739.933795,123.000000,0.000000,4281.282227,4251.666504,4328.461426,4300.384766,4245.000000,4241.025879,4233.205078,4290.000000,4234.615234,4221.282227,4605.512695,4529.230957,4410.384766,4510.641113,5632.000000,0.000000,10.000000,,,,0.000000,4.000000,4.000000,4.000000,4.000000,4.000000,4.000000,4.000000,4.000000,4.000000,4.000000,4.000000,4.000000,4.000000,4.000000,100.000000,,,,,,,,,,,,,,,,,,,,,,,,,,,,,,,,,,,,,,,,,,,,,,,,,,,,,,,,,,,,,,,,,,,,,,,,,,,,,,,,,,,,,,,,,,,,,,,,,,,,,,,,,,,,,,,,,,,,,,,,,,,,,,,,,
1739356739.941140,1739356739.941703,124.000000,0.000000,4271.153809,4250.769043,4322.179688,4297.051270,4239.871582,4239.487305,4233.205078,4287.563965,4233.846191,4218.205078,4590.897461,4518.589844,4396.153809,4502.307617,5679.000000,0.000000,10.000000,,,,0.000000,4.000000,4.000000,4.000000,4.000000,4.000000,4.000000,4.000000,4.000000,4.000000,4.000000,4.000000,4.000000,4.000000,4.000000,100.000000,,,,,,,,,,,,,,,,,31.000000,0.000000,0.690127,0.069519,-0.694580,0.190918,0.971310,-0.164571,0.029300,-42.894218,-32.678677,41.540691,,,,,,,,,,,,,,,,,,,,,,,,,,,,,,,,,,,,,,,,,,,,,,,,,,,,,,,,,,,,,,,,,,,,,,,,,,,,,,,,,,,,,,,,,,,,,,,,,,,,,
1739356739.948948,1739356739.949511,125.000000,0.000000,4261.282227,4243.589844,4308.717773,4291.282227,4228.333496,4231.282227,4227.563965,4284.743652,4225.769043,4209.871582,4571.538574,4504.743652,4392.563965,4489.615234,6492.000000,0.000000,10.000000,,,,0.000000,4.000000,4.000000,4.000000,4.000000,4.000000,4.000000,4.000000,4.000000,4.000000,4.000000,4.000000,4.000000,4.000000,4.000000,100.000000,,,,,,,,,,,,,,,,,,,,,,,,,,,,,,,,,,,,,,,,,,,,,,,,,,,,,,,,,,,,,,,,,,,,,,,,,,,,,,,,,,,,,,,,,,,,,,,,,,,,,,,,,,,,,,,,,,,,,,,,,,,,,,,,,
1739356739.956756,1739356739.957219,126.000000,0.000000,4270.128418,4242.692383,4310.256348,4292.307617,4232.692383,4234.871582,4229.615234,4285.128418,4229.487305,4215.128418,4573.974121,4512.179688,4404.615234,4498.717773,4846.000000,0.000000,10.000000,,,,0.000000,4.000000,4.000000,4.000000,4.000000,4.000000,4.000000,4.000000,4.000000,4.000000,4.000000,4.000000,4.000000,4.000000,4.000000,100.000000,,,,,,,,,,,,,,,,,,,,,,,,,,,,,,,,,,,,,,,,,,,,,,,,,,,,,,,,,,,,,,,,,,,,,,,,,,,,,,,,,,,,,,,,,,,,,,,,,,,,,,,,,,,,,,,,,,,,,,,,,,,,,,,,,
1739356739.964564,1739356739.965027,127.000000,0.000000,4278.717773,4247.051270,4321.153809,4292.820313,4232.820313,4236.410156,4231.666504,4286.922852,4238.461426,4223.333496,4575.641113,4522.436035,4405.897461,4508.974121,10.000000,0.000000,10.000000,,,,0.000000,4.000000,4.000000,4.000000,4.000000,4.000000,4.000000,4.000000,4.000000,4.000000,4.000000,4.000000,4.000000,4.000000,4.000000,100.000000,,,,,,,,,,,,,,,,,,,,,,,,,,,,,,,,,,,,,,,,,,,,,,,,,,,,,,,,,,,,,,,,,,,,,,,,,,,,,,,,,,,,,,,,,,,,,,,,,,,,,,,,,,,,,,,,,,,,,,,,,,,,,,,,,
1739356739.972372,1739356739.972735,0.000000,0.000000,4278.974121,4248.077148,4327.051270,4295.128418,4229.102539,4234.743652,4232.179688,4291.282227,4247.692383,4231.794922,4571.666504,4526.410156,4404.871582,4511.025879,4964.000000,0.000000,10.000000,,,,0.000000,4.000000,4.000000,4.000000,4.000000,4.000000,4.000000,4.000000,4.000000,4.000000,4.000000,4.000000,4.000000,4.000000,4.000000,100.000000,,,,,,,,,,,,,,,,,0.000000,0.000000,0.690279,0.069397,-0.694458,0.190857,0.974728,-0.176779,0.030277,-43.004795,-32.610809,41.636623,,,,,,,,,,,,,,,,,,,,,,,,,,,,,,,,,,,,,,,,,,,,,,,,,,,,,,,,,,,,,,,,,,,,,,,,,,,,,,,,,,,,,,,,,,,,,,,,,,,,,
1739356739.980180,1739356739.980543,1.000000,0.000000,4271.922852,4237.307617,4319.358887,4290.000000,4229.487305,4233.461426,4229.615234,4291.538574,4246.153809,4230.897461,4567.692383,4518.846191,4403.717773,4505.641113,5594.000000,0.000000,10.000000,,,,0.000000,4.000000,4.000000,4.000000,4.000000,4.000000,4.000000,4.000000,4.000000,4.000000,4.000000,4.000000,4.000000,4.000000,4.000000,100.000000,,,,,,,,,,,,,,,,,,,,,,,,,,,,,,,,,,,,,,,,,,,,,,,,,,,,,,,,,,,,,,,,,,,,,,,,,,,,,,,,,,,,,,,,,,,,,,,,,,,,,,,,,,,,,,,,,,,,,,,,,,,,,,,,,
1739356739.987988,1739356739.988251,2.000000,0.000000,4259.230957,4228.077148,4306.282227,4277.692383,4228.846191,4230.641113,4220.256348,4286.153809,4235.641113,4221.922852,4559.615234,4501.282227,4393.205078,4492.692383,5597.000000,0.000000,10.000000,,,,0.000000,4.000000,4.000000,4.000000,4.000000,4.000000,4.000000,4.000000,4.000000,4.000000,4.000000,4.000000,4.000000,4.000000,4.000000,100.000000,,,,,,,,,,,,,,,,,,,,,,,,,,,,,,,,,,,,,,,,,,,,,,,,,,,,,,,,,,,,,,,,,,,,,,,,,,,,,,,,,,,,,,,,,,,,,,,,,,,,,,,,,,,,,,,,,,,,,,,,,,,,,,,,,
1739356739.995796,1739356739.996059,3.000000,0.000000,4247.179688,4228.589844,4301.153809,4272.820313,4228.846191,4229.230957,4213.974121,4284.615234,4229.230957,4211.666504,4549.615234,4486.666504,4383.974121,4480.256348,5556.000000,0.000000,10.000000,,,,0.000000,4.000000,4.000000,4.000000,4.000000,4.000000,4.000000,4.000000,4.000000,4.000000,4.000000,4.000000,4.000000,4.000000,4.000000,100.000000,,,,,,,,,,,,,,,,,,,,,,,,,,,,,,,,,,,,,,,,,,,,,,,,,,,,,,,,,,,,,,,,,,,,,,,,,,,,,,,,,,,,,,,,,,,,,,,,,,,,,,,,,,,,,,,,,,,,,,,,,,,,,,,,,
1739356740.003604,1739356740.003767,4.000000,0.000000,4248.717773,4232.563965,4304.615234,4281.666504,4233.589844,4234.102539,4224.358887,4286.153809,4222.948730,4205.512695,4547.051270,4488.205078,4388.205078,4478.077148,5519.000000,0.000000,10.000000,,,,0.000000,4.000000,4.000000,4.000000,4.000000,4.000000,4.000000,4.000000,4.000000,4.000000,4.000000,4.000000,4.000000,4.000000,4.000000,100.000000,,,,,,,,,,,,,,,,,1.000000,0.000000,0.690302,0.069336,-0.694458,0.190796,0.988402,-0.170919,0.026370,-43.104317,-32.549728,41.639626,,,,,,,,,,,,,,,,,,,,,,,,,,,,,,,,,,,,,,,,,,,,,,,,,,,,,,,,,,,,,,,,,,,,,,,,,,,,,,,,,,,,,,,,,,,,,,,,,,,,,
1739356740.011413,1739356740.011575,5.000000,0.000000,4259.358887,4237.051270,4308.846191,4291.282227,4237.563965,4238.333496,4230.384766,4283.461426,4217.179688,4205.769043,4553.333496,4499.230957,4394.743652,4485.769043,5475.000000,0.000000,10.000000,,,,0.000000,4.000000,4.000000,4.000000,4.000000,4.000000,4.000000,4.000000,4.000000,4.000000,4.000000,4.000000,4.000000,4.000000,4.000000,100.000000,,,,,,,,,,,,,,,,,,,,,,,,,,,,,,,,,,,,,,,,,,,,,,,,,,,,,,,,,,,,,,,,,,,,,,,,,,,,,,,,,,,,,,,,,,,,,,,,,,,,,,,,,,,,,,,,,,,,,,,,,,,,,,,,,
1739356740.019220,1739356740.019283,6.000000,0.000000,4264.230957,4240.000000,4311.538574,4288.717773,4231.666504,4233.077148,4218.205078,4280.641113,4218.589844,4206.025879,4560.897461,4500.512695,4391.922852,4491.538574,5465.000000,0.000000,10.000000,,,,0.000000,4.000000,4.000000,4.000000,4.000000,4.000000,4.000000,4.000000,4.000000,4.000000,4.000000,4.000000,4.000000,4.000000,4.000000,100.000000,,,,,,,,,,,,,,,,,,,,,,,,,,,,,,,,,,,,,,,,,,,,,,,,,,,,,,,,,,,,,,,,,,,,,,,,,,,,,,,,,,,,,,,,,,,,,,,,,,,,,,,,,,,,,,,,,,,,,,,,,,,,,,,,,
1739356740.027029,1739356740.027091,7.000000,0.000000,4278.717773,4248.461426,4326.025879,4295.512695,4234.358887,4234.230957,4221.282227,4285.256348,4230.000000,4211.922852,4577.563965,4514.358887,4401.153809,4503.589844,2059.000000,0.000000,10.000000,,,,0.000000,4.000000,4.000000,4.000000,4.000000,4.000000,4.000000,4.000000,4.000000,4.000000,4.000000,4.000000,4.000000,4.000000,4.000000,100.000000,,,,,,,,,,,,,,,,,,,,,,,,,,,,,,,,,,,,,,,,,,,,,,,,,,,,,,,,,,,,,,,,,,,,,,,,,,,,,,,,,,,,,,,,,,,,,,,,,,,,,,,,,,,,,,,,,,,,,,,,,,,,,,,,,
1739356740.034837,1739356740.034799,8.000000,0.000000,4298.077148,4258.333496,4341.153809,4314.358887,4244.230957,4238.846191,4232.948730,4289.871582,4238.205078,4225.128418,4592.436035,4537.948730,4416.025879,4520.641113,5268.000000,0.000000,10.000000,,,,0.000000,4.000000,4.000000,4.000000,4.000000,4.000000,4.000000,4.000000,4.000000,4.000000,4.000000,4.000000,4.000000,4.000000,4.000000,100.000000,1.000000,75.000000,4.000000,3.000000,3.000000,4.000000,3.000000,3.000000,3.000000,4.000000,4.000000,3.000000,4.000000,3.000000,4.000000,3.000000,2.000000,0.000000,0.690302,0.069336,-0.694458,0.190796,0.978635,-0.167501,0.026370,-42.927219,-32.611423,41.508999,,,,,,,,,,,,,,,,,,,,,,,,,,,,,,,,1.058419,2.157210,1.792872,1.112606,1.302060,0.532187,1.149087,1.537786,1.149476,1.264774,0.804177,2.010659,1.217441,1.010705,1.093657,0.850684,1.069146,1.369955,1.284434,1.202591,0.301907,0.453664,0.643659,0.846212,0.954143,0.307301,0.265055,0.788323,0.968903,0.847966,0.763333,0.437585,0.881492,1.292005,1.142320,0.603590,0.525619,0.294429,0.194546,0.275851,1.164426,3.428910,0.578909,1.015149,1.136992,1.236355,3.598790,1.031833,1.117820,1.351852,2.984801,3.481710,1.028035,1.075778,1.245614,1.207603,4.113991,1.464772,1.542236,1.755337,1.209111,1.585935,0.757733,0.923670,0.920968,1.035822,2.574610,1.370701,1.092494,1.277866
1739356740.042645,1739356740.042607,9.000000,0.000000,4282.820313,4243.461426,4327.051270,4300.000000,4228.846191,4222.948730,4212.948730,4281.538574,4223.717773,4220.769043,4579.743652,4521.153809,4401.282227,4507.563965,5612.000000,0.000000,10.000000,,,,0.000000,4.000000,4.000000,4.000000,4.000000,4.000000,4.000000,4.000000,4.000000,4.000000,4.000000,4.000000,4.000000,4.000000,4.000000,100.000000,,,,,,,,,,,,,,,,,,,,,,,,,,,,,,,,,,,,,,,,,,,,,,,,,,,,,,,,,,,,,,,,,,,,,,,,,,,,,,,,,,,,,,,,,,,,,,,,,,,,,,,,,,,,,,,,,,,,,,,,,,,,,,,,,
1739356740.050453,1739356740.050315,10.000000,0.000000,4258.717773,4225.000000,4305.512695,4272.948730,4213.333496,4213.589844,4196.282227,4278.461426,4215.128418,4211.282227,4566.025879,4491.794922,4384.743652,4485.384766,4806.000000,0.000000,10.000000,,,,0.000000,4.000000,4.000000,4.000000,4.000000,4.000000,4.000000,4.000000,4.000000,4.000000,4.000000,4.000000,4.000000,4.000000,4.000000,100.000000,,,,,,,,,,,,,,,,,,,,,,,,,,,,,,,,,,,,,,,,,,,,,,,,,,,,,,,,,,,,,,,,,,,,,,,,,,,,,,,,,,,,,,,,,,,,,,,,,,,,,,,,,,,,,,,,,,,,,,,,,,,,,,,,,
1739356740.058261,1739356740.058223,11.000000,0.000000,4266.153809,4238.461426,4307.692383,4285.256348,4227.948730,4230.000000,4215.256348,4285.256348,4233.589844,4226.025879,4579.871582,4499.871582,4397.307617,4490.769043,5601.000000,0.000000,10.000000,,,,0.000000,4.000000,4.000000,4.000000,4.000000,4.000000,4.000000,4.000000,4.000000,4.000000,4.000000,4.000000,4.000000,4.000000,4.000000,100.000000,,,,,,,,,,,,,,,,,,,,,,,,,,,,,,,,,,,,,,,,,,,,,,,,,,,,,,,,,,,,,,,,,,,,,,,,,,,,,,,,,,,,,,,,,,,,,,,,,,,,,,,,,,,,,,,,,,,,,,,,,,,,,,,,,
