title:Yousef Rihani1739354895641, start timestamp:1739354896.991684, stop timestamp:1739354959.901365, headset type:EPOCX, headset serial:E50208A5, headset firmware:720, channels:168, sampling rate:eeg_128;mot_32;pm_0.1;pow_8, samples:8058      , version:2.2, 
Timestamp,OriginalTimestamp,EEG.Counter,EEG.Interpolated,EEG.AF3,EEG.F7,EEG.F3,EEG.FC5,EEG.T7,EEG.P7,EEG.O1,EEG.O2,EEG.P8,EEG.T8,EEG.FC6,EEG.F4,EEG.F8,EEG.AF4,EEG.RawCq,EEG.Battery,EEG.BatteryPercent,MarkerIndex,MarkerType,MarkerValueInt,EEG.MarkerHardware,CQ.AF3,CQ.F7,CQ.F3,CQ.FC5,CQ.T7,CQ.P7,CQ.O1,CQ.O2,CQ.P8,CQ.T8,CQ.FC6,CQ.F4,CQ.F8,CQ.AF4,CQ.Overall,EQ.SampleRateQuality,EQ.OVERALL,EQ.AF3,EQ.F7,EQ.F3,EQ.FC5,EQ.T7,EQ.P7,EQ.O1,EQ.O2,EQ.P8,EQ.T8,EQ.FC6,EQ.F4,EQ.F8,EQ.AF4,MOT.CounterMems,MOT.InterpolatedMems,MOT.Q0,MOT.Q1,MOT.Q2,MOT.Q3,MOT.AccX,MOT.AccY,MOT.AccZ,MOT.MagX,MOT.MagY,MOT.MagZ,PM.Attention.IsActive,PM.Attention.Scaled,PM.Attention.Raw,PM.Attention.Min,PM.Attention.Max,PM.Engagement.IsActive,PM.Engagement.Scaled,PM.Engagement.Raw,PM.Engagement.Min,PM.Engagement.Max,PM.Excitement.IsActive,PM.Excitement.Scaled,PM.Excitement.Raw,PM.Excitement.Min,PM.Excitement.Max,PM.LongTermExcitement,PM.Stress.IsActive,PM.Stress.Scaled,PM.Stress.Raw,PM.Stress.Min,PM.Stress.Max,PM.Relaxation.IsActive,PM.Relaxation.Scaled,PM.Relaxation.Raw,PM.Relaxation.Min,PM.Relaxation.Max,PM.Interest.IsActive,PM.Interest.Scaled,PM.Interest.Raw,PM.Interest.Min,PM.Interest.Max,POW.AF3.Theta,POW.AF3.Alpha,POW.AF3.BetaL,POW.AF3.BetaH,POW.AF3.Gamma,POW.F7.Theta,POW.F7.Alpha,POW.F7.BetaL,POW.F7.BetaH,POW.F7.Gamma,POW.F3.Theta,POW.F3.Alpha,POW.F3.BetaL,POW.F3.BetaH,POW.F3.Gamma,POW.FC5.Theta,POW.FC5.Alpha,POW.FC5.BetaL,POW.FC5.BetaH,POW.FC5.Gamma,POW.T7.Theta,POW.T7.Alpha,POW.T7.BetaL,POW.T7.BetaH,POW.T7.Gamma,POW.P7.Theta,POW.P7.Alpha,POW.P7.BetaL,POW.P7.BetaH,POW.P7.Gamma,POW.O1.Theta,POW.O1.Alpha,POW.O1.BetaL,POW.O1.BetaH,POW.O1.Gamma,POW.O2.Theta,POW.O2.Alpha,POW.O2.BetaL,POW.O2.BetaH,POW.O2.Gamma,POW.P8.Theta,POW.P8.Alpha,POW.P8.BetaL,POW.P8.BetaH,POW.P8.Gamma,POW.T8.Theta,POW.T8.Alpha,POW.T8.BetaL,POW.T8.BetaH,POW.T8.Gamma,POW.FC6.Theta,POW.FC6.Alpha,POW.FC6.BetaL,POW.FC6.BetaH,POW.FC6.Gamma,POW.F4.Theta,POW.F4.Alpha,POW.F4.BetaL,POW.F4.BetaH,POW.F4.Gamma,POW.F8.Theta,POW.F8.Alpha,POW.F8.BetaL,POW.F8.BetaH,POW.F8.Gamma,POW.AF4.Theta,POW.AF4.Alpha,POW.AF4.BetaL,POW.AF4.BetaH,POW.AF4.Gamma
1739354896.991684,1739354896.991860,125.000000,0.000000,4251.410156,4186.153809,4263.846191,4353.077148,4187.436035,4186.025879,4169.230957,4271.025879,4198.077148,4170.000000,4838.974121,4448.461426,4308.846191,4506.538574,6568.000000,1.000000,16.000000,,,,0.000000,4.000000,4.000000,4.000000,4.000000,4.000000,4.000000,4.000000,4.000000,4.000000,4.000000,4.000000,4.000000,4.000000,4.000000,100.000000,,,,,,,,,,,,,,,,,,,,,,,,,,,,,,,,,,,,,,,,,,,,,,,,,,,,,,,,,,,,,,,,,,,,,,,,,,,,,,,,,,,,,,,,,,,,,,,,,,,,,,,,,,,,,,,,,,,,,,,,,,,,,,,,,
1739354896.999492,1739354896.999568,126.000000,0.000000,4248.077148,4185.769043,4263.077148,4353.333496,4185.897461,4181.666504,4167.563965,4268.205078,4192.820313,4170.512695,4832.051270,4446.282227,4302.051270,4501.666504,5021.000000,1.000000,16.000000,,,,0.000000,4.000000,4.000000,4.000000,4.000000,4.000000,4.000000,4.000000,4.000000,4.000000,4.000000,4.000000,4.000000,4.000000,4.000000,100.000000,,,,,,,,,,,,,,,,,,,,,,,,,,,,,,,,,,,,,,,,,,,,,,,,,,,,,,,,,,,,,,,,,,,,,,,,,,,,,,,,,,,,,,,,,,,,,,,,,,,,,,,,,,,,,,,,,,,,,,,,,,,,,,,,,
1739354897.007300,1739354897.007376,127.000000,0.000000,4249.487305,4186.538574,4263.589844,4356.922852,4188.717773,4175.256348,4167.179688,4266.410156,4187.692383,4170.256348,4827.692383,4443.205078,4298.333496,4504.102539,16.000000,1.000000,16.000000,,,,0.000000,4.000000,4.000000,4.000000,4.000000,4.000000,4.000000,4.000000,4.000000,4.000000,4.000000,4.000000,4.000000,4.000000,4.000000,100.000000,,,,,,,,,,,,,,,,,,,,,,,,,,,,,,,,,,,,,,,,,,,,,,,,,,,,,,,,,,,,,,,,,,,,,,,,,,,,,,,,,,,,,,,,,,,,,,,,,,,,,,,,,,,,,,,,,,,,,,,,,,,,,,,,,
1739354897.015108,1739354897.015084,0.000000,0.000000,4248.974121,4186.666504,4258.205078,4358.589844,4188.077148,4177.307617,4168.077148,4268.717773,4185.897461,4162.179688,4819.358887,4440.256348,4298.077148,4502.692383,5161.000000,1.000000,16.000000,,,,0.000000,4.000000,4.000000,4.000000,4.000000,4.000000,4.000000,4.000000,4.000000,4.000000,4.000000,4.000000,4.000000,4.000000,4.000000,100.000000,,,,,,,,,,,,,,,,,0.000000,0.000000,0.484171,0.351929,-0.591064,0.540710,0.951288,-0.297400,0.058601,-38.495281,-30.936321,44.093056,,,,,,,,,,,,,,,,,,,,,,,,,,,,,,,,,,,,,,,,,,,,,,,,,,,,,,,,,,,,,,,,,,,,,,,,,,,,,,,,,,,,,,,,,,,,,,,,,,,,,
1739354897.022916,1739354897.022892,1.000000,0.000000,4241.153809,4186.410156,4250.384766,4347.820313,4185.384766,4182.820313,4169.615234,4266.025879,4177.179688,4153.717773,4811.666504,4435.641113,4293.205078,4492.179688,5517.000000,1.000000,16.000000,,,,0.000000,4.000000,4.000000,4.000000,4.000000,4.000000,4.000000,4.000000,4.000000,4.000000,4.000000,4.000000,4.000000,4.000000,4.000000,100.000000,,,,,,,,,,,,,,,,,,,,,,,,,,,,,,,,,,,,,,,,,,,,,,,,,,,,,,,,,,,,,,,,,,,,,,,,,,,,,,,,,,,,,,,,,,,,,,,,,,,,,,,,,,,,,,,,,,,,,,,,,,,,,,,,,
1739354897.030724,1739354897.030600,2.000000,0.000000,4231.410156,4177.051270,4243.589844,4337.563965,4185.128418,4182.436035,4169.743652,4263.077148,4170.256348,4151.538574,4808.717773,4427.179688,4286.794922,4485.769043,5557.000000,1.000000,16.000000,,,,0.000000,4.000000,4.000000,4.000000,4.000000,4.000000,4.000000,4.000000,4.000000,4.000000,4.000000,4.000000,4.000000,4.000000,4.000000,100.000000,,,,,,,,,,,,,,,,,,,,,,,,,,,,,,,,,,,,,,,,,,,,,,,,,,,,,,,,,,,,,,,,,,,,,,,,,,,,,,,,,,,,,,,,,,,,,,,,,,,,,,,,,,,,,,,,,,,,,,,,,,,,,,,,,
1739354897.038532,1739354897.038508,3.000000,0.000000,4224.358887,4169.102539,4236.794922,4337.692383,4186.410156,4181.922852,4169.358887,4266.410156,4176.282227,4151.538574,4806.282227,4424.487305,4287.307617,4486.922852,5485.000000,1.000000,16.000000,,,,0.000000,4.000000,4.000000,4.000000,4.000000,4.000000,4.000000,4.000000,4.000000,4.000000,4.000000,4.000000,4.000000,4.000000,4.000000,100.000000,,,,,,,,,,,,,,,,,,,,,,,,,,,,,,,,,,,,,,,,,,,,,,,,,,,,,,,,,,,,,,,,,,,,,,,,,,,,,,,,,,,,,,,,,,,,,,,,,,,,,,,,,,,,,,,,,,,,,,,,,,,,,,,,,
1739354897.046341,1739354897.046317,4.000000,0.000000,4230.897461,4179.230957,4240.256348,4346.794922,4187.179688,4184.230957,4169.358887,4268.846191,4182.563965,4157.563965,4808.461426,4433.846191,4296.410156,4493.846191,5447.000000,1.000000,16.000000,,,,0.000000,4.000000,4.000000,4.000000,4.000000,4.000000,4.000000,4.000000,4.000000,4.000000,4.000000,4.000000,4.000000,4.000000,4.000000,100.000000,,,,,,,,,,,,,,,,,1.000000,0.000000,0.484473,0.351990,-0.591003,0.540466,0.968868,-0.286168,0.051764,-38.379089,-30.742689,44.100414,,,,,,,,,,,,,,,,,,,,,,,,,,,,,,,,,,,,,,,,,,,,,,,,,,,,,,,,,,,,,,,,,,,,,,,,,,,,,,,,,,,,,,,,,,,,,,,,,,,,,
1739354897.054149,1739354897.054225,5.000000,0.000000,4246.025879,4188.717773,4250.128418,4356.538574,4186.025879,4183.589844,4168.333496,4268.077148,4182.563965,4167.051270,4814.102539,4443.846191,4305.769043,4500.000000,5460.000000,1.000000,16.000000,,,,0.000000,4.000000,4.000000,4.000000,4.000000,4.000000,4.000000,4.000000,4.000000,4.000000,4.000000,4.000000,4.000000,4.000000,4.000000,100.000000,,,,,,,,,,,,,,,,,,,,,,,,,,,,,,,,,,,,,,,,,,,,,,,,,,,,,,,,,,,,,,,,,,,,,,,,,,,,,,,,,,,,,,,,,,,,,,,,,,,,,,,,,,,,,,,,,,,,,,,,,,,,,,,,,
1739354897.061957,1739354897.062033,6.000000,0.000000,4248.846191,4184.102539,4253.077148,4358.205078,4184.615234,4181.922852,4167.179688,4267.179688,4183.846191,4170.128418,4815.000000,4450.256348,4305.641113,4501.153809,5429.000000,1.000000,16.000000,,,,0.000000,4.000000,4.000000,4.000000,4.000000,4.000000,4.000000,4.000000,4.000000,4.000000,4.000000,4.000000,4.000000,4.000000,4.000000,100.000000,,,,,,,,,,,,,,,,,,,,,,,,,,,,,,,,,,,,,,,,,,,,,,,,,,,,,,,,,,,,,,,,,,,,,,,,,,,,,,,,,,,,,,,,,,,,,,,,,,,,,,,,,,,,,,,,,,,,,,,,,,,,,,,,,
1739354897.069765,1739354897.069940,7.000000,0.000000,4248.589844,4188.974121,4256.666504,4360.512695,4188.589844,4182.948730,4168.461426,4268.333496,4187.051270,4169.743652,4821.666504,4457.179688,4310.000000,4511.025879,2431.000000,1.000000,16.000000,,,,0.000000,4.000000,4.000000,4.000000,4.000000,4.000000,4.000000,4.000000,4.000000,4.000000,4.000000,4.000000,4.000000,4.000000,4.000000,100.000000,,,,,,,,,,,,,,,,,,,,,,,,,,,,,,,,,,,,,,,,,,,,,,,,,,,,,,,,,,,,,,,,,,,,,,,,,,,,,,,,,,,,,,,,,,,,,,,,,,,,,,,,,,,,,,,,,,,,,,,,,,,,,,,,,
1739354897.077573,1739354897.077748,8.000000,0.000000,4259.487305,4202.948730,4263.461426,4364.615234,4191.794922,4184.230957,4173.205078,4268.077148,4188.974121,4174.871582,4831.410156,4462.563965,4324.743652,4524.871582,5237.000000,1.000000,16.000000,,,,0.000000,4.000000,4.000000,4.000000,4.000000,4.000000,4.000000,4.000000,4.000000,4.000000,4.000000,4.000000,4.000000,4.000000,4.000000,100.000000,,,,,,,,,,,,,,,,,2.000000,0.000000,0.484586,0.351929,-0.591003,0.540405,0.955683,-0.291539,0.064949,-38.257847,-30.801754,44.240376,,,,,,,,,,,,,,,,,,,,,,,,,,,,,,,,,,,,,,,,,,,,,,,,,,,,,,,,,,,,,,,,,,,,,,,,,,,,,,,,,,,,,,,,,,,,,,,,,,,,,
1739354897.085381,1739354897.085656,9.000000,0.000000,4267.436035,4200.641113,4268.974121,4365.897461,4188.333496,4185.512695,4180.512695,4270.897461,4192.051270,4181.410156,4830.128418,4466.538574,4329.230957,4531.794922,5562.000000,1.000000,16.000000,,,,0.000000,4.000000,4.000000,4.000000,4.000000,4.000000,4.000000,4.000000,4.000000,4.000000,4.000000,4.000000,4.000000,4.000000,4.000000,100.000000,,,,,,,,,,,,,,,,,,,,,,,,,,,,,,,,,,,,,,,,,,,,,,,,,,,,,,,,,,,,,,,,,,,,,,,,,,,,,,,,,,,,,,,,,,,,,,,,,,,,,,,,,,,,,,,,,,,,,,,,,,,,,,,,,
1739354897.093189,1739354897.093464,10.000000,0.000000,4265.897461,4196.922852,4275.384766,4373.717773,4192.563965,4187.436035,4187.563965,4277.051270,4201.538574,4187.307617,4826.410156,4476.666504,4326.410156,4535.000000,5030.000000,1.000000,16.000000,,,,0.000000,4.000000,4.000000,4.000000,4.000000,4.000000,4.000000,4.000000,4.000000,4.000000,4.000000,4.000000,4.000000,4.000000,4.000000,100.000000,1.000000,66.666664,4.000000,4.000000,4.000000,4.000000,4.000000,4.000000,4.000000,4.000000,4.000000,4.000000,1.000000,3.000000,4.000000,4.000000,,,,,,,,,,,,,,,,,,,,,,,,,,,,,,,,,,,,,,,,,,,,36.162727,3.960212,1.925890,0.213246,0.138561,29.169031,4.104372,1.191903,0.172536,0.124419,6.307952,2.541358,1.048625,0.283800,0.136238,9.211369,4.113346,1.598825,0.282570,0.224412,1.589108,1.175237,0.622968,0.189169,0.068192,1.500102,0.757732,0.429350,0.235694,0.072862,1.666732,3.189693,0.576440,0.267805,0.069721,0.214663,0.634019,0.135658,0.079780,0.055185,0.953580,2.301708,0.935805,0.246176,0.112373,0.904349,2.875745,0.759610,0.346732,0.107823,7.021133,2.664235,0.920773,0.376385,0.086448,6.836525,2.864223,1.592996,0.344654,0.117340,6.455720,2.401801,1.609343,0.428166,0.276359,25.403805,3.268764,1.642615,0.225591,0.207853
1739354897.100997,1739354897.101372,11.000000,0.000000,4267.179688,4204.871582,4274.743652,4380.384766,4202.563965,4187.948730,4184.102539,4273.461426,4204.102539,4188.205078,4822.820313,4478.846191,4329.102539,4532.436035,5521.000000,1.000000,16.000000,,,,0.000000,4.000000,4.000000,4.000000,4.000000,4.000000,4.000000,4.000000,4.000000,4.000000,4.000000,4.000000,4.000000,4.000000,4.000000,100.000000,,,,,,,,,,,,,,,,,,,,,,,,,,,,,,,,,,,,,,,,,,,,,,,,,,,,,,,,,,,,,,,,,,,,,,,,,,,,,,,,,,,,,,,,,,,,,,,,,,,,,,,,,,,,,,,,,,,,,,,,,,,,,,,,,
1739354897.108805,1739354897.109180,12.000000,0.000000,4262.948730,4198.205078,4262.948730,4371.794922,4198.846191,4184.615234,4174.102539,4265.897461,4192.307617,4176.410156,4808.974121,4461.794922,4324.615234,4521.538574,5527.000000,1.000000,16.000000,,,,0.000000,4.000000,4.000000,4.000000,4.000000,4.000000,4.000000,4.000000,4.000000,4.000000,4.000000,4.000000,4.000000,4.000000,4.000000,100.000000,,,,,,,,,,,,,,,,,3.000000,0.000000,0.484354,0.352051,-0.591064,0.540466,0.950311,-0.284214,0.060066,-38.365395,-30.721579,44.166336,,,,,,,,,,,,,,,,,,,,,,,,,,,,,,,,,,,,,,,,,,,,,,,,,,,,,,,,,,,,,,,,,,,,,,,,,,,,,,,,,,,,,,,,,,,,,,,,,,,,,
1739354897.116613,1739354897.116888,13.000000,0.000000,4248.974121,4183.333496,4256.666504,4362.051270,4188.461426,4182.307617,4169.487305,4265.641113,4179.230957,4160.897461,4793.461426,4450.128418,4310.512695,4512.820313,6553.000000,1.000000,16.000000,,,,0.000000,4.000000,4.000000,4.000000,4.000000,4.000000,4.000000,4.000000,4.000000,4.000000,4.000000,4.000000,4.000000,4.000000,4.000000,100.000000,,,,,,,,,,,,,,,,,,,,,,,,,,,,,,,,,,,,,,,,,,,,,,,,,,,,,,,,,,,,,,,,,,,,,,,,,,,,,,,,,,,,,,,,,,,,,,,,,,,,,,,,,,,,,,,,,,,,,,,,,,,,,,,,,
1739354897.124421,1739354897.124696,14.000000,0.000000,4244.871582,4188.077148,4259.615234,4359.743652,4187.692383,4183.846191,4171.666504,4264.871582,4174.230957,4155.256348,4790.769043,4455.000000,4309.230957,4511.153809,5030.000000,1.000000,16.000000,,,,0.000000,4.000000,4.000000,4.000000,4.000000,4.000000,4.000000,4.000000,4.000000,4.000000,4.000000,4.000000,4.000000,4.000000,4.000000,100.000000,,,,,,,,,,,,,,,,,,,,,,,,,,,,,,,,,,,,,,,,,,,,,,,,,,,,,,,,,,,,,,,,,,,,,,,,,,,,,,,,,,,,,,,,,,,,,,,,,,,,,,,,,,,,,,,,,,,,,,,,,,,,,,,,,
1739354897.132229,1739354897.132404,15.000000,0.000000,4252.820313,4199.358887,4260.641113,4358.974121,4189.743652,4186.666504,4173.717773,4264.487305,4171.282227,4155.641113,4791.282227,4458.461426,4319.230957,4512.948730,5521.000000,1.000000,16.000000,,,,0.000000,4.000000,4.000000,4.000000,4.000000,4.000000,4.000000,4.000000,4.000000,4.000000,4.000000,4.000000,4.000000,4.000000,4.000000,100.000000,,,,,,,,,,,,,,,,,,,,,,,,,,,,,,,,,,,,,,,,,,,,,,,,,,,,,,,,,,,,,,,,,,,,,,,,,,,,,,,,,,,,,,,,,,,,,,,,,,,,,,,,,,,,,,,,,,,,,,,,,,,,,,,,,
1739354897.140037,1739354897.140212,16.000000,0.000000,4263.077148,4201.025879,4260.641113,4363.717773,4187.051270,4183.589844,4170.384766,4264.102539,4168.461426,4151.922852,4788.589844,4457.436035,4327.563965,4521.410156,0.000000,1.000000,16.000000,,,,0.000000,4.000000,4.000000,4.000000,4.000000,4.000000,4.000000,4.000000,4.000000,4.000000,4.000000,4.000000,4.000000,4.000000,4.000000,100.000000,,,,,,,,,,,,,,,,,4.000000,0.000000,0.484280,0.352051,-0.591125,0.540466,0.948358,-0.291539,0.058601,-38.245522,-30.566086,44.133038,,,,,,,,,,,,,,,,,,,,,,,,,,,,,,,,,,,,,,,,,,,,,,,,,,,,,,,,,,,,,,,,,,,,,,,,,,,,,,,,,,,,,,,,,,,,,,,,,,,,,
1739354897.147846,1739354897.147920,17.000000,0.000000,4267.179688,4192.307617,4262.307617,4363.461426,4183.077148,4174.871582,4167.948730,4262.820313,4174.230957,4155.256348,4791.794922,4466.282227,4339.743652,4532.307617,0.000000,1.000000,16.000000,,,,0.000000,4.000000,4.000000,4.000000,4.000000,4.000000,4.000000,4.000000,4.000000,4.000000,4.000000,4.000000,4.000000,4.000000,4.000000,100.000000,,,,,,,,,,,,,,,,,,,,,,,,,,,,,,,,,,,,,,,,,,,,,,,,,,,,,,,,,,,,,,,,,,,,,,,,,,,,,,,,,,,,,,,,,,,,,,,,,,,,,,,,,,,,,,,,,,,,,,,,,,,,,,,,,
1739354897.155654,1739354897.155728,18.000000,0.000000,4271.538574,4192.692383,4263.461426,4360.256348,4183.205078,4172.051270,4167.692383,4264.871582,4183.974121,4166.410156,4797.948730,4474.230957,4354.358887,4538.333496,0.000000,1.000000,16.000000,,,,0.000000,4.000000,4.000000,4.000000,4.000000,4.000000,4.000000,4.000000,4.000000,4.000000,4.000000,4.000000,4.000000,4.000000,4.000000,100.000000,,,,,,,,,,,,,,,,,,,,,,,,,,,,,,,,,,,,,,,,,,,,,,,,,,,,,,,,,,,,,,,,,,,,,,,,,,,,,,,,,,,,,,,,,,,,,,,,,,,,,,,,,,,,,,,,,,,,,,,,,,,,,,,,,
1739354897.163462,1739354897.163436,19.000000,0.000000,4293.333496,4221.922852,4268.205078,4377.436035,4190.128418,4178.205078,4168.077148,4264.743652,4185.641113,4170.000000,4801.282227,4476.922852,4364.743652,4553.589844,0.000000,1.000000,16.000000,,,,0.000000,4.000000,4.000000,4.000000,4.000000,4.000000,4.000000,4.000000,4.000000,4.000000,4.000000,4.000000,4.000000,4.000000,4.000000,100.000000,,,,,,,,,,,,,,,,,,,,,,,,,,,,,,,,,,,,,,,,,,,,,,,,,,,,,,,,,,,,,,,,,,,,,,,,,,,,,,,,,,,,,,,,,,,,,,,,,,,,,,,,,,,,,,,,,,,,,,,,,,,,,,,,,
1739354897.171270,1739354897.171244,20.000000,0.000000,4332.307617,4270.384766,4284.615234,4404.743652,4198.589844,4184.487305,4174.102539,4264.102539,4186.410156,4174.871582,4808.846191,4496.025879,4376.153809,4588.205078,0.000000,1.000000,16.000000,,,,0.000000,4.000000,4.000000,4.000000,4.000000,4.000000,4.000000,4.000000,4.000000,4.000000,4.000000,4.000000,4.000000,4.000000,4.000000,100.000000,,,,,,,,,,,,,,,,,5.000000,0.000000,0.484131,0.352051,-0.591248,0.540466,0.944451,-0.277866,0.041509,-38.370968,-30.626144,44.086399,,,,,,,,,,,,,,,,,,,,,,,,,,,,,,,,,,,,,,,,,,,,,,,,,,,,,,,,,,,,,,,,,,,,,,,,,,,,,,,,,,,,,,,,,,,,,,,,,,,,,
1739354897.179078,1739354897.178952,21.000000,0.000000,4369.230957,4312.563965,4306.794922,4422.692383,4207.948730,4190.897461,4184.230957,4268.461426,4196.282227,4188.589844,4826.025879,4524.102539,4392.436035,4626.538574,0.000000,1.000000,16.000000,,,,0.000000,4.000000,4.000000,4.000000,4.000000,4.000000,4.000000,4.000000,4.000000,4.000000,4.000000,4.000000,4.000000,4.000000,4.000000,100.000000,,,,,,,,,,,,,,,,,,,,,,,,,,,,,,,,,,,,,,,,,,,,,,,,,,,,,,,,,,,,,,,,,,,,,,,,,,,,,,,,,,,,,,,,,,,,,,,,,,,,,,,,,,,,,,,,,,,,,,,,,,,,,,,,,
1739354897.186886,1739354897.186760,22.000000,0.000000,4391.410156,4339.230957,4317.179688,4436.153809,4217.436035,4198.077148,4188.077148,4267.948730,4199.487305,4189.871582,4831.922852,4533.846191,4395.897461,4647.179688,0.000000,1.000000,16.000000,,,,0.000000,4.000000,4.000000,4.000000,4.000000,4.000000,4.000000,4.000000,4.000000,4.000000,4.000000,4.000000,4.000000,4.000000,4.000000,100.000000,,,,,,,,,,,,,,,,,,,,,,,,,,,,,,,,,,,,,,,,,,,,,,,,,,,,,,,,,,,,,,,,,,,,,,,,,,,,,,,,,,,,,,,,,,,,,,,,,,,,,,,,,,,,,,,,,,,,,,,,,,,,,,,,,
1739354897.194694,1739354897.194468,23.000000,0.000000,4398.077148,4357.051270,4311.922852,4445.769043,4218.846191,4201.666504,4184.230957,4263.077148,4185.000000,4170.769043,4813.205078,4524.871582,4374.487305,4651.153809,0.000000,1.000000,16.000000,,,,0.000000,4.000000,4.000000,4.000000,4.000000,4.000000,4.000000,4.000000,4.000000,4.000000,4.000000,4.000000,4.000000,4.000000,4.000000,100.000000,,,,,,,,,,,,,,,,,,,,,,,,,,,,,,,,,,,,,,,,,,,,,,,,,,,,,,,,,,,,,,,,,,,,,,,,,,,,,,,,,,,,,,,,,,,,,,,,,,,,,,,,,,,,,,,,,,,,,,,,,,,,,,,,,
1739354897.202502,1739354897.202276,24.000000,0.000000,4385.128418,4363.461426,4302.179688,4447.948730,4218.974121,4199.487305,4185.000000,4263.461426,4170.256348,4151.282227,4786.922852,4511.794922,4342.820313,4642.436035,0.000000,1.000000,16.000000,,,,0.000000,4.000000,4.000000,4.000000,4.000000,4.000000,4.000000,4.000000,4.000000,4.000000,4.000000,4.000000,4.000000,4.000000,4.000000,100.000000,,,,,,,,,,,,,,,,,6.000000,0.000000,0.484239,0.352295,-0.591125,0.540344,0.950800,-0.298376,0.067879,-38.333874,-30.663530,44.227760,,,,,,,,,,,,,,,,,,,,,,,,,,,,,,,,,,,,,,,,,,,,,,,,,,,,,,,,,,,,,,,,,,,,,,,,,,,,,,,,,,,,,,,,,,,,,,,,,,,,,
1739354897.210310,1739354897.209984,25.000000,0.000000,4360.256348,4355.128418,4292.436035,4441.538574,4219.615234,4191.410156,4182.179688,4260.769043,4160.769043,4132.948730,4767.563965,4494.102539,4318.077148,4619.102539,0.000000,1.000000,16.000000,,,,0.000000,4.000000,4.000000,4.000000,4.000000,4.000000,4.000000,4.000000,4.000000,4.000000,4.000000,4.000000,4.000000,4.000000,4.000000,100.000000,,,,,,,,,,,,,,,,,,,,,,,,,,,,,,,,,,,,,,,,,,,,,,,,,,,,,,,,,,,,,,,,,,,,,,,,,,,,,,,,,,,,,,,,,,,,,,,,,,,,,,,,,,,,,,,,,,,,,,,,,,,,,,,,,
1739354897.218118,1739354897.217792,26.000000,0.000000,4340.512695,4336.025879,4282.820313,4428.846191,4209.102539,4182.948730,4170.897461,4256.025879,4155.128418,4123.846191,4757.307617,4478.717773,4307.692383,4598.077148,0.000000,1.000000,16.000000,,,,0.000000,4.000000,4.000000,4.000000,4.000000,4.000000,4.000000,4.000000,4.000000,4.000000,4.000000,4.000000,4.000000,4.000000,4.000000,100.000000,,,,,,,,,,,,,,,,,,,,,,,,,,,,,,,,,,,,,,,,,,,,,,,,,,,,,,,,,,,,29.142714,3.787990,2.213003,0.203792,0.152831,24.602850,4.215375,1.286265,0.148664,0.128758,5.524468,2.454100,1.274809,0.270138,0.133880,8.758217,4.038048,1.634966,0.260326,0.251781,1.770586,1.190626,0.719996,0.147420,0.075251,1.672587,0.586976,0.433186,0.207657,0.080064,1.839747,2.613348,0.565062,0.221700,0.077201,0.224889,0.592475,0.140571,0.073994,0.053473,1.054391,2.025456,0.983582,0.265043,0.120002,0.826804,2.405301,0.862752,0.341536,0.118666,5.333184,2.147244,1.156172,0.348671,0.080058,6.012470,2.432143,2.057732,0.333094,0.130094,5.661417,2.173764,1.837631,0.436412,0.283379,21.044800,2.971947,2.150440,0.216746,0.214358
1739354897.225926,1739354897.225500,27.000000,0.000000,4324.871582,4315.769043,4273.205078,4413.461426,4198.333496,4182.820313,4166.153809,4256.282227,4153.333496,4131.538574,4751.794922,4473.589844,4302.051270,4587.436035,0.000000,1.000000,16.000000,,,,0.000000,4.000000,4.000000,4.000000,4.000000,4.000000,4.000000,4.000000,4.000000,4.000000,4.000000,4.000000,4.000000,4.000000,4.000000,100.000000,,,,,,,,,,,,,,,,,,,,,,,,,,,,,,,,,,,,,,,,,,,,,,,,,,,,,,,,,,,,,,,,,,,,,,,,,,,,,,,,,,,,,,,,,,,,,,,,,,,,,,,,,,,,,,,,,,,,,,,,,,,,,,,,,
1739354897.233734,1739354897.233408,28.000000,0.000000,4309.871582,4301.922852,4264.615234,4405.000000,4199.358887,4183.717773,4167.179688,4252.692383,4152.948730,4133.974121,4742.948730,4470.384766,4288.974121,4573.589844,0.000000,1.000000,16.000000,,,,0.000000,4.000000,4.000000,4.000000,4.000000,4.000000,4.000000,4.000000,4.000000,4.000000,4.000000,4.000000,4.000000,4.000000,4.000000,100.000000,,,,,,,,,,,,,,,,,7.000000,0.000000,0.484083,0.351929,-0.591248,0.540588,0.980100,-0.292028,0.061531,-38.283817,-30.713844,44.254982,,,,,,,,,,,,,,,,,,,,,,,,,,,,,,,,,,,,,,,,,,,,,,,,,,,,,,,,,,,,,,,,,,,,,,,,,,,,,,,,,,,,,,,,,,,,,,,,,,,,,
1739354897.241542,1739354897.241217,29.000000,0.000000,4301.153809,4290.128418,4264.743652,4402.820313,4200.384766,4182.692383,4169.615234,4249.743652,4158.717773,4133.333496,4740.641113,4471.282227,4284.230957,4568.974121,0.000000,1.000000,16.000000,,,,0.000000,4.000000,4.000000,4.000000,4.000000,4.000000,4.000000,4.000000,4.000000,4.000000,4.000000,4.000000,4.000000,4.000000,4.000000,100.000000,,,,,,,,,,,,,,,,,,,,,,,,,,,,,,,,,,,,,,,,,,,,,,,,,,,,,,,,,,,,,,,,,,,,,,,,,,,,,,,,,,,,,,,,,,,,,,,,,,,,,,,,,,,,,,,,,,,,,,,,,,,,,,,,,
1739354897.249350,1739354897.249125,30.000000,0.000000,4303.974121,4288.717773,4273.461426,4402.692383,4205.256348,4190.897461,4176.666504,4255.128418,4168.461426,4145.384766,4752.692383,4481.153809,4304.102539,4583.205078,0.000000,1.000000,16.000000,,,,0.000000,4.000000,4.000000,4.000000,4.000000,4.000000,4.000000,4.000000,4.000000,4.000000,4.000000,4.000000,4.000000,4.000000,4.000000,100.000000,,,,,,,,,,,,,,,,,,,,,,,,,,,,,,,,,,,,,,,,,,,,,,,,,,,,,,,,,,,,,,,,,,,,,,,,,,,,,,,,,,,,,,,,,,,,,,,,,,,,,,,,,,,,,,,,,,,,,,,,,,,,,,,,,
1739354897.257159,1739354897.256933,31.000000,0.000000,4309.871582,4291.282227,4281.282227,4406.538574,4216.538574,4198.974121,4185.256348,4256.282227,4171.666504,4157.692383,4760.128418,4493.589844,4318.461426,4587.179688,0.000000,1.000000,16.000000,,,,0.000000,4.000000,4.000000,4.000000,4.000000,4.000000,4.000000,4.000000,4.000000,4.000000,4.000000,4.000000,4.000000,4.000000,4.000000,100.000000,,,,,,,,,,,,,,,,,,,,,,,,,,,,,,,,,,,,,,,,,,,,,,,,,,,,,,,,,,,,,,,,,,,,,,,,,,,,,,,,,,,,,,,,,,,,,,,,,,,,,,,,,,,,,,,,,,,,,,,,,,,,,,,,,
1739354897.264967,1739354897.264840,32.000000,0.000000,4311.025879,4286.538574,4289.230957,4412.820313,4221.282227,4203.589844,4189.871582,4248.589844,4173.589844,4161.153809,4757.307617,4502.179688,4307.692383,4576.153809,0.000000,1.000000,16.000000,,,,0.000000,4.000000,4.000000,4.000000,4.000000,4.000000,4.000000,4.000000,4.000000,4.000000,4.000000,4.000000,4.000000,4.000000,4.000000,100.000000,,,,,,,,,,,,,,,,,8.000000,0.000000,0.483647,0.351624,-0.591675,0.540710,0.944451,-0.298865,0.052741,-38.072102,-30.559126,44.296150,,,,,,,,,,,,,,,,,,,,,,,,,,,,,,,,,,,,,,,,,,,,,,,,,,,,,,,,,,,,,,,,,,,,,,,,,,,,,,,,,,,,,,,,,,,,,,,,,,,,,
1739354897.272775,1739354897.272648,33.000000,0.000000,4313.589844,4282.563965,4300.769043,4417.820313,4223.974121,4214.358887,4200.769043,4248.077148,4183.077148,4168.589844,4760.641113,4509.102539,4305.128418,4582.820313,0.000000,1.000000,16.000000,,,,0.000000,4.000000,4.000000,4.000000,4.000000,4.000000,4.000000,4.000000,4.000000,4.000000,4.000000,4.000000,4.000000,4.000000,4.000000,100.000000,,,,,,,,,,,,,,,,,,,,,,,,,,,,,,,,,,,,,,,,,,,,,,,,,,,,,,,,,,,,,,,,,,,,,,,,,,,,,,,,,,,,,,,,,,,,,,,,,,,,,,,,,,,,,,,,,,,,,,,,,,,,,,,,,
1739354897.280583,1739354897.280556,34.000000,0.000000,4315.000000,4285.256348,4307.307617,4418.461426,4233.589844,4223.333496,4217.436035,4251.410156,4188.846191,4175.641113,4762.563965,4515.512695,4319.615234,4595.512695,0.000000,1.000000,16.000000,,,,0.000000,4.000000,4.000000,4.000000,4.000000,4.000000,4.000000,4.000000,4.000000,4.000000,4.000000,4.000000,4.000000,4.000000,4.000000,100.000000,,,,,,,,,,,,,,,,,,,,,,,,,,,,,,,,,,,,,,,,,,,,,,,,,,,,,,,,,,,,,,,,,,,,,,,,,,,,,,,,,,,,,,,,,,,,,,,,,,,,,,,,,,,,,,,,,,,,,,,,,,,,,,,,,
1739354897.288391,1739354897.288364,35.000000,0.000000,4301.410156,4280.897461,4300.000000,4409.230957,4237.820313,4222.051270,4217.820313,4245.000000,4187.307617,4173.717773,4752.307617,4510.384766,4320.641113,4580.897461,0.000000,1.000000,16.000000,,,,0.000000,4.000000,4.000000,4.000000,4.000000,4.000000,4.000000,4.000000,4.000000,4.000000,4.000000,4.000000,4.000000,4.000000,4.000000,100.000000,,,,,,,,,,,,,,,,,,,,,,,,,,,,,,,,,,,,,,,,,,,,,,,,,,,,,,,,,,,,,,,,,,,,,,,,,,,,,,,,,,,,,,,,,,,,,,,,,,,,,,,,,,,,,,,,,,,,,,,,,,,,,,,,,
1739354897.296199,1739354897.296272,36.000000,0.000000,4283.205078,4266.666504,4285.000000,4396.282227,4233.205078,4217.563965,4206.538574,4243.846191,4186.025879,4171.922852,4743.333496,4496.410156,4308.077148,4559.230957,0.000000,1.000000,16.000000,,,,0.000000,4.000000,4.000000,4.000000,4.000000,4.000000,4.000000,4.000000,4.000000,4.000000,4.000000,4.000000,4.000000,4.000000,4.000000,100.000000,,,,,,,,,,,,,,,,,9.000000,0.000000,0.483443,0.351501,-0.591858,0.540771,0.935173,-0.310096,0.061531,-38.198227,-30.853214,44.133202,,,,,,,,,,,,,,,,,,,,,,,,,,,,,,,,,,,,,,,,,,,,,,,,,,,,,,,,,,,,,,,,,,,,,,,,,,,,,,,,,,,,,,,,,,,,,,,,,,,,,
1739354897.304007,1739354897.304080,37.000000,0.000000,4277.692383,4257.820313,4276.922852,4388.077148,4230.128418,4217.307617,4201.666504,4260.512695,4185.897461,4166.410156,4737.692383,4490.641113,4305.641113,4554.358887,0.000000,1.000000,16.000000,,,,0.000000,4.000000,4.000000,4.000000,4.000000,4.000000,4.000000,4.000000,4.000000,4.000000,4.000000,4.000000,4.000000,4.000000,4.000000,100.000000,,,,,,,,,,,,,,,,,,,,,,,,,,,,,,,,,,,,,,,,,,,,,,,,,,,,,,,,,,,,,,,,,,,,,,,,,,,,,,,,,,,,,,,,,,,,,,,,,,,,,,,,,,,,,,,,,,,,,,,,,,,,,,,,,
1739354897.311815,1739354897.311788,38.000000,0.000000,4274.230957,4253.077148,4276.666504,4381.025879,4225.384766,4212.948730,4202.179688,4274.615234,4181.410156,4154.871582,4730.769043,4489.102539,4305.256348,4551.922852,0.000000,1.000000,16.000000,,,,0.000000,4.000000,4.000000,4.000000,4.000000,4.000000,4.000000,4.000000,4.000000,4.000000,4.000000,4.000000,4.000000,4.000000,4.000000,100.000000,,,,,,,,,,,,,,,,,,,,,,,,,,,,,,,,,,,,,,,,,,,,,,,,,,,,,,,,,,,,,,,,,,,,,,,,,,,,,,,,,,,,,,,,,,,,,,,,,,,,,,,,,,,,,,,,,,,,,,,,,,,,,,,,,
1739354897.319623,1739354897.319596,39.000000,0.000000,4261.922852,4246.410156,4270.128418,4372.436035,4216.153809,4205.000000,4200.384766,4269.615234,4172.948730,4149.102539,4725.384766,4480.897461,4297.436035,4541.025879,0.000000,1.000000,16.000000,,,,0.000000,4.000000,4.000000,4.000000,4.000000,4.000000,4.000000,4.000000,4.000000,4.000000,4.000000,4.000000,4.000000,4.000000,4.000000,100.000000,,,,,,,,,,,,,,,,,,,,,,,,,,,,,,,,,,,,,,,,,,,,,,,,,,,,,,,,,,,,,,,,,,,,,,,,,,,,,,,,,,,,,,,,,,,,,,,,,,,,,,,,,,,,,,,,,,,,,,,,,,,,,,,,,
1739354897.327431,1739354897.327304,40.000000,0.000000,4254.487305,4242.179688,4262.436035,4367.692383,4211.410156,4200.512695,4198.461426,4262.692383,4168.589844,4150.897461,4723.461426,4473.077148,4294.102539,4534.230957,0.000000,1.000000,16.000000,,,,0.000000,4.000000,4.000000,4.000000,4.000000,4.000000,4.000000,4.000000,4.000000,4.000000,4.000000,4.000000,4.000000,4.000000,4.000000,100.000000,,,,,,,,,,,,,,,,,10.000000,0.000000,0.483354,0.351624,-0.591858,0.540771,0.945428,-0.296423,0.042486,-38.228405,-30.767893,44.186550,,,,,,,,,,,,,,,,,,,,,,,,,,,,,,,,,,,,,,,,,,,,,,,,,,,,,,,,,,,,,,,,,,,,,,,,,,,,,,,,,,,,,,,,,,,,,,,,,,,,,
1739354897.335239,1739354897.335112,41.000000,0.000000,4255.384766,4239.871582,4261.153809,4365.128418,4212.692383,4200.897461,4198.974121,4262.051270,4171.410156,4152.563965,4724.230957,4474.871582,4298.589844,4536.666504,0.000000,1.000000,16.000000,,,,0.000000,4.000000,4.000000,4.000000,4.000000,4.000000,4.000000,4.000000,4.000000,4.000000,4.000000,4.000000,4.000000,4.000000,4.000000,100.000000,,,,,,,,,,,,,,,,,,,,,,,,,,,,,,,,,,,,,,,,,,,,,,,,,,,,,,,,,,,,,,,,,,,,,,,,,,,,,,,,,,,,,,,,,,,,,,,,,,,,,,,,,,,,,,,,,,,,,,,,,,,,,,,,,
1739354897.343048,1739354897.342820,42.000000,0.000000,4258.846191,4242.563965,4264.487305,4367.563965,4213.077148,4203.205078,4198.974121,4261.282227,4172.692383,4152.307617,4728.077148,4481.025879,4305.769043,4542.948730,0.000000,1.000000,16.000000,,,,0.000000,4.000000,4.000000,4.000000,4.000000,4.000000,4.000000,4.000000,4.000000,4.000000,4.000000,4.000000,4.000000,4.000000,4.000000,100.000000,,,,,,,,,,,,,,,,,,,,,,,,,,,,,,,,,,,,,,,,,,,,,,,,,,,,,,,,,,,,20.112183,3.516220,2.467962,0.205840,0.165503,18.558857,4.237112,1.390228,0.134304,0.137378,4.433413,2.403204,1.538406,0.263531,0.133948,7.690673,3.850665,1.654790,0.230870,0.268532,1.809201,1.197545,0.814565,0.117575,0.080000,1.725703,0.428951,0.434178,0.174064,0.085404,1.943301,1.994575,0.588630,0.191501,0.084675,0.233028,0.559454,0.157867,0.072048,0.051052,1.081558,1.814638,1.073201,0.311152,0.123641,0.726100,1.938933,1.005588,0.341639,0.129494,3.651487,1.729298,1.348897,0.357851,0.077394,4.828689,2.154770,2.557032,0.347992,0.146680,4.462269,1.962184,1.965371,0.439197,0.274991,14.960406,2.779294,2.601638,0.225922,0.210825
1739354897.350855,1739354897.350728,43.000000,0.000000,4264.487305,4249.358887,4271.282227,4377.692383,4213.717773,4204.487305,4201.666504,4256.666504,4169.743652,4154.102539,4733.717773,4489.871582,4313.846191,4550.769043,0.000000,1.000000,16.000000,,,,0.000000,4.000000,4.000000,4.000000,4.000000,4.000000,4.000000,4.000000,4.000000,4.000000,4.000000,4.000000,4.000000,4.000000,4.000000,100.000000,,,,,,,,,,,,,,,,,,,,,,,,,,,,,,,,,,,,,,,,,,,,,,,,,,,,,,,,,,,,,,,,,,,,,,,,,,,,,,,,,,,,,,,,,,,,,,,,,,,,,,,,,,,,,,,,,,,,,,,,,,,,,,,,,
1739354897.358664,1739354897.358537,44.000000,0.000000,4266.538574,4250.769043,4273.333496,4378.461426,4216.922852,4204.358887,4201.282227,4254.358887,4169.102539,4154.871582,4734.102539,4493.717773,4314.358887,4548.589844,0.000000,1.000000,16.000000,,,,0.000000,4.000000,4.000000,4.000000,4.000000,4.000000,4.000000,4.000000,4.000000,4.000000,4.000000,4.000000,4.000000,4.000000,4.000000,100.000000,,,,,,,,,,,,,,,,,11.000000,0.000000,0.483323,0.351685,-0.591736,0.540894,0.957148,-0.287144,0.049322,-38.222229,-30.674437,44.217896,,,,,,,,,,,,,,,,,,,,,,,,,,,,,,,,,,,,,,,,,,,,,,,,,,,,,,,,,,,,,,,,,,,,,,,,,,,,,,,,,,,,,,,,,,,,,,,,,,,,,
1739354897.366472,1739354897.366445,45.000000,0.000000,4262.307617,4244.871582,4266.282227,4367.948730,4213.333496,4201.153809,4190.769043,4254.358887,4168.846191,4153.461426,4730.128418,4488.589844,4309.615234,4540.769043,0.000000,1.000000,16.000000,,,,0.000000,4.000000,4.000000,4.000000,4.000000,4.000000,4.000000,4.000000,4.000000,4.000000,4.000000,4.000000,4.000000,4.000000,4.000000,100.000000,,,,,,,,,,,,,,,,,,,,,,,,,,,,,,,,,,,,,,,,,,,,,,,,,,,,,,,,,,,,,,,,,,,,,,,,,,,,,,,,,,,,,,,,,,,,,,,,,,,,,,,,,,,,,,,,,,,,,,,,,,,,,,,,,
1739354897.374280,1739354897.374253,46.000000,0.000000,4259.102539,4240.256348,4262.948730,4365.641113,4206.282227,4198.846191,4184.358887,4253.717773,4169.615234,4154.871582,4727.307617,4489.102539,4312.051270,4540.641113,0.000000,1.000000,16.000000,,,,0.000000,4.000000,4.000000,4.000000,4.000000,4.000000,4.000000,4.000000,4.000000,4.000000,4.000000,4.000000,4.000000,4.000000,4.000000,100.000000,,,,,,,,,,,,,,,,,,,,,,,,,,,,,,,,,,,,,,,,,,,,,,,,,,,,,,,,,,,,,,,,,,,,,,,,,,,,,,,,,,,,,,,,,,,,,,,,,,,,,,,,,,,,,,,,,,,,,,,,,,,,,,,,,
1739354897.382088,1739354897.382161,47.000000,0.000000,4259.871582,4237.436035,4267.307617,4367.179688,4204.871582,4197.563965,4191.666504,4259.487305,4177.436035,4157.436035,4725.000000,4492.948730,4312.948730,4542.563965,0.000000,1.000000,16.000000,,,,0.000000,4.000000,4.000000,4.000000,4.000000,4.000000,4.000000,4.000000,4.000000,4.000000,4.000000,4.000000,4.000000,4.000000,4.000000,100.000000,,,,,,,,,,,,,,,,,,,,,,,,,,,,,,,,,,,,,,,,,,,,,,,,,,,,,,,,,,,,,,,,,,,,,,,,,,,,,,,,,,,,,,,,,,,,,,,,,,,,,,,,,,,,,,,,,,,,,,,,,,,,,,,,,
1739354897.389896,1739354897.389969,48.000000,0.000000,4260.384766,4235.256348,4269.102539,4366.794922,4204.615234,4197.051270,4200.000000,4266.794922,4185.512695,4158.846191,4722.563965,4493.077148,4309.871582,4542.051270,0.000000,1.000000,16.000000,,,,0.000000,4.000000,4.000000,4.000000,4.000000,4.000000,4.000000,4.000000,4.000000,4.000000,4.000000,4.000000,4.000000,4.000000,4.000000,100.000000,,,,,,,,,,,,,,,,,12.000000,0.000000,0.483391,0.351685,-0.591736,0.540833,0.960566,-0.304236,0.051276,-38.050007,-30.640326,44.212772,,,,,,,,,,,,,,,,,,,,,,,,,,,,,,,,,,,,,,,,,,,,,,,,,,,,,,,,,,,,,,,,,,,,,,,,,,,,,,,,,,,,,,,,,,,,,,,,,,,,,
1739354897.397704,1739354897.397777,49.000000,0.000000,4253.589844,4233.846191,4266.922852,4365.769043,4202.307617,4198.974121,4199.358887,4268.717773,4185.897461,4159.615234,4721.153809,4492.948730,4311.025879,4542.436035,0.000000,1.000000,16.000000,,,,0.000000,4.000000,4.000000,4.000000,4.000000,4.000000,4.000000,4.000000,4.000000,4.000000,4.000000,4.000000,4.000000,4.000000,4.000000,100.000000,,,,,,,,,,,,,,,,,,,,,,,,,,,,,,,,,,,,,,,,,,,,,,,,,,,,,,,,,,,,,,,,,,,,,,,,,,,,,,,,,,,,,,,,,,,,,,,,,,,,,,,,,,,,,,,,,,,,,,,,,,,,,,,,,
1739354897.405512,1739354897.405485,50.000000,0.000000,4244.230957,4230.897461,4262.820313,4361.025879,4199.615234,4199.487305,4197.436035,4270.128418,4182.307617,4156.025879,4718.333496,4491.666504,4309.358887,4538.974121,0.000000,1.000000,16.000000,,,,0.000000,4.000000,4.000000,4.000000,4.000000,4.000000,4.000000,4.000000,4.000000,4.000000,4.000000,4.000000,4.000000,4.000000,4.000000,100.000000,,,,,,,,,,,,,,,,,,,,,,,,,,,,,,,,,,,,,,,,,,,,,,,,,,,,,,,,,,,,,,,,,,,,,,,,,,,,,,,,,,,,,,,,,,,,,,,,,,,,,,,,,,,,,,,,,,,,,,,,,,,,,,,,,
1739354897.413320,1739354897.413394,51.000000,0.000000,4244.615234,4229.487305,4260.256348,4357.563965,4199.487305,4198.333496,4198.589844,4270.641113,4183.846191,4153.717773,4715.897461,4489.358887,4310.000000,4532.820313,0.000000,1.000000,16.000000,,,,0.000000,4.000000,4.000000,4.000000,4.000000,4.000000,4.000000,4.000000,4.000000,4.000000,4.000000,4.000000,4.000000,4.000000,4.000000,100.000000,,,,,,,,,,,,,,,,,,,,,,,,,,,,,,,,,,,,,,,,,,,,,,,,,,,,,,,,,,,,,,,,,,,,,,,,,,,,,,,,,,,,,,,,,,,,,,,,,,,,,,,,,,,,,,,,,,,,,,,,,,,,,,,,,
1739354897.421128,1739354897.421202,52.000000,0.000000,4248.589844,4232.307617,4263.461426,4363.589844,4205.384766,4199.487305,4200.769043,4266.922852,4182.948730,4156.025879,4712.820313,4490.769043,4310.897461,4530.512695,0.000000,1.000000,16.000000,,,,0.000000,4.000000,4.000000,4.000000,4.000000,4.000000,4.000000,4.000000,4.000000,4.000000,4.000000,4.000000,4.000000,4.000000,4.000000,100.000000,,,,,,,,,,,,,,,,,13.000000,0.000000,0.483399,0.351563,-0.591858,0.540771,0.934196,-0.289098,0.050787,-38.211674,-30.626293,44.224827,,,,,,,,,,,,,,,,,,,,,,,,,,,,,,,,,,,,,,,,,,,,,,,,,,,,,,,,,,,,,,,,,,,,,,,,,,,,,,,,,,,,,,,,,,,,,,,,,,,,,
1739354897.428936,1739354897.429010,53.000000,0.000000,4246.922852,4233.205078,4269.487305,4370.128418,4214.615234,4203.077148,4201.410156,4260.128418,4174.358887,4154.102539,4706.025879,4495.128418,4303.333496,4529.743652,0.000000,1.000000,16.000000,,,,0.000000,4.000000,4.000000,4.000000,4.000000,4.000000,4.000000,4.000000,4.000000,4.000000,4.000000,4.000000,4.000000,4.000000,4.000000,100.000000,,,,,,,,,,,,,,,,,,,,,,,,,,,,,,,,,,,,,,,,,,,,,,,,,,,,,,,,,,,,,,,,,,,,,,,,,,,,,,,,,,,,,,,,,,,,,,,,,,,,,,,,,,,,,,,,,,,,,,,,,,,,,,,,,
1739354897.436744,1739354897.436718,54.000000,0.000000,4252.820313,4232.692383,4275.384766,4371.538574,4217.436035,4205.256348,4199.743652,4256.410156,4169.743652,4151.666504,4707.692383,4502.051270,4309.358887,4534.102539,0.000000,1.000000,16.000000,,,,0.000000,4.000000,4.000000,4.000000,4.000000,4.000000,4.000000,4.000000,4.000000,4.000000,4.000000,4.000000,4.000000,4.000000,4.000000,100.000000,,,,,,,,,,,,,,,,,,,,,,,,,,,,,,,,,,,,,,,,,,,,,,,,,,,,,,,,,,,,,,,,,,,,,,,,,,,,,,,,,,,,,,,,,,,,,,,,,,,,,,,,,,,,,,,,,,,,,,,,,,,,,,,,,
1739354897.444553,1739354897.444626,55.000000,0.000000,4267.820313,4236.794922,4280.256348,4374.487305,4217.179688,4203.461426,4198.717773,4256.922852,4172.307617,4157.307617,4720.384766,4510.512695,4332.820313,4541.538574,0.000000,1.000000,16.000000,,,,0.000000,4.000000,4.000000,4.000000,4.000000,4.000000,4.000000,4.000000,4.000000,4.000000,4.000000,4.000000,4.000000,4.000000,4.000000,100.000000,,,,,,,,,,,,,,,,,,,,,,,,,,,,,,,,,,,,,,,,,,,,,,,,,,,,,,,,,,,,,,,,,,,,,,,,,,,,,,,,,,,,,,,,,,,,,,,,,,,,,,,,,,,,,,,,,,,,,,,,,,,,,,,,,
1739354897.452361,1739354897.452434,56.000000,0.000000,4266.025879,4231.922852,4279.102539,4374.358887,4219.615234,4201.410156,4196.153809,4258.589844,4171.922852,4159.358887,4722.563965,4508.333496,4338.717773,4537.948730,0.000000,1.000000,16.000000,,,,0.000000,4.000000,4.000000,4.000000,4.000000,4.000000,4.000000,4.000000,4.000000,4.000000,4.000000,4.000000,4.000000,4.000000,4.000000,100.000000,,,,,,,,,,,,,,,,,14.000000,0.000000,0.483854,0.351440,-0.591614,0.540710,0.963985,-0.304725,0.065926,-38.257172,-30.680330,44.302345,,,,,,,,,,,,,,,,,,,,,,,,,,,,,,,,,,,,,,,,,,,,,,,,,,,,,,,,,,,,,,,,,,,,,,,,,,,,,,,,,,,,,,,,,,,,,,,,,,,,,
1739354897.460169,1739354897.460342,57.000000,0.000000,4251.153809,4218.077148,4273.589844,4367.051270,4216.025879,4200.384766,4188.205078,4256.794922,4168.077148,4152.820313,4710.641113,4502.051270,4326.282227,4531.025879,0.000000,1.000000,16.000000,,,,0.000000,4.000000,4.000000,4.000000,4.000000,4.000000,4.000000,4.000000,4.000000,4.000000,4.000000,4.000000,4.000000,4.000000,4.000000,100.000000,,,,,,,,,,,,,,,,,,,,,,,,,,,,,,,,,,,,,,,,,,,,,,,,,,,,,,,,,,,,,,,,,,,,,,,,,,,,,,,,,,,,,,,,,,,,,,,,,,,,,,,,,,,,,,,,,,,,,,,,,,,,,,,,,
1739354897.467977,1739354897.468150,58.000000,0.000000,4246.538574,4212.820313,4273.205078,4365.384766,4206.538574,4195.769043,4185.000000,4259.230957,4168.717773,4151.666504,4706.282227,4504.615234,4324.743652,4531.794922,0.000000,1.000000,16.000000,,,,0.000000,4.000000,4.000000,4.000000,4.000000,4.000000,4.000000,4.000000,4.000000,4.000000,4.000000,4.000000,4.000000,4.000000,4.000000,100.000000,,,,,,,,,,,,,,,,,,,,,,,,,,,,,,,,,,,,,,,,,,,,,,,,,,,,,,,,,,,,12.027770,3.562281,2.608901,0.224694,0.172255,13.181719,4.428712,1.497550,0.140412,0.152565,3.297454,2.496989,1.738945,0.267114,0.133536,6.400739,3.702297,1.628187,0.204334,0.269532,1.733282,1.231313,0.877573,0.100489,0.081001,1.688748,0.350582,0.433900,0.139489,0.087363,1.991045,1.522339,0.624964,0.176713,0.089217,0.242040,0.536261,0.183874,0.073183,0.048095,1.082358,1.742892,1.164119,0.361167,0.121728,0.628655,1.705038,1.151883,0.339533,0.135080,2.397057,1.633340,1.446691,0.386120,0.077285,3.621753,2.227142,2.903021,0.376209,0.159109,3.201435,2.054971,1.979571,0.433786,0.253608,9.524007,3.031826,2.868439,0.249062,0.198144
1739354897.475785,1739354897.476058,59.000000,0.000000,4248.846191,4212.692383,4277.563965,4368.589844,4202.051270,4192.051270,4193.974121,4266.282227,4169.743652,4154.871582,4707.307617,4510.128418,4327.307617,4533.077148,0.000000,1.000000,16.000000,,,,0.000000,4.000000,4.000000,4.000000,4.000000,4.000000,4.000000,4.000000,4.000000,4.000000,4.000000,4.000000,4.000000,4.000000,4.000000,100.000000,,,,,,,,,,,,,,,,,,,,,,,,,,,,,,,,,,,,,,,,,,,,,,,,,,,,,,,,,,,,,,,,,,,,,,,,,,,,,,,,,,,,,,,,,,,,,,,,,,,,,,,,,,,,,,,,,,,,,,,,,,,,,,,,,
1739354897.483593,1739354897.483866,60.000000,0.000000,4248.333496,4210.256348,4279.358887,4365.641113,4202.692383,4195.256348,4201.282227,4265.256348,4174.871582,4156.794922,4704.358887,4513.077148,4328.461426,4532.692383,0.000000,1.000000,16.000000,,,,0.000000,4.000000,4.000000,4.000000,4.000000,4.000000,4.000000,4.000000,4.000000,4.000000,4.000000,4.000000,4.000000,4.000000,4.000000,100.000000,,,,,,,,,,,,,,,,,15.000000,0.000000,0.484256,0.351074,-0.591614,0.540588,0.952265,-0.282749,0.054206,-38.498123,-30.795631,44.305443,,,,,,,,,,,,,,,,,,,,,,,,,,,,,,,,,,,,,,,,,,,,,,,,,,,,,,,,,,,,,,,,,,,,,,,,,,,,,,,,,,,,,,,,,,,,,,,,,,,,,
1739354897.491401,1739354897.491774,61.000000,0.000000,4246.538574,4210.000000,4274.358887,4357.692383,4201.538574,4197.692383,4200.641113,4262.692383,4183.846191,4161.794922,4701.410156,4511.410156,4333.077148,4531.025879,0.000000,1.000000,16.000000,,,,0.000000,4.000000,4.000000,4.000000,4.000000,4.000000,4.000000,4.000000,4.000000,4.000000,4.000000,4.000000,4.000000,4.000000,4.000000,100.000000,,,,,,,,,,,,,,,,,,,,,,,,,,,,,,,,,,,,,,,,,,,,,,,,,,,,,,,,,,,,,,,,,,,,,,,,,,,,,,,,,,,,,,,,,,,,,,,,,,,,,,,,,,,,,,,,,,,,,,,,,,,,,,,,,
1739354897.499209,1739354897.499582,62.000000,0.000000,4245.897461,4211.153809,4267.563965,4354.487305,4200.641113,4195.128418,4196.922852,4265.384766,4187.307617,4167.948730,4700.512695,4506.922852,4335.256348,4523.974121,0.000000,1.000000,16.000000,,,,0.000000,4.000000,4.000000,4.000000,4.000000,4.000000,4.000000,4.000000,4.000000,4.000000,4.000000,4.000000,4.000000,4.000000,4.000000,100.000000,,,,,,,,,,,,,,,,,,,,,,,,,,,,,,,,,,,,,,,,,,,,,,,,,,,,,,,,,,,,,,,,,,,,,,,,,,,,,,,,,,,,,,,,,,,,,,,,,,,,,,,,,,,,,,,,,,,,,,,,,,,,,,,,,
1739354897.507017,1739354897.507390,63.000000,0.000000,4246.666504,4214.230957,4264.743652,4357.692383,4203.461426,4195.641113,4191.922852,4265.769043,4188.461426,4170.128418,4700.256348,4505.128418,4338.974121,4519.230957,0.000000,1.000000,16.000000,,,,0.000000,4.000000,4.000000,4.000000,4.000000,4.000000,4.000000,4.000000,4.000000,4.000000,4.000000,4.000000,4.000000,4.000000,4.000000,100.000000,,,,,,,,,,,,,,,,,,,,,,,,,,,,,,,,,,,,,,,,,,,,,,,,,,,,,,,,,,,,,,,,,,,,,,,,,,,,,,,,,,,,,,,,,,,,,,,,,,,,,,,,,,,,,,,,,,,,,,,,,,,,,,,,,
1739354897.514825,1739354897.515198,64.000000,0.000000,4246.410156,4218.846191,4262.948730,4359.102539,4204.358887,4197.436035,4185.641113,4259.871582,4183.205078,4167.307617,4695.512695,4503.717773,4343.333496,4517.692383,5161.000000,1.000000,16.000000,,,,0.000000,4.000000,4.000000,4.000000,4.000000,4.000000,4.000000,4.000000,4.000000,4.000000,4.000000,4.000000,4.000000,4.000000,4.000000,100.000000,,,,,,,,,,,,,,,,,16.000000,0.000000,0.484172,0.350891,-0.591736,0.540649,0.949335,-0.293981,0.055183,-38.614975,-30.816069,44.258232,,,,,,,,,,,,,,,,,,,,,,,,,,,,,,,,,,,,,,,,,,,,,,,,,,,,,,,,,,,,,,,,,,,,,,,,,,,,,,,,,,,,,,,,,,,,,,,,,,,,,
1739354897.522633,1739354897.522906,65.000000,0.000000,4246.025879,4217.692383,4264.358887,4356.666504,4206.282227,4195.641113,4184.102539,4257.307617,4172.948730,4165.128418,4693.333496,4502.179688,4341.922852,4518.077148,5517.000000,1.000000,16.000000,,,,0.000000,4.000000,4.000000,4.000000,4.000000,4.000000,4.000000,4.000000,4.000000,4.000000,4.000000,4.000000,4.000000,4.000000,4.000000,100.000000,,,,,,,,,,,,,,,,,,,,,,,,,,,,,,,,,,,,,,,,,,,,,,,,,,,,,,,,,,,,,,,,,,,,,,,,,,,,,,,,,,,,,,,,,,,,,,,,,,,,,,,,,,,,,,,,,,,,,,,,,,,,,,,,,
1739354897.530441,1739354897.530714,66.000000,0.000000,4247.051270,4214.230957,4270.000000,4357.436035,4211.794922,4197.436035,4191.025879,4258.077148,4173.589844,4166.538574,4697.820313,4504.487305,4338.205078,4522.948730,5551.000000,1.000000,16.000000,,,,0.000000,4.000000,4.000000,4.000000,4.000000,4.000000,4.000000,4.000000,4.000000,4.000000,4.000000,4.000000,4.000000,4.000000,4.000000,100.000000,,,,,,,,,,,,,,,,,,,,,,,,,,,,,,,,,,,,,,,,,,,,,,,,,,,,,,,,,,,,,,,,,,,,,,,,,,,,,,,,,,,,,,,,,,,,,,,,,,,,,,,,,,,,,,,,,,,,,,,,,,,,,,,,,
1739354897.538249,1739354897.538422,67.000000,0.000000,4247.692383,4216.666504,4273.974121,4362.307617,4214.615234,4200.512695,4198.717773,4256.666504,4182.179688,4168.589844,4701.410156,4509.871582,4340.897461,4528.846191,5485.000000,1.000000,16.000000,,,,0.000000,4.000000,4.000000,4.000000,4.000000,4.000000,4.000000,4.000000,4.000000,4.000000,4.000000,4.000000,4.000000,4.000000,4.000000,100.000000,,,,,,,,,,,,,,,,,,,,,,,,,,,,,,,,,,,,,,,,,,,,,,,,,,,,,,,,,,,,,,,,,,,,,,,,,,,,,,,,,,,,,,,,,,,,,,,,,,,,,,,,,,,,,,,,,,,,,,,,,,,,,,,,,
1739354897.546058,1739354897.546230,68.000000,0.000000,4249.230957,4219.743652,4277.692383,4366.922852,4215.000000,4199.358887,4200.128418,4258.205078,4183.333496,4169.102539,4700.384766,4519.358887,4347.051270,4533.461426,5449.000000,1.000000,16.000000,,,,0.000000,4.000000,4.000000,4.000000,4.000000,4.000000,4.000000,4.000000,4.000000,4.000000,4.000000,4.000000,4.000000,4.000000,4.000000,100.000000,,,,,,,,,,,,,,,,,17.000000,0.000000,0.484232,0.351013,-0.591614,0.540649,0.944451,-0.288121,0.057624,-38.636810,-30.834461,44.215744,,,,,,,,,,,,,,,,,,,,,,,,,,,,,,,,,,,,,,,,,,,,,,,,,,,,,,,,,,,,,,,,,,,,,,,,,,,,,,,,,,,,,,,,,,,,,,,,,,,,,
1739354897.553866,1739354897.553938,69.000000,0.000000,4251.922852,4219.743652,4281.282227,4366.410156,4215.769043,4198.974121,4195.384766,4258.589844,4183.333496,4169.871582,4697.692383,4523.589844,4346.025879,4541.025879,5465.000000,1.000000,16.000000,,,,0.000000,4.000000,4.000000,4.000000,4.000000,4.000000,4.000000,4.000000,4.000000,4.000000,4.000000,4.000000,4.000000,4.000000,4.000000,100.000000,,,,,,,,,,,,,,,,,,,,,,,,,,,,,,,,,,,,,,,,,,,,,,,,,,,,,,,,,,,,,,,,,,,,,,,,,,,,,,,,,,,,,,,,,,,,,,,,,,,,,,,,,,,,,,,,,,,,,,,,,,,,,,,,,
1739354897.561674,1739354897.561746,70.000000,0.000000,4249.615234,4218.333496,4273.974121,4360.641113,4214.230957,4199.871582,4188.717773,4258.589844,4185.256348,4172.051270,4695.128418,4513.205078,4343.205078,4542.948730,5430.000000,1.000000,16.000000,,,,0.000000,4.000000,4.000000,4.000000,4.000000,4.000000,4.000000,4.000000,4.000000,4.000000,4.000000,4.000000,4.000000,4.000000,4.000000,100.000000,,,,,,,,,,,,,,,,,,,,,,,,,,,,,,,,,,,,,,,,,,,,,,,,,,,,,,,,,,,,,,,,,,,,,,,,,,,,,,,,,,,,,,,,,,,,,,,,,,,,,,,,,,,,,,,,,,,,,,,,,,,,,,,,,
1739354897.569482,1739354897.569454,71.000000,0.000000,4246.025879,4218.461426,4263.717773,4355.512695,4214.102539,4197.692383,4185.897461,4257.307617,4183.717773,4170.641113,4691.282227,4505.384766,4344.102539,4533.846191,2431.000000,1.000000,16.000000,,,,0.000000,4.000000,4.000000,4.000000,4.000000,4.000000,4.000000,4.000000,4.000000,4.000000,4.000000,4.000000,4.000000,4.000000,4.000000,100.000000,,,,,,,,,,,,,,,,,,,,,,,,,,,,,,,,,,,,,,,,,,,,,,,,,,,,,,,,,,,,,,,,,,,,,,,,,,,,,,,,,,,,,,,,,,,,,,,,,,,,,,,,,,,,,,,,,,,,,,,,,,,,,,,,,
1739354897.577290,1739354897.577262,72.000000,0.000000,4246.794922,4220.769043,4261.922852,4357.051270,4212.563965,4195.000000,4185.897461,4253.846191,4183.333496,4168.846191,4688.717773,4507.692383,4344.102539,4524.487305,5238.000000,1.000000,16.000000,,,,0.000000,4.000000,4.000000,4.000000,4.000000,4.000000,4.000000,4.000000,4.000000,4.000000,4.000000,4.000000,4.000000,4.000000,4.000000,100.000000,,,,,,,,,,,,,,,,,18.000000,0.000000,0.484399,0.351074,-0.591553,0.540527,0.949335,-0.285191,0.067391,-38.456463,-30.734348,44.127502,,,,,,,,,,,,,,,,,,,,,,,,,,,,,,,,,,,,,,,,,,,,,,,,,,,,,,,,,,,,,,,,,,,,,,,,,,,,,,,,,,,,,,,,,,,,,,,,,,,,,
1739354897.585098,1739354897.584970,73.000000,0.000000,4246.153809,4219.102539,4264.871582,4359.102539,4204.102539,4196.410156,4188.077148,4255.384766,4186.538574,4175.000000,4691.282227,4511.922852,4343.717773,4526.666504,5566.000000,1.000000,16.000000,,,,0.000000,4.000000,4.000000,4.000000,4.000000,4.000000,4.000000,4.000000,4.000000,4.000000,4.000000,4.000000,4.000000,4.000000,4.000000,100.000000,,,,,,,,,,,,,,,,,,,,,,,,,,,,,,,,,,,,,,,,,,,,,,,,,,,,,,,,,,,,,,,,,,,,,,,,,,,,,,,,,,,,,,,,,,,,,,,,,,,,,,,,,,,,,,,,,,,,,,,,,,,,,,,,,
1739354897.592906,1739354897.592778,74.000000,0.000000,4246.794922,4217.948730,4270.769043,4358.333496,4204.743652,4199.358887,4193.974121,4257.436035,4189.615234,4183.974121,4695.641113,4518.205078,4346.538574,4533.333496,5026.000000,1.000000,16.000000,,,,0.000000,4.000000,4.000000,4.000000,4.000000,4.000000,4.000000,4.000000,4.000000,4.000000,4.000000,4.000000,4.000000,4.000000,4.000000,100.000000,1.000000,75.000000,4.000000,4.000000,4.000000,4.000000,4.000000,4.000000,4.000000,4.000000,4.000000,4.000000,1.000000,4.000000,4.000000,4.000000,,,,,,,,,,,,,,,,,,,,,,,,,,,,,,,,,,,,,,,,,,,,7.281848,4.484993,2.626576,0.266174,0.171569,10.520882,5.175012,1.647913,0.175696,0.174138,2.398550,2.903365,1.803588,0.280172,0.129404,5.260360,3.817778,1.555196,0.190626,0.254242,1.538019,1.340493,0.894937,0.092162,0.078654,1.550105,0.404343,0.444733,0.109238,0.085049,1.958959,1.314632,0.654584,0.171677,0.089712,0.254600,0.523540,0.220251,0.076428,0.045544,1.050899,1.894343,1.208066,0.393429,0.114858,0.591531,1.961025,1.260267,0.336310,0.132590,1.624690,2.110373,1.439506,0.413646,0.079101,2.675093,2.921111,2.965978,0.405884,0.161876,2.607509,2.809716,1.898624,0.421311,0.228001,6.064602,4.169154,2.903796,0.285934,0.181243
1739354897.600714,1739354897.600486,75.000000,0.000000,4250.897461,4221.794922,4272.692383,4358.717773,4210.897461,4200.384766,4199.615234,4252.820313,4190.128418,4185.769043,4692.948730,4523.846191,4352.051270,4534.743652,5514.000000,1.000000,16.000000,,,,0.000000,4.000000,4.000000,4.000000,4.000000,4.000000,4.000000,4.000000,4.000000,4.000000,4.000000,4.000000,4.000000,4.000000,4.000000,100.000000,,,,,,,,,,,,,,,,,,,,,,,,,,,,,,,,,,,,,,,,,,,,,,,,,,,,,,,,,,,,,,,,,,,,,,,,,,,,,,,,,,,,,,,,,,,,,,,,,,,,,,,,,,,,,,,,,,,,,,,,,,,,,,,,,
1739354897.608522,1739354897.608394,76.000000,0.000000,4247.563965,4221.794922,4265.000000,4356.410156,4206.410156,4199.358887,4199.487305,4249.871582,4186.410156,4182.948730,4683.846191,4517.820313,4353.333496,4530.641113,5542.000000,1.000000,16.000000,,,,0.000000,4.000000,4.000000,4.000000,4.000000,4.000000,4.000000,4.000000,4.000000,4.000000,4.000000,4.000000,4.000000,4.000000,4.000000,100.000000,,,,,,,,,,,,,,,,,19.000000,0.000000,0.484436,0.351135,-0.591431,0.540588,0.955195,-0.293493,0.065438,-38.527485,-30.727581,44.164753,,,,,,,,,,,,,,,,,,,,,,,,,,,,,,,,,,,,,,,,,,,,,,,,,,,,,,,,,,,,,,,,,,,,,,,,,,,,,,,,,,,,,,,,,,,,,,,,,,,,,
1739354897.616330,1739354897.616202,77.000000,0.000000,4241.025879,4217.179688,4259.102539,4353.717773,4202.692383,4200.256348,4200.128418,4252.436035,4184.743652,4183.333496,4680.641113,4508.077148,4348.846191,4527.051270,6553.000000,1.000000,16.000000,,,,0.000000,4.000000,4.000000,4.000000,4.000000,4.000000,4.000000,4.000000,4.000000,4.000000,4.000000,4.000000,4.000000,4.000000,4.000000,100.000000,,,,,,,,,,,,,,,,,,,,,,,,,,,,,,,,,,,,,,,,,,,,,,,,,,,,,,,,,,,,,,,,,,,,,,,,,,,,,,,,,,,,,,,,,,,,,,,,,,,,,,,,,,,,,,,,,,,,,,,,,,,,,,,,,
1739354897.624138,1739354897.624111,78.000000,0.000000,4242.179688,4215.512695,4259.230957,4350.897461,4207.307617,4203.205078,4203.077148,4250.769043,4192.307617,4184.871582,4684.487305,4506.538574,4348.589844,4525.769043,5026.000000,1.000000,16.000000,,,,0.000000,4.000000,4.000000,4.000000,4.000000,4.000000,4.000000,4.000000,4.000000,4.000000,4.000000,4.000000,4.000000,4.000000,4.000000,100.000000,,,,,,,,,,,,,,,,,,,,,,,,,,,,,,,,,,,,,,,,,,,,,,,,,,,,,,,,,,,,,,,,,,,,,,,,,,,,,,,,,,,,,,,,,,,,,,,,,,,,,,,,,,,,,,,,,,,,,,,,,,,,,,,,,
1739354897.631946,1739354897.631919,79.000000,0.000000,4242.307617,4216.153809,4259.743652,4345.256348,4206.922852,4200.384766,4202.307617,4250.000000,4200.769043,4186.410156,4686.794922,4507.563965,4353.333496,4525.641113,5514.000000,1.000000,16.000000,,,,0.000000,4.000000,4.000000,4.000000,4.000000,4.000000,4.000000,4.000000,4.000000,4.000000,4.000000,4.000000,4.000000,4.000000,4.000000,100.000000,,,,,,,,,,,,,,,,,,,,,,,,,,,,,,,,,,,,,,,,,,,,,,,,,,,,,,,,,,,,,,,,,,,,,,,,,,,,,,,,,,,,,,,,,,,,,,,,,,,,,,,,,,,,,,,,,,,,,,,,,,,,,,,,,
1739354897.639754,1739354897.639827,80.000000,0.000000,4239.743652,4215.128418,4261.025879,4341.922852,4202.307617,4192.051270,4195.641113,4256.153809,4199.871582,4186.538574,4683.974121,4509.871582,4353.205078,4527.179688,5542.000000,1.000000,16.000000,,,,0.000000,4.000000,4.000000,4.000000,4.000000,4.000000,4.000000,4.000000,4.000000,4.000000,4.000000,4.000000,4.000000,4.000000,4.000000,100.000000,,,,,,,,,,,,,,,,,20.000000,0.000000,0.484735,0.351013,-0.591370,0.540466,0.969357,-0.293493,0.048346,-38.491402,-30.771488,44.031609,,,,,,,,,,,,,,,,,,,,,,,,,,,,,,,,,,,,,,,,,,,,,,,,,,,,,,,,,,,,,,,,,,,,,,,,,,,,,,,,,,,,,,,,,,,,,,,,,,,,,
1739354897.647562,1739354897.647635,81.000000,0.000000,4240.897461,4215.897461,4261.666504,4343.461426,4202.563965,4185.512695,4188.846191,4257.179688,4196.025879,4185.256348,4683.589844,4514.487305,4351.153809,4529.615234,6553.000000,1.000000,16.000000,,,,0.000000,4.000000,4.000000,4.000000,4.000000,4.000000,4.000000,4.000000,4.000000,4.000000,4.000000,4.000000,4.000000,4.000000,4.000000,100.000000,,,,,,,,,,,,,,,,,,,,,,,,,,,,,,,,,,,,,,,,,,,,,,,,,,,,,,,,,,,,,,,,,,,,,,,,,,,,,,,,,,,,,,,,,,,,,,,,,,,,,,,,,,,,,,,,,,,,,,,,,,,,,,,,,
1739354897.655371,1739354897.655542,82.000000,0.000000,4249.102539,4223.461426,4267.436035,4348.205078,4202.948730,4187.692383,4187.436035,4253.333496,4199.102539,4187.307617,4690.000000,4524.102539,4359.743652,4535.256348,5026.000000,1.000000,16.000000,,,,0.000000,4.000000,4.000000,4.000000,4.000000,4.000000,4.000000,4.000000,4.000000,4.000000,4.000000,4.000000,4.000000,4.000000,4.000000,100.000000,,,,,,,,,,,,,,,,,,,,,,,,,,,,,,,,,,,,,,,,,,,,,,,,,,,,,,,,,,,,,,,,,,,,,,,,,,,,,,,,,,,,,,,,,,,,,,,,,,,,,,,,,,,,,,,,,,,,,,,,,,,,,,,,,
1739354897.663179,1739354897.663350,83.000000,0.000000,4261.410156,4230.897461,4278.974121,4353.205078,4202.051270,4191.666504,4190.128418,4256.922852,4199.487305,4188.717773,4691.410156,4534.615234,4374.487305,4541.794922,5514.000000,1.000000,16.000000,,,,0.000000,4.000000,4.000000,4.000000,4.000000,4.000000,4.000000,4.000000,4.000000,4.000000,4.000000,4.000000,4.000000,4.000000,4.000000,100.000000,,,,,,,,,,,,,,,,,,,,,,,,,,,,,,,,,,,,,,,,,,,,,,,,,,,,,,,,,,,,,,,,,,,,,,,,,,,,,,,,,,,,,,,,,,,,,,,,,,,,,,,,,,,,,,,,,,,,,,,,,,,,,,,,,
1739354897.670987,1739354897.671258,84.000000,0.000000,4260.512695,4232.179688,4278.333496,4356.922852,4201.922852,4191.794922,4192.692383,4260.641113,4191.410156,4185.769043,4684.358887,4534.743652,4376.666504,4537.051270,5542.000000,1.000000,16.000000,,,,0.000000,4.000000,4.000000,4.000000,4.000000,4.000000,4.000000,4.000000,4.000000,4.000000,4.000000,4.000000,4.000000,4.000000,4.000000,100.000000,,,,,,,,,,,,,,,,,21.000000,0.000000,0.484820,0.351074,-0.591431,0.540283,0.952753,-0.287633,0.054206,-38.425594,-30.727673,43.878448,,,,,,,,,,,,,,,,,,,,,,,,,,,,,,,,,,,,,,,,,,,,,,,,,,,,,,,,,,,,,,,,,,,,,,,,,,,,,,,,,,,,,,,,,,,,,,,,,,,,,
1739354897.678795,1739354897.679066,85.000000,0.000000,4252.307617,4231.794922,4269.230957,4356.410156,4201.794922,4195.128418,4196.922852,4257.051270,4188.333496,4184.358887,4680.000000,4525.256348,4368.846191,4527.563965,6553.000000,1.000000,16.000000,,,,0.000000,4.000000,4.000000,4.000000,4.000000,4.000000,4.000000,4.000000,4.000000,4.000000,4.000000,4.000000,4.000000,4.000000,4.000000,100.000000,,,,,,,,,,,,,,,,,,,,,,,,,,,,,,,,,,,,,,,,,,,,,,,,,,,,,,,,,,,,,,,,,,,,,,,,,,,,,,,,,,,,,,,,,,,,,,,,,,,,,,,,,,,,,,,,,,,,,,,,,,,,,,,,,
1739354897.686603,1739354897.686974,86.000000,0.000000,4253.461426,4234.358887,4265.769043,4352.307617,4202.563965,4197.307617,4200.769043,4254.871582,4189.487305,4182.051270,4676.922852,4519.102539,4364.358887,4528.589844,5026.000000,1.000000,16.000000,,,,0.000000,4.000000,4.000000,4.000000,4.000000,4.000000,4.000000,4.000000,4.000000,4.000000,4.000000,4.000000,4.000000,4.000000,4.000000,100.000000,,,,,,,,,,,,,,,,,,,,,,,,,,,,,,,,,,,,,,,,,,,,,,,,,,,,,,,,,,,,,,,,,,,,,,,,,,,,,,,,,,,,,,,,,,,,,,,,,,,,,,,,,,,,,,,,,,,,,,,,,,,,,,,,,
1739354897.694411,1739354897.694782,87.000000,0.000000,4255.384766,4233.974121,4266.282227,4350.769043,4207.563965,4193.974121,4195.641113,4256.153809,4184.615234,4175.000000,4673.974121,4523.205078,4365.256348,4531.666504,5514.000000,1.000000,16.000000,,,,0.000000,4.000000,4.000000,4.000000,4.000000,4.000000,4.000000,4.000000,4.000000,4.000000,4.000000,4.000000,4.000000,4.000000,4.000000,100.000000,,,,,,,,,,,,,,,,,,,,,,,,,,,,,,,,,,,,,,,,,,,,,,,,,,,,,,,,,,,,,,,,,,,,,,,,,,,,,,,,,,,,,,,,,,,,,,,,,,,,,,,,,,,,,,,,,,,,,,,,,,,,,,,,,
1739354897.702219,1739354897.702490,88.000000,0.000000,4250.897461,4233.205078,4269.615234,4353.846191,4216.025879,4196.025879,4190.256348,4257.179688,4181.282227,4171.410156,4677.692383,4526.153809,4365.897461,4531.153809,5542.000000,1.000000,16.000000,,,,0.000000,4.000000,4.000000,4.000000,4.000000,4.000000,4.000000,4.000000,4.000000,4.000000,4.000000,4.000000,4.000000,4.000000,4.000000,100.000000,,,,,,,,,,,,,,,,,22.000000,0.000000,0.484999,0.351135,-0.591248,0.540283,0.956660,-0.276401,0.060066,-38.383038,-30.754906,43.923939,,,,,,,,,,,,,,,,,,,,,,,,,,,,,,,,,,,,,,,,,,,,,,,,,,,,,,,,,,,,,,,,,,,,,,,,,,,,,,,,,,,,,,,,,,,,,,,,,,,,,
1739354897.710027,1739354897.710298,89.000000,0.000000,4251.153809,4235.897461,4273.717773,4356.153809,4215.384766,4201.666504,4190.512695,4256.153809,4184.230957,4175.128418,4677.307617,4523.846191,4362.948730,4534.230957,6553.000000,1.000000,16.000000,,,,0.000000,4.000000,4.000000,4.000000,4.000000,4.000000,4.000000,4.000000,4.000000,4.000000,4.000000,4.000000,4.000000,4.000000,4.000000,100.000000,,,,,,,,,,,,,,,,,,,,,,,,,,,,,,,,,,,,,,,,,,,,,,,,,,,,,,,,,,,,,,,,,,,,,,,,,,,,,,,,,,,,,,,,,,,,,,,,,,,,,,,,,,,,,,,,,,,,,,,,,,,,,,,,,
1739354897.717835,1739354897.718006,90.000000,0.000000,4251.410156,4234.615234,4268.974121,4350.897461,4205.256348,4196.282227,4189.230957,4255.897461,4184.871582,4173.461426,4669.230957,4524.615234,4360.897461,4533.846191,5026.000000,1.000000,16.000000,,,,0.000000,4.000000,4.000000,4.000000,4.000000,4.000000,4.000000,4.000000,4.000000,4.000000,4.000000,4.000000,4.000000,4.000000,4.000000,100.000000,,,,,,,,,,,,,,,,,,,,,,,,,,,,,,,,,,,,,,,,,,,,,,,,,,,,,,,,,,,,6.517142,6.523973,2.558577,0.328171,0.164706,11.381249,6.700134,1.888981,0.238039,0.198064,1.821880,3.695444,1.708516,0.296096,0.119990,4.559440,4.337621,1.465322,0.191670,0.227212,1.315576,1.562345,0.872967,0.087424,0.074655,1.378220,0.594109,0.480079,0.087837,0.078693,1.868803,1.368114,0.674426,0.170566,0.087473,0.279721,0.526219,0.272172,0.081068,0.044907,1.044689,2.315705,1.175367,0.396440,0.105277,0.665044,2.827774,1.288853,0.333715,0.122424,1.287610,3.244397,1.332293,0.422858,0.082545,2.136127,4.339290,2.719389,0.425302,0.153720,2.917706,4.356742,1.740876,0.404129,0.209342,5.451218,6.333835,2.736000,0.333046,0.166706
1739354897.725643,1739354897.725814,91.000000,0.000000,4249.102539,4228.461426,4262.820313,4343.717773,4200.256348,4187.820313,4185.641113,4257.307617,4183.205078,4168.077148,4667.179688,4524.358887,4364.615234,4529.487305,5514.000000,1.000000,16.000000,,,,0.000000,4.000000,4.000000,4.000000,4.000000,4.000000,4.000000,4.000000,4.000000,4.000000,4.000000,4.000000,4.000000,4.000000,4.000000,100.000000,,,,,,,,,,,,,,,,,,,,,,,,,,,,,,,,,,,,,,,,,,,,,,,,,,,,,,,,,,,,,,,,,,,,,,,,,,,,,,,,,,,,,,,,,,,,,,,,,,,,,,,,,,,,,,,,,,,,,,,,,,,,,,,,,
1739354897.733451,1739354897.733522,92.000000,0.000000,4256.153809,4231.282227,4264.358887,4344.487305,4203.333496,4185.769043,4183.333496,4257.307617,4185.128418,4175.256348,4671.794922,4523.205078,4371.794922,4531.282227,5542.000000,1.000000,16.000000,,,,0.000000,4.000000,4.000000,4.000000,4.000000,4.000000,4.000000,4.000000,4.000000,4.000000,4.000000,4.000000,4.000000,4.000000,4.000000,100.000000,,,,,,,,,,,,,,,,,23.000000,0.000000,0.484805,0.351318,-0.591187,0.540405,0.956660,-0.279331,0.050787,-38.294731,-30.729416,43.914879,,,,,,,,,,,,,,,,,,,,,,,,,,,,,,,,,,,,,,,,,,,,,,,,,,,,,,,,,,,,,,,,,,,,,,,,,,,,,,,,,,,,,,,,,,,,,,,,,,,,,
1739354897.741259,1739354897.741330,93.000000,0.000000,4262.563965,4240.512695,4269.487305,4352.820313,4205.128418,4185.641113,4183.717773,4256.794922,4187.436035,4185.384766,4673.077148,4530.769043,4375.000000,4536.153809,6553.000000,1.000000,16.000000,,,,0.000000,4.000000,4.000000,4.000000,4.000000,4.000000,4.000000,4.000000,4.000000,4.000000,4.000000,4.000000,4.000000,4.000000,4.000000,100.000000,,,,,,,,,,,,,,,,,,,,,,,,,,,,,,,,,,,,,,,,,,,,,,,,,,,,,,,,,,,,,,,,,,,,,,,,,,,,,,,,,,,,,,,,,,,,,,,,,,,,,,,,,,,,,,,,,,,,,,,,,,,,,,,,,
1739354897.749067,1739354897.749038,94.000000,0.000000,4262.820313,4239.487305,4273.333496,4356.153809,4202.820313,4186.538574,4185.128418,4258.589844,4188.205078,4185.897461,4672.820313,4539.743652,4375.769043,4536.282227,5026.000000,1.000000,16.000000,,,,0.000000,4.000000,4.000000,4.000000,4.000000,4.000000,4.000000,4.000000,4.000000,4.000000,4.000000,4.000000,4.000000,4.000000,4.000000,100.000000,,,,,,,,,,,,,,,,,,,,,,,,,,,,,,,,,,,,,,,,,,,,,,,,,,,,,,,,,,,,,,,,,,,,,,,,,,,,,,,,,,,,,,,,,,,,,,,,,,,,,,,,,,,,,,,,,,,,,,,,,,,,,,,,,
1739354897.756876,1739354897.756846,95.000000,0.000000,4262.692383,4232.692383,4271.538574,4348.589844,4199.743652,4185.000000,4185.128418,4258.077148,4186.538574,4185.769043,4672.179688,4533.077148,4375.641113,4533.717773,5514.000000,1.000000,16.000000,,,,0.000000,4.000000,4.000000,4.000000,4.000000,4.000000,4.000000,4.000000,4.000000,4.000000,4.000000,4.000000,4.000000,4.000000,4.000000,100.000000,,,,,,,,,,,,,,,,,,,,,,,,,,,,,,,,,,,,,,,,,,,,,,,,,,,,,,,,,,,,,,,,,,,,,,,,,,,,,,,,,,,,,,,,,,,,,,,,,,,,,,,,,,,,,,,,,,,,,,,,,,,,,,,,,
1739354897.764684,1739354897.764554,96.000000,0.000000,4255.128418,4230.256348,4265.641113,4340.256348,4199.358887,4181.538574,4182.692383,4250.384766,4185.256348,4181.922852,4665.000000,4522.948730,4367.820313,4525.897461,5542.000000,1.000000,16.000000,,,,0.000000,4.000000,4.000000,4.000000,4.000000,4.000000,4.000000,4.000000,4.000000,4.000000,4.000000,4.000000,4.000000,4.000000,4.000000,100.000000,,,,,,,,,,,,,,,,,24.000000,0.000000,0.484767,0.351379,-0.591125,0.540466,0.953730,-0.294958,0.052252,-38.331924,-30.639807,43.856724,,,,,,,,,,,,,,,,,,,,,,,,,,,,,,,,,,,,,,,,,,,,,,,,,,,,,,,,,,,,,,,,,,,,,,,,,,,,,,,,,,,,,,,,,,,,,,,,,,,,,
1739354897.772492,1739354897.772362,97.000000,0.000000,4245.256348,4227.436035,4260.641113,4338.461426,4199.615234,4181.666504,4181.666504,4248.846191,4185.000000,4171.153809,4655.897461,4517.179688,4356.794922,4515.897461,6553.000000,1.000000,16.000000,,,,0.000000,4.000000,4.000000,4.000000,4.000000,4.000000,4.000000,4.000000,4.000000,4.000000,4.000000,4.000000,4.000000,4.000000,4.000000,100.000000,,,,,,,,,,,,,,,,,,,,,,,,,,,,,,,,,,,,,,,,,,,,,,,,,,,,,,,,,,,,,,,,,,,,,,,,,,,,,,,,,,,,,,,,,,,,,,,,,,,,,,,,,,,,,,,,,,,,,,,,,,,,,,,,,
1739354897.780300,1739354897.780070,98.000000,0.000000,4239.615234,4220.000000,4254.871582,4337.051270,4200.000000,4184.230957,4184.230957,4250.641113,4178.461426,4167.820313,4650.897461,4510.769043,4352.563965,4514.102539,5026.000000,1.000000,16.000000,,,,0.000000,4.000000,4.000000,4.000000,4.000000,4.000000,4.000000,4.000000,4.000000,4.000000,4.000000,4.000000,4.000000,4.000000,4.000000,100.000000,,,,,,,,,,,,,,,,,,,,,,,,,,,,,,,,,,,,,,,,,,,,,,,,,,,,,,,,,,,,,,,,,,,,,,,,,,,,,,,,,,,,,,,,,,,,,,,,,,,,,,,,,,,,,,,,,,,,,,,,,,,,,,,,,
1739354897.788108,1739354897.787978,99.000000,0.000000,4236.282227,4215.128418,4248.974121,4329.487305,4201.538574,4184.615234,4185.512695,4247.692383,4168.974121,4167.436035,4646.153809,4506.538574,4351.922852,4515.256348,5514.000000,1.000000,16.000000,,,,0.000000,4.000000,4.000000,4.000000,4.000000,4.000000,4.000000,4.000000,4.000000,4.000000,4.000000,4.000000,4.000000,4.000000,4.000000,100.000000,,,,,,,,,,,,,,,,,,,,,,,,,,,,,,,,,,,,,,,,,,,,,,,,,,,,,,,,,,,,,,,,,,,,,,,,,,,,,,,,,,,,,,,,,,,,,,,,,,,,,,,,,,,,,,,,,,,,,,,,,,,,,,,,,
1739354897.795916,1739354897.795787,100.000000,0.000000,4231.025879,4213.717773,4244.615234,4324.102539,4196.282227,4185.000000,4185.000000,4246.794922,4168.846191,4158.717773,4640.512695,4503.205078,4347.820313,4512.051270,5542.000000,1.000000,16.000000,,,,0.000000,4.000000,4.000000,4.000000,4.000000,4.000000,4.000000,4.000000,4.000000,4.000000,4.000000,4.000000,4.000000,4.000000,4.000000,100.000000,,,,,,,,,,,,,,,,,25.000000,0.000000,0.484595,0.351318,-0.591248,0.540527,0.950311,-0.294470,0.058113,-38.432068,-30.625826,44.021049,,,,,,,,,,,,,,,,,,,,,,,,,,,,,,,,,,,,,,,,,,,,,,,,,,,,,,,,,,,,,,,,,,,,,,,,,,,,,,,,,,,,,,,,,,,,,,,,,,,,,
1739354897.803724,1739354897.803695,101.000000,0.000000,4227.563965,4212.179688,4241.666504,4324.358887,4189.871582,4185.128418,4184.615234,4250.641113,4169.871582,4158.717773,4639.487305,4500.641113,4348.846191,4505.897461,6553.000000,1.000000,16.000000,,,,0.000000,4.000000,4.000000,4.000000,4.000000,4.000000,4.000000,4.000000,4.000000,4.000000,4.000000,4.000000,4.000000,4.000000,4.000000,100.000000,,,,,,,,,,,,,,,,,,,,,,,,,,,,,,,,,,,,,,,,,,,,,,,,,,,,,,,,,,,,,,,,,,,,,,,,,,,,,,,,,,,,,,,,,,,,,,,,,,,,,,,,,,,,,,,,,,,,,,,,,,,,,,,,,
1739354897.811532,1739354897.811503,102.000000,0.000000,4235.384766,4214.358887,4244.615234,4324.358887,4191.538574,4182.692383,4185.256348,4252.307617,4167.563965,4168.333496,4641.794922,4504.230957,4358.333496,4507.948730,5026.000000,1.000000,16.000000,,,,0.000000,4.000000,4.000000,4.000000,4.000000,4.000000,4.000000,4.000000,4.000000,4.000000,4.000000,4.000000,4.000000,4.000000,4.000000,100.000000,,,,,,,,,,,,,,,,,,,,,,,,,,,,,,,,,,,,,,,,,,,,,,,,,,,,,,,,,,,,,,,,,,,,,,,,,,,,,,,,,,,,,,,,,,,,,,,,,,,,,,,,,,,,,,,,,,,,,,,,,,,,,,,,,
1739354897.819340,1739354897.819411,103.000000,0.000000,4248.205078,4219.230957,4252.179688,4327.692383,4193.333496,4181.794922,4184.487305,4252.179688,4175.384766,4170.384766,4643.589844,4515.769043,4367.179688,4518.333496,5514.000000,1.000000,16.000000,,,,0.000000,4.000000,4.000000,4.000000,4.000000,4.000000,4.000000,4.000000,4.000000,4.000000,4.000000,4.000000,4.000000,4.000000,4.000000,100.000000,,,,,,,,,,,,,,,,,,,,,,,,,,,,,,,,,,,,,,,,,,,,,,,,,,,,,,,,,,,,,,,,,,,,,,,,,,,,,,,,,,,,,,,,,,,,,,,,,,,,,,,,,,,,,,,,,,,,,,,,,,,,,,,,,
1739354897.827148,1739354897.827219,104.000000,0.000000,4248.717773,4225.000000,4252.563965,4334.615234,4193.717773,4181.410156,4182.692383,4255.897461,4187.051270,4171.025879,4647.820313,4523.333496,4371.538574,4524.743652,5542.000000,1.000000,16.000000,,,,0.000000,4.000000,4.000000,4.000000,4.000000,4.000000,4.000000,4.000000,4.000000,4.000000,4.000000,4.000000,4.000000,4.000000,4.000000,100.000000,,,,,,,,,,,,,,,,,26.000000,0.000000,0.484466,0.351196,-0.591370,0.540588,0.953730,-0.292028,0.048346,-38.455528,-30.546577,43.985611,,,,,,,,,,,,,,,,,,,,,,,,,,,,,,,,,,,,,,,,,,,,,,,,,,,,,,,,,,,,,,,,,,,,,,,,,,,,,,,,,,,,,,,,,,,,,,,,,,,,,
1739354897.834956,1739354897.835127,105.000000,0.000000,4245.000000,4228.589844,4251.282227,4336.282227,4197.692383,4180.897461,4183.333496,4256.410156,4188.333496,4175.128418,4646.922852,4518.333496,4367.692383,4522.307617,6553.000000,1.000000,16.000000,,,,0.000000,4.000000,4.000000,4.000000,4.000000,4.000000,4.000000,4.000000,4.000000,4.000000,4.000000,4.000000,4.000000,4.000000,4.000000,100.000000,,,,,,,,,,,,,,,,,,,,,,,,,,,,,,,,,,,,,,,,,,,,,,,,,,,,,,,,,,,,,,,,,,,,,,,,,,,,,,,,,,,,,,,,,,,,,,,,,,,,,,,,,,,,,,,,,,,,,,,,,,,,,,,,,
1739354897.842765,1739354897.842935,106.000000,0.000000,4247.179688,4228.333496,4251.538574,4333.333496,4200.769043,4181.922852,4184.871582,4247.820313,4182.820313,4173.974121,4637.179688,4512.179688,4361.538574,4514.743652,5026.000000,1.000000,16.000000,,,,0.000000,4.000000,4.000000,4.000000,4.000000,4.000000,4.000000,4.000000,4.000000,4.000000,4.000000,4.000000,4.000000,4.000000,4.000000,100.000000,,,,,,,,,,,,,,,,,,,,,,,,,,,,,,,,,,,,,,,,,,,,,,,,,,,,,,,,,,,,8.783932,9.369219,2.464542,0.399578,0.154331,15.193275,8.839289,2.227671,0.313333,0.217224,1.572393,4.763102,1.492656,0.309427,0.106507,4.404075,5.198995,1.393093,0.202093,0.195135,1.147721,1.891598,0.831581,0.083618,0.070770,1.228394,0.872629,0.542743,0.078305,0.069675,1.735955,1.588876,0.693281,0.174506,0.084940,0.304205,0.551052,0.343685,0.086321,0.047388,1.058168,2.952704,1.077474,0.371983,0.095594,0.865406,4.157583,1.234858,0.331098,0.107591,1.224841,4.835287,1.161311,0.407774,0.087193,1.934949,6.264098,2.252800,0.433552,0.137842,4.096610,6.457708,1.541414,0.385420,0.205265,6.895531,9.168769,2.441603,0.385316,0.159012
1739354897.850572,1739354897.850843,107.000000,0.000000,4247.948730,4230.769043,4251.282227,4334.358887,4200.897461,4185.000000,4184.743652,4245.769043,4180.512695,4170.769043,4633.717773,4517.307617,4365.512695,4516.794922,5514.000000,1.000000,16.000000,,,,0.000000,4.000000,4.000000,4.000000,4.000000,4.000000,4.000000,4.000000,4.000000,4.000000,4.000000,4.000000,4.000000,4.000000,4.000000,100.000000,,,,,,,,,,,,,,,,,,,,,,,,,,,,,,,,,,,,,,,,,,,,,,,,,,,,,,,,,,,,,,,,,,,,,,,,,,,,,,,,,,,,,,,,,,,,,,,,,,,,,,,,,,,,,,,,,,,,,,,,,,,,,,,,,
1739354897.858381,1739354897.858650,108.000000,0.000000,4246.666504,4232.179688,4254.615234,4334.871582,4202.948730,4187.948730,4186.922852,4249.230957,4179.871582,4170.641113,4637.948730,4520.512695,4373.077148,4526.538574,5542.000000,1.000000,16.000000,,,,0.000000,4.000000,4.000000,4.000000,4.000000,4.000000,4.000000,4.000000,4.000000,4.000000,4.000000,4.000000,4.000000,4.000000,4.000000,100.000000,,,,,,,,,,,,,,,,,27.000000,0.000000,0.484371,0.351318,-0.591431,0.540527,0.952265,-0.291051,0.055183,-38.576641,-30.458586,44.053719,,,,,,,,,,,,,,,,,,,,,,,,,,,,,,,,,,,,,,,,,,,,,,,,,,,,,,,,,,,,,,,,,,,,,,,,,,,,,,,,,,,,,,,,,,,,,,,,,,,,,
1739354897.866189,1739354897.866558,109.000000,0.000000,4241.666504,4223.077148,4254.230957,4328.974121,4202.563965,4187.820313,4188.846191,4247.179688,4174.487305,4170.641113,4633.461426,4510.000000,4369.102539,4525.256348,6553.000000,1.000000,16.000000,,,,0.000000,4.000000,4.000000,4.000000,4.000000,4.000000,4.000000,4.000000,4.000000,4.000000,4.000000,4.000000,4.000000,4.000000,4.000000,100.000000,,,,,,,,,,,,,,,,,,,,,,,,,,,,,,,,,,,,,,,,,,,,,,,,,,,,,,,,,,,,,,,,,,,,,,,,,,,,,,,,,,,,,,,,,,,,,,,,,,,,,,,,,,,,,,,,,,,,,,,,,,,,,,,,,
1739354897.873997,1739354897.874366,110.000000,0.000000,4232.820313,4216.538574,4247.563965,4322.307617,4199.230957,4185.000000,4185.128418,4244.871582,4164.743652,4166.922852,4623.717773,4503.589844,4360.769043,4516.410156,5026.000000,1.000000,16.000000,,,,0.000000,4.000000,4.000000,4.000000,4.000000,4.000000,4.000000,4.000000,4.000000,4.000000,4.000000,4.000000,4.000000,4.000000,4.000000,100.000000,,,,,,,,,,,,,,,,,,,,,,,,,,,,,,,,,,,,,,,,,,,,,,,,,,,,,,,,,,,,,,,,,,,,,,,,,,,,,,,,,,,,,,,,,,,,,,,,,,,,,,,,,,,,,,,,,,,,,,,,,,,,,,,,,
1739354897.881805,1739354897.882174,111.000000,0.000000,4228.846191,4215.000000,4245.128418,4320.000000,4200.769043,4184.871582,4181.794922,4249.615234,4166.025879,4163.717773,4623.461426,4509.102539,4357.820313,4515.000000,5514.000000,1.000000,16.000000,,,,0.000000,4.000000,4.000000,4.000000,4.000000,4.000000,4.000000,4.000000,4.000000,4.000000,4.000000,4.000000,4.000000,4.000000,4.000000,100.000000,,,,,,,,,,,,,,,,,,,,,,,,,,,,,,,,,,,,,,,,,,,,,,,,,,,,,,,,,,,,,,,,,,,,,,,,,,,,,,,,,,,,,,,,,,,,,,,,,,,,,,,,,,,,,,,,,,,,,,,,,,,,,,,,,
1739354897.889613,1739354897.889982,112.000000,0.000000,4233.077148,4211.025879,4250.769043,4319.102539,4200.128418,4186.794922,4185.256348,4253.717773,4182.179688,4172.307617,4630.128418,4516.794922,4360.512695,4520.384766,5542.000000,1.000000,16.000000,,,,0.000000,4.000000,4.000000,4.000000,4.000000,4.000000,4.000000,4.000000,4.000000,4.000000,4.000000,4.000000,4.000000,4.000000,4.000000,100.000000,,,,,,,,,,,,,,,,,28.000000,0.000000,0.484395,0.351379,-0.591431,0.540466,0.963985,-0.295935,0.053717,-38.468975,-30.512728,44.031677,,,,,,,,,,,,,,,,,,,,,,,,,,,,,,,,,,,,,,,,,,,,,,,,,,,,,,,,,,,,,,,,,,,,,,,,,,,,,,,,,,,,,,,,,,,,,,,,,,,,,
1739354897.897421,1739354897.897690,113.000000,0.000000,4243.846191,4219.487305,4261.794922,4322.436035,4199.230957,4186.025879,4189.615234,4255.000000,4190.128418,4183.974121,4633.205078,4530.000000,4365.897461,4526.025879,6553.000000,1.000000,16.000000,,,,0.000000,4.000000,4.000000,4.000000,4.000000,4.000000,4.000000,4.000000,4.000000,4.000000,4.000000,4.000000,4.000000,4.000000,4.000000,100.000000,,,,,,,,,,,,,,,,,,,,,,,,,,,,,,,,,,,,,,,,,,,,,,,,,,,,,,,,,,,,,,,,,,,,,,,,,,,,,,,,,,,,,,,,,,,,,,,,,,,,,,,,,,,,,,,,,,,,,,,,,,,,,,,,,
1739354897.905229,1739354897.905498,114.000000,0.000000,4258.589844,4236.538574,4274.358887,4332.179688,4206.666504,4190.384766,4191.794922,4259.358887,4186.153809,4185.641113,4636.666504,4545.256348,4369.487305,4532.436035,5026.000000,1.000000,16.000000,,,,0.000000,4.000000,4.000000,4.000000,4.000000,4.000000,4.000000,4.000000,4.000000,4.000000,4.000000,4.000000,4.000000,4.000000,4.000000,100.000000,,,,,,,,,,,,,,,,,,,,,,,,,,,,,,,,,,,,,,,,,,,,,,,,,,,,,,,,,,,,,,,,,,,,,,,,,,,,,,,,,,,,,,,,,,,,,,,,,,,,,,,,,,,,,,,,,,,,,,,,,,,,,,,,,
1739354897.913037,1739354897.913206,115.000000,0.000000,4265.641113,4238.205078,4278.717773,4337.948730,4215.512695,4199.230957,4197.051270,4258.717773,4187.436035,4185.512695,4640.128418,4548.846191,4371.410156,4533.717773,5514.000000,1.000000,16.000000,,,,0.000000,4.000000,4.000000,4.000000,4.000000,4.000000,4.000000,4.000000,4.000000,4.000000,4.000000,4.000000,4.000000,4.000000,4.000000,100.000000,,,,,,,,,,,,,,,,,,,,,,,,,,,,,,,,,,,,,,,,,,,,,,,,,,,,,,,,,,,,,,,,,,,,,,,,,,,,,,,,,,,,,,,,,,,,,,,,,,,,,,,,,,,,,,,,,,,,,,,,,,,,,,,,,
1739354897.920845,1739354897.921014,116.000000,0.000000,4259.615234,4231.794922,4271.153809,4333.974121,4215.641113,4200.256348,4197.948730,4252.948730,4190.256348,4189.487305,4635.256348,4540.897461,4372.563965,4532.179688,5542.000000,1.000000,16.000000,,,,0.000000,4.000000,4.000000,4.000000,4.000000,4.000000,4.000000,4.000000,4.000000,4.000000,4.000000,4.000000,4.000000,4.000000,4.000000,100.000000,,,,,,,,,,,,,,,,,29.000000,0.000000,0.484344,0.351440,-0.591492,0.540405,0.958613,-0.294470,0.055671,-38.538746,-30.411455,43.911846,,,,,,,,,,,,,,,,,,,,,,,,,,,,,,,,,,,,,,,,,,,,,,,,,,,,,,,,,,,,,,,,,,,,,,,,,,,,,,,,,,,,,,,,,,,,,,,,,,,,,
1739354897.928653,1739354897.928722,117.000000,0.000000,4252.307617,4233.974121,4266.410156,4329.358887,4214.487305,4197.051270,4194.615234,4250.256348,4185.897461,4186.282227,4624.102539,4536.410156,4372.307617,4532.820313,6553.000000,1.000000,16.000000,,,,0.000000,4.000000,4.000000,4.000000,4.000000,4.000000,4.000000,4.000000,4.000000,4.000000,4.000000,4.000000,4.000000,4.000000,4.000000,100.000000,,,,,,,,,,,,,,,,,,,,,,,,,,,,,,,,,,,,,,,,,,,,,,,,,,,,,,,,,,,,,,,,,,,,,,,,,,,,,,,,,,,,,,,,,,,,,,,,,,,,,,,,,,,,,,,,,,,,,,,,,,,,,,,,,
1739354897.936461,1739354897.936631,118.000000,0.000000,4249.487305,4236.538574,4267.820313,4327.692383,4215.769043,4200.769043,4198.205078,4251.025879,4184.358887,4184.358887,4624.230957,4538.846191,4377.436035,4530.128418,5026.000000,1.000000,16.000000,,,,0.000000,4.000000,4.000000,4.000000,4.000000,4.000000,4.000000,4.000000,4.000000,4.000000,4.000000,4.000000,4.000000,4.000000,4.000000,100.000000,,,,,,,,,,,,,,,,,,,,,,,,,,,,,,,,,,,,,,,,,,,,,,,,,,,,,,,,,,,,,,,,,,,,,,,,,,,,,,,,,,,,,,,,,,,,,,,,,,,,,,,,,,,,,,,,,,,,,,,,,,,,,,,,,
1739354897.944270,1739354897.944439,119.000000,0.000000,4250.512695,4231.282227,4268.717773,4328.205078,4213.205078,4203.461426,4202.051270,4255.384766,4189.615234,4190.641113,4631.538574,4540.769043,4378.974121,4524.102539,5514.000000,1.000000,16.000000,,,,0.000000,4.000000,4.000000,4.000000,4.000000,4.000000,4.000000,4.000000,4.000000,4.000000,4.000000,4.000000,4.000000,4.000000,4.000000,100.000000,,,,,,,,,,,,,,,,,,,,,,,,,,,,,,,,,,,,,,,,,,,,,,,,,,,,,,,,,,,,,,,,,,,,,,,,,,,,,,,,,,,,,,,,,,,,,,,,,,,,,,,,,,,,,,,,,,,,,,,,,,,,,,,,,
1739354897.952078,1739354897.952347,120.000000,0.000000,4243.589844,4219.871582,4262.051270,4325.512695,4209.871582,4198.717773,4197.820313,4254.487305,4188.589844,4183.205078,4624.230957,4532.563965,4362.563965,4515.641113,5542.000000,1.000000,16.000000,,,,0.000000,4.000000,4.000000,4.000000,4.000000,4.000000,4.000000,4.000000,4.000000,4.000000,4.000000,4.000000,4.000000,4.000000,4.000000,100.000000,,,,,,,,,,,,,,,,,30.000000,0.000000,0.484324,0.351563,-0.591492,0.540344,0.947381,-0.287144,0.049811,-38.601540,-30.353643,43.803993,,,,,,,,,,,,,,,,,,,,,,,,,,,,,,,,,,,,,,,,,,,,,,,,,,,,,,,,,,,,,,,,,,,,,,,,,,,,,,,,,,,,,,,,,,,,,,,,,,,,,
1739354897.959885,1739354897.960155,121.000000,0.000000,4232.820313,4217.179688,4256.025879,4317.563965,4211.666504,4198.717773,4197.179688,4252.179688,4184.615234,4175.897461,4612.820313,4523.589844,4350.512695,4510.897461,6553.000000,1.000000,16.000000,,,,0.000000,4.000000,4.000000,4.000000,4.000000,4.000000,4.000000,4.000000,4.000000,4.000000,4.000000,4.000000,4.000000,4.000000,4.000000,100.000000,,,,,,,,,,,,,,,,,,,,,,,,,,,,,,,,,,,,,,,,,,,,,,,,,,,,,,,,,,,,,,,,,,,,,,,,,,,,,,,,,,,,,,,,,,,,,,,,,,,,,,,,,,,,,,,,,,,,,,,,,,,,,,,,,
1739354897.967694,1739354897.967963,122.000000,0.000000,4234.615234,4224.487305,4257.436035,4311.922852,4213.846191,4202.179688,4203.974121,4255.128418,4186.282227,4181.410156,4614.102539,4526.666504,4359.487305,4512.563965,5026.000000,1.000000,16.000000,,,,0.000000,4.000000,4.000000,4.000000,4.000000,4.000000,4.000000,4.000000,4.000000,4.000000,4.000000,4.000000,4.000000,4.000000,4.000000,100.000000,,,,,,,,,,,,,,,,,,,,,,,,,,,,,,,,,,,,,,,,,,,,,,,,,,,,,,,,,,,,12.207274,12.162621,2.413270,0.464183,0.143353,20.272322,10.962140,2.624308,0.378887,0.224288,1.539643,5.794215,1.246511,0.320976,0.093178,4.703357,6.093483,1.370995,0.212872,0.164278,1.089079,2.254132,0.802842,0.079383,0.068141,1.133570,1.164889,0.620186,0.079105,0.060055,1.591231,1.854132,0.722574,0.185918,0.083805,0.331232,0.600180,0.432484,0.091376,0.053021,1.081829,3.630540,0.965306,0.332210,0.087745,1.121343,5.535484,1.147729,0.325987,0.092402,1.216253,6.401163,0.988962,0.375574,0.092419,1.950508,8.127048,1.749626,0.441114,0.120441,5.567373,8.510865,1.364844,0.370218,0.215667,9.231954,11.836388,2.117056,0.434435,0.158680
1739354897.975502,1739354897.975671,123.000000,0.000000,4234.487305,4219.230957,4253.461426,4308.589844,4213.333496,4202.436035,4202.820313,4254.358887,4183.589844,4176.538574,4609.615234,4525.000000,4363.974121,4509.615234,5514.000000,1.000000,16.000000,,,,0.000000,4.000000,4.000000,4.000000,4.000000,4.000000,4.000000,4.000000,4.000000,4.000000,4.000000,4.000000,4.000000,4.000000,4.000000,100.000000,,,,,,,,,,,,,,,,,,,,,,,,,,,,,,,,,,,,,,,,,,,,,,,,,,,,,,,,,,,,,,,,,,,,,,,,,,,,,,,,,,,,,,,,,,,,,,,,,,,,,,,,,,,,,,,,,,,,,,,,,,,,,,,,,
1739354897.983310,1739354897.983579,124.000000,0.000000,4233.077148,4217.307617,4250.512695,4310.128418,4215.512695,4208.205078,4203.974121,4249.871582,4182.051270,4171.282227,4602.820313,4522.307617,4359.871582,4508.589844,5542.000000,1.000000,16.000000,,,,0.000000,4.000000,4.000000,4.000000,4.000000,4.000000,4.000000,4.000000,4.000000,4.000000,4.000000,4.000000,4.000000,4.000000,4.000000,100.000000,,,,,,,,,,,,,,,,,31.000000,0.000000,0.484563,0.352112,-0.591248,0.540039,0.943475,-0.279331,0.056648,-38.558052,-30.434944,43.873592,,,,,,,,,,,,,,,,,,,,,,,,,,,,,,,,,,,,,,,,,,,,,,,,,,,,,,,,,,,,,,,,,,,,,,,,,,,,,,,,,,,,,,,,,,,,,,,,,,,,,
1739354897.991118,1739354897.991388,125.000000,0.000000,4244.102539,4231.538574,4260.641113,4321.666504,4220.512695,4215.769043,4210.641113,4252.436035,4194.230957,4185.128418,4614.615234,4534.871582,4367.179688,4516.794922,6553.000000,1.000000,16.000000,,,,0.000000,4.000000,4.000000,4.000000,4.000000,4.000000,4.000000,4.000000,4.000000,4.000000,4.000000,4.000000,4.000000,4.000000,4.000000,100.000000,,,,,,,,,,,,,,,,,,,,,,,,,,,,,,,,,,,,,,,,,,,,,,,,,,,,,,,,,,,,,,,,,,,,,,,,,,,,,,,,,,,,,,,,,,,,,,,,,,,,,,,,,,,,,,,,,,,,,,,,,,,,,,,,,
1739354897.998926,1739354897.999296,126.000000,0.000000,4249.743652,4231.666504,4263.717773,4325.641113,4216.282227,4213.461426,4205.128418,4255.384766,4197.051270,4190.641113,4621.025879,4539.487305,4373.333496,4514.358887,5026.000000,1.000000,16.000000,,,,0.000000,4.000000,4.000000,4.000000,4.000000,4.000000,4.000000,4.000000,4.000000,4.000000,4.000000,4.000000,4.000000,4.000000,4.000000,100.000000,,,,,,,,,,,,,,,,,,,,,,,,,,,,,,,,,,,,,,,,,,,,,,,,,,,,,,,,,,,,,,,,,,,,,,,,,,,,,,,,,,,,,,,,,,,,,,,,,,,,,,,,,,,,,,,,,,,,,,,,,,,,,,,,,
1739354898.006734,1739354898.007104,127.000000,0.000000,4243.333496,4217.820313,4254.743652,4320.128418,4211.153809,4208.717773,4198.717773,4252.051270,4184.743652,4181.153809,4611.153809,4533.846191,4370.769043,4506.410156,16.000000,1.000000,16.000000,,,,0.000000,4.000000,4.000000,4.000000,4.000000,4.000000,4.000000,4.000000,4.000000,4.000000,4.000000,4.000000,4.000000,4.000000,4.000000,100.000000,,,,,,,,,,,,,,,,,,,,,,,,,,,,,,,,,,,,,,,,,,,,,,,,,,,,,,,,,,,,,,,,,,,,,,,,,,,,,,,,,,,,,,,,,,,,,,,,,,,,,,,,,,,,,,,,,,,,,,,,,,,,,,,,,
1739354898.014542,1739354898.015012,0.000000,0.000000,4254.230957,4226.922852,4262.948730,4331.410156,4220.512695,4214.358887,4210.641113,4253.461426,4194.871582,4194.487305,4619.358887,4548.077148,4384.102539,4524.487305,5145.000000,1.000000,16.000000,,,,0.000000,4.000000,4.000000,4.000000,4.000000,4.000000,4.000000,4.000000,4.000000,4.000000,4.000000,4.000000,4.000000,4.000000,4.000000,100.000000,,,,,,,,,,,,,,,,,0.000000,0.000000,0.484617,0.351868,-0.591125,0.540283,0.971310,-0.301306,0.062996,-38.385578,-30.508118,43.819569,,,,,,,,,,,,,,,,,,,,,,,,,,,,,,,,,,,,,,,,,,,,,,,,,,,,,,,,,,,,,,,,,,,,,,,,,,,,,,,,,,,,,,,,,,,,,,,,,,,,,
1739354898.022350,1739354898.022820,1.000000,0.000000,4275.769043,4246.153809,4279.487305,4355.512695,4231.794922,4223.717773,4223.461426,4256.410156,4215.256348,4216.538574,4636.282227,4565.256348,4398.974121,4548.589844,5494.000000,1.000000,16.000000,,,,0.000000,4.000000,4.000000,4.000000,4.000000,4.000000,4.000000,4.000000,4.000000,4.000000,4.000000,4.000000,4.000000,4.000000,4.000000,100.000000,,,,,,,,,,,,,,,,,,,,,,,,,,,,,,,,,,,,,,,,,,,,,,,,,,,,,,,,,,,,,,,,,,,,,,,,,,,,,,,,,,,,,,,,,,,,,,,,,,,,,,,,,,,,,,,,,,,,,,,,,,,,,,,,,
1739354898.030158,1739354898.030728,2.000000,0.000000,4277.179688,4244.487305,4276.538574,4364.615234,4234.230957,4230.000000,4221.922852,4253.717773,4209.102539,4211.538574,4630.256348,4562.051270,4391.282227,4545.641113,5536.000000,1.000000,16.000000,,,,0.000000,4.000000,4.000000,4.000000,4.000000,4.000000,4.000000,4.000000,4.000000,4.000000,4.000000,4.000000,4.000000,4.000000,4.000000,100.000000,,,,,,,,,,,,,,,,,,,,,,,,,,,,,,,,,,,,,,,,,,,,,,,,,,,,,,,,,,,,,,,,,,,,,,,,,,,,,,,,,,,,,,,,,,,,,,,,,,,,,,,,,,,,,,,,,,,,,,,,,,,,,,,,,
1739354898.037966,1739354898.038536,3.000000,0.000000,4290.512695,4258.461426,4289.615234,4388.077148,4253.717773,4248.461426,4238.205078,4260.512695,4220.769043,4219.358887,4640.641113,4585.256348,4400.000000,4556.538574,5460.000000,1.000000,16.000000,,,,0.000000,4.000000,4.000000,4.000000,4.000000,4.000000,4.000000,4.000000,4.000000,4.000000,4.000000,4.000000,4.000000,4.000000,4.000000,100.000000,,,,,,,,,,,,,,,,,,,,,,,,,,,,,,,,,,,,,,,,,,,,,,,,,,,,,,,,,,,,,,,,,,,,,,,,,,,,,,,,,,,,,,,,,,,,,,,,,,,,,,,,,,,,,,,,,,,,,,,,,,,,,,,,,
1739354898.045774,1739354898.046444,4.000000,0.000000,4338.077148,4303.974121,4332.563965,4440.384766,4291.282227,4281.025879,4276.025879,4275.000000,4270.128418,4267.179688,4685.769043,4639.743652,4441.666504,4604.358887,5427.000000,1.000000,16.000000,,,,0.000000,4.000000,4.000000,4.000000,4.000000,4.000000,4.000000,4.000000,4.000000,4.000000,4.000000,4.000000,4.000000,4.000000,4.000000,100.000000,,,,,,,,,,,,,,,,,1.000000,0.000000,0.484056,0.351624,-0.591675,0.540344,0.960566,-0.283726,0.068856,-38.363689,-30.523972,43.854279,,,,,,,,,,,,,,,,,,,,,,,,,,,,,,,,,,,,,,,,,,,,,,,,,,,,,,,,,,,,,,,,,,,,,,,,,,,,,,,,,,,,,,,,,,,,,,,,,,,,,
1739354898.053583,1739354898.054251,5.000000,0.000000,4371.922852,4332.051270,4356.025879,4473.589844,4314.487305,4302.820313,4295.512695,4274.615234,4288.717773,4296.666504,4710.128418,4661.922852,4465.128418,4634.487305,5440.000000,1.000000,16.000000,,,,0.000000,4.000000,4.000000,4.000000,4.000000,4.000000,4.000000,4.000000,4.000000,4.000000,4.000000,4.000000,4.000000,4.000000,4.000000,100.000000,,,,,,,,,,,,,,,,,,,,,,,,,,,,,,,,,,,,,,,,,,,,,,,,,,,,,,,,,,,,,,,,,,,,,,,,,,,,,,,,,,,,,,,,,,,,,,,,,,,,,,,,,,,,,,,,,,,,,,,,,,,,,,,,,
1739354898.061391,1739354898.061960,6.000000,0.000000,4379.615234,4336.538574,4357.563965,4482.820313,4323.846191,4310.769043,4303.589844,4267.436035,4280.897461,4292.436035,4711.410156,4662.436035,4463.974121,4637.051270,5405.000000,1.000000,16.000000,,,,0.000000,4.000000,4.000000,4.000000,4.000000,4.000000,4.000000,4.000000,4.000000,4.000000,4.000000,4.000000,4.000000,4.000000,4.000000,100.000000,,,,,,,,,,,,,,,,,,,,,,,,,,,,,,,,,,,,,,,,,,,,,,,,,,,,,,,,,,,,,,,,,,,,,,,,,,,,,,,,,,,,,,,,,,,,,,,,,,,,,,,,,,,,,,,,,,,,,,,,,,,,,,,,,
1739354898.069199,1739354898.069868,7.000000,0.000000,4388.589844,4344.358887,4361.794922,4498.717773,4331.025879,4321.666504,4316.410156,4271.538574,4292.948730,4300.256348,4721.025879,4677.563965,4473.077148,4648.333496,2413.000000,1.000000,16.000000,,,,0.000000,4.000000,4.000000,4.000000,4.000000,4.000000,4.000000,4.000000,4.000000,4.000000,4.000000,4.000000,4.000000,4.000000,4.000000,100.000000,,,,,,,,,,,,,,,,,,,,,,,,,,,,,,,,,,,,,,,,,,,,,,,,,,,,,,,,,,,,,,,,,,,,,,,,,,,,,,,,,,,,,,,,,,,,,,,,,,,,,,,,,,,,,,,,,,,,,,,,,,,,,,,,,
1739354898.077007,1739354898.077676,8.000000,0.000000,4392.436035,4344.487305,4353.589844,4513.846191,4329.358887,4327.179688,4315.897461,4281.538574,4304.358887,4312.436035,4722.820313,4680.897461,4479.487305,4652.563965,5215.000000,1.000000,16.000000,,,,0.000000,4.000000,4.000000,4.000000,4.000000,4.000000,4.000000,4.000000,4.000000,4.000000,4.000000,4.000000,4.000000,4.000000,4.000000,100.000000,,,,,,,,,,,,,,,,,2.000000,0.000000,0.483818,0.351746,-0.591797,0.540344,0.951288,-0.296911,0.041997,-38.593987,-30.388241,43.818851,,,,,,,,,,,,,,,,,,,,,,,,,,,,,,,,,,,,,,,,,,,,,,,,,,,,,,,,,,,,,,,,,,,,,,,,,,,,,,,,,,,,,,,,,,,,,,,,,,,,,
1739354898.084815,1739354898.085484,9.000000,0.000000,4395.769043,4348.077148,4345.512695,4525.384766,4328.333496,4325.128418,4312.692383,4292.051270,4305.512695,4311.410156,4720.384766,4679.102539,4481.922852,4649.871582,5544.000000,1.000000,16.000000,,,,0.000000,4.000000,4.000000,4.000000,4.000000,4.000000,4.000000,4.000000,4.000000,4.000000,4.000000,4.000000,4.000000,4.000000,4.000000,100.000000,,,,,,,,,,,,,,,,,,,,,,,,,,,,,,,,,,,,,,,,,,,,,,,,,,,,,,,,,,,,,,,,,,,,,,,,,,,,,,,,,,,,,,,,,,,,,,,,,,,,,,,,,,,,,,,,,,,,,,,,,,,,,,,,,
1739354898.092623,1739354898.093192,10.000000,0.000000,4420.384766,4372.563965,4365.897461,4550.512695,4340.256348,4335.384766,4330.512695,4302.948730,4320.256348,4323.589844,4731.410156,4702.563965,4500.897461,4671.410156,4988.000000,1.000000,16.000000,,,,0.000000,4.000000,4.000000,4.000000,4.000000,4.000000,4.000000,4.000000,4.000000,4.000000,4.000000,4.000000,4.000000,4.000000,4.000000,100.000000,1.000000,75.000000,4.000000,4.000000,4.000000,3.000000,3.000000,3.000000,3.000000,4.000000,4.000000,3.000000,3.000000,4.000000,4.000000,4.000000,,,,,,,,,,,,,,,,,,,,,,,,,,,,,,,,,,,,,,,,,,,,14.953211,13.875597,2.440091,0.502309,0.134017,24.504091,12.244499,2.983110,0.412295,0.215267,1.640966,6.412395,1.055730,0.333312,0.084784,5.173029,6.604970,1.407740,0.215172,0.138541,1.145768,2.535715,0.805260,0.075708,0.066934,1.095798,1.392120,0.685904,0.085368,0.051785,1.455731,2.039112,0.770130,0.204719,0.083780,0.341807,0.665789,0.527236,0.094593,0.060249,1.071121,4.123945,0.879154,0.290215,0.082642,1.333963,6.464699,1.067793,0.313780,0.080550,1.182890,7.386407,0.859441,0.338310,0.097365,2.007625,9.284697,1.377930,0.456642,0.108298,6.656221,9.803520,1.267614,0.360308,0.233165,11.034996,13.382059,1.839178,0.469260,0.162537
1739354898.100431,1739354898.101000,11.000000,0.000000,4434.358887,4380.769043,4382.563965,4568.461426,4347.307617,4344.615234,4340.256348,4308.333496,4330.641113,4338.717773,4734.615234,4717.051270,4514.871582,4689.230957,5474.000000,1.000000,16.000000,,,,0.000000,4.000000,4.000000,4.000000,4.000000,4.000000,4.000000,4.000000,4.000000,4.000000,4.000000,4.000000,4.000000,4.000000,4.000000,100.000000,,,,,,,,,,,,,,,,,,,,,,,,,,,,,,,,,,,,,,,,,,,,,,,,,,,,,,,,,,,,,,,,,,,,,,,,,,,,,,,,,,,,,,,,,,,,,,,,,,,,,,,,,,,,,,,,,,,,,,,,,,,,,,,,,
1739354898.108239,1739354898.108708,12.000000,0.000000,4427.563965,4373.846191,4379.871582,4570.256348,4342.436035,4342.820313,4332.948730,4308.205078,4326.922852,4336.153809,4727.436035,4712.436035,4517.436035,4685.384766,5516.000000,1.000000,16.000000,,,,0.000000,4.000000,4.000000,4.000000,4.000000,4.000000,4.000000,4.000000,4.000000,4.000000,4.000000,4.000000,4.000000,4.000000,4.000000,100.000000,,,,,,,,,,,,,,,,,3.000000,0.000000,0.483906,0.351990,-0.591858,0.540039,0.942498,-0.294958,0.050787,-38.534588,-30.399418,43.953632,,,,,,,,,,,,,,,,,,,,,,,,,,,,,,,,,,,,,,,,,,,,,,,,,,,,,,,,,,,,,,,,,,,,,,,,,,,,,,,,,,,,,,,,,,,,,,,,,,,,,
1739354898.116047,1739354898.116516,13.000000,0.000000,4434.358887,4380.000000,4381.922852,4578.205078,4340.128418,4343.077148,4336.153809,4307.307617,4326.666504,4329.871582,4726.282227,4718.461426,4522.820313,4685.641113,6502.000000,1.000000,16.000000,,,,0.000000,4.000000,4.000000,4.000000,4.000000,4.000000,4.000000,4.000000,4.000000,4.000000,4.000000,4.000000,4.000000,4.000000,4.000000,100.000000,,,,,,,,,,,,,,,,,,,,,,,,,,,,,,,,,,,,,,,,,,,,,,,,,,,,,,,,,,,,,,,,,,,,,,,,,,,,,,,,,,,,,,,,,,,,,,,,,,,,,,,,,,,,,,,,,,,,,,,,,,,,,,,,,
1739354898.123855,1739354898.124224,14.000000,0.000000,4441.410156,4378.205078,4381.025879,4581.922852,4338.333496,4342.307617,4338.846191,4306.538574,4323.205078,4323.974121,4719.102539,4717.948730,4519.358887,4685.897461,4988.000000,1.000000,16.000000,,,,0.000000,4.000000,4.000000,4.000000,4.000000,4.000000,4.000000,4.000000,4.000000,4.000000,4.000000,4.000000,4.000000,4.000000,4.000000,100.000000,,,,,,,,,,,,,,,,,,,,,,,,,,,,,,,,,,,,,,,,,,,,,,,,,,,,,,,,,,,,,,,,,,,,,,,,,,,,,,,,,,,,,,,,,,,,,,,,,,,,,,,,,,,,,,,,,,,,,,,,,,,,,,,,,
1739354898.131663,1739354898.132032,15.000000,0.000000,4446.410156,4375.256348,4385.512695,4587.692383,4342.563965,4345.512695,4345.000000,4312.692383,4334.358887,4334.230957,4725.256348,4720.769043,4521.282227,4691.025879,5474.000000,1.000000,16.000000,,,,0.000000,4.000000,4.000000,4.000000,4.000000,4.000000,4.000000,4.000000,4.000000,4.000000,4.000000,4.000000,4.000000,4.000000,4.000000,100.000000,,,,,,,,,,,,,,,,,,,,,,,,,,,,,,,,,,,,,,,,,,,,,,,,,,,,,,,,,,,,,,,,,,,,,,,,,,,,,,,,,,,,,,,,,,,,,,,,,,,,,,,,,,,,,,,,,,,,,,,,,,,,,,,,,
1739354898.139471,1739354898.139740,16.000000,0.000000,4460.512695,4385.769043,4399.487305,4600.512695,4355.000000,4357.179688,4359.358887,4317.820313,4364.102539,4353.333496,4742.436035,4739.102539,4534.871582,4703.846191,0.000000,1.000000,16.000000,,,,0.000000,4.000000,4.000000,4.000000,4.000000,4.000000,4.000000,4.000000,4.000000,4.000000,4.000000,4.000000,4.000000,4.000000,4.000000,100.000000,,,,,,,,,,,,,,,,,4.000000,0.000000,0.484311,0.351929,-0.591675,0.539917,0.973263,-0.298376,0.073739,-38.481129,-30.359476,43.941601,,,,,,,,,,,,,,,,,,,,,,,,,,,,,,,,,,,,,,,,,,,,,,,,,,,,,,,,,,,,,,,,,,,,,,,,,,,,,,,,,,,,,,,,,,,,,,,,,,,,,
1739354898.147279,1739354898.147548,17.000000,0.000000,4459.487305,4383.974121,4399.102539,4595.641113,4357.563965,4358.461426,4351.666504,4309.743652,4358.205078,4337.948730,4731.794922,4736.922852,4527.179688,4694.102539,0.000000,1.000000,16.000000,,,,0.000000,4.000000,4.000000,4.000000,4.000000,4.000000,4.000000,4.000000,4.000000,4.000000,4.000000,4.000000,4.000000,4.000000,4.000000,100.000000,,,,,,,,,,,,,,,,,,,,,,,,,,,,,,,,,,,,,,,,,,,,,,,,,,,,,,,,,,,,,,,,,,,,,,,,,,,,,,,,,,,,,,,,,,,,,,,,,,,,,,,,,,,,,,,,,,,,,,,,,,,,,,,,,
1739354898.155088,1739354898.155256,18.000000,0.000000,4459.487305,4383.333496,4401.666504,4593.205078,4358.846191,4357.820313,4344.487305,4307.563965,4341.282227,4322.692383,4722.948730,4732.179688,4516.922852,4684.615234,0.000000,1.000000,16.000000,,,,0.000000,4.000000,4.000000,4.000000,4.000000,4.000000,4.000000,4.000000,4.000000,4.000000,4.000000,4.000000,4.000000,4.000000,4.000000,100.000000,,,,,,,,,,,,,,,,,,,,,,,,,,,,,,,,,,,,,,,,,,,,,,,,,,,,,,,,,,,,,,,,,,,,,,,,,,,,,,,,,,,,,,,,,,,,,,,,,,,,,,,,,,,,,,,,,,,,,,,,,,,,,,,,,
1739354898.162896,1739354898.163164,19.000000,0.000000,4481.153809,4398.077148,4413.589844,4612.436035,4368.205078,4366.153809,4361.538574,4317.307617,4364.358887,4347.948730,4741.922852,4750.641113,4534.871582,4706.794922,0.000000,1.000000,16.000000,,,,0.000000,4.000000,4.000000,4.000000,4.000000,4.000000,4.000000,4.000000,4.000000,4.000000,4.000000,4.000000,4.000000,4.000000,4.000000,100.000000,,,,,,,,,,,,,,,,,,,,,,,,,,,,,,,,,,,,,,,,,,,,,,,,,,,,,,,,,,,,,,,,,,,,,,,,,,,,,,,,,,,,,,,,,,,,,,,,,,,,,,,,,,,,,,,,,,,,,,,,,,,,,,,,,
1739354898.170704,1739354898.170973,20.000000,0.000000,4487.051270,4393.589844,4400.256348,4606.794922,4366.282227,4363.205078,4365.769043,4315.641113,4373.589844,4354.358887,4741.025879,4753.717773,4538.077148,4715.000000,0.000000,1.000000,16.000000,,,,0.000000,4.000000,4.000000,4.000000,4.000000,4.000000,4.000000,4.000000,4.000000,4.000000,4.000000,4.000000,4.000000,4.000000,4.000000,100.000000,,,,,,,,,,,,,,,,,5.000000,0.000000,0.484661,0.351746,-0.591553,0.539856,0.955195,-0.296911,0.074716,-38.416348,-30.473528,43.830776,,,,,,,,,,,,,,,,,,,,,,,,,,,,,,,,,,,,,,,,,,,,,,,,,,,,,,,,,,,,,,,,,,,,,,,,,,,,,,,,,,,,,,,,,,,,,,,,,,,,,
1739354898.178512,1739354898.178781,21.000000,0.000000,4484.615234,4383.589844,4386.794922,4583.333496,4358.974121,4357.692383,4356.666504,4311.922852,4350.641113,4332.179688,4726.153809,4743.333496,4525.641113,4703.589844,0.000000,1.000000,16.000000,,,,0.000000,4.000000,4.000000,4.000000,4.000000,4.000000,4.000000,4.000000,4.000000,4.000000,4.000000,4.000000,4.000000,4.000000,4.000000,100.000000,,,,,,,,,,,,,,,,,,,,,,,,,,,,,,,,,,,,,,,,,,,,,,,,,,,,,,,,,,,,,,,,,,,,,,,,,,,,,,,,,,,,,,,,,,,,,,,,,,,,,,,,,,,,,,,,,,,,,,,,,,,,,,,,,
1739354898.186320,1739354898.186489,22.000000,0.000000,4516.538574,4399.230957,4414.102539,4593.589844,4369.871582,4371.922852,4367.179688,4321.282227,4359.615234,4346.153809,4740.128418,4762.563965,4541.153809,4719.871582,0.000000,1.000000,16.000000,,,,0.000000,4.000000,4.000000,4.000000,4.000000,4.000000,4.000000,4.000000,4.000000,4.000000,4.000000,4.000000,4.000000,4.000000,4.000000,100.000000,,,,,,,,,,,,,,,,,,,,,,,,,,,,,,,,,,,,,,,,,,,,,,,,,,,,,,,,,,,,,,,,,,,,,,,,,,,,,,,,,,,,,,,,,,,,,,,,,,,,,,,,,,,,,,,,,,,,,,,,,,,,,,,,,
1739354898.194128,1739354898.194397,23.000000,0.000000,4539.102539,4404.615234,4428.717773,4600.384766,4375.769043,4376.666504,4373.717773,4323.077148,4378.974121,4365.769043,4747.179688,4778.717773,4553.333496,4737.179688,0.000000,1.000000,16.000000,,,,0.000000,4.000000,4.000000,4.000000,4.000000,4.000000,4.000000,4.000000,4.000000,4.000000,4.000000,4.000000,4.000000,4.000000,4.000000,100.000000,,,,,,,,,,,,,,,,,,,,,,,,,,,,,,,,,,,,,,,,,,,,,,,,,,,,,,,,,,,,,,,,,,,,,,,,,,,,,,,,,,,,,,,,,,,,,,,,,,,,,,,,,,,,,,,,,,,,,,,,,,,,,,,,,
1739354898.201936,1739354898.202205,24.000000,0.000000,4525.897461,4391.410156,4412.179688,4578.077148,4365.256348,4365.641113,4365.641113,4317.820313,4367.051270,4351.153809,4731.282227,4765.512695,4540.000000,4727.051270,0.000000,1.000000,16.000000,,,,0.000000,4.000000,4.000000,4.000000,4.000000,4.000000,4.000000,4.000000,4.000000,4.000000,4.000000,4.000000,4.000000,4.000000,4.000000,100.000000,,,,,,,,,,,,,,,,,6.000000,0.000000,0.484458,0.351624,-0.591736,0.539917,0.951776,-0.293005,0.059578,-38.441380,-30.542843,43.947697,,,,,,,,,,,,,,,,,,,,,,,,,,,,,,,,,,,,,,,,,,,,,,,,,,,,,,,,,,,,,,,,,,,,,,,,,,,,,,,,,,,,,,,,,,,,,,,,,,,,,
1739354898.209744,1739354898.210113,25.000000,0.000000,4523.589844,4393.589844,4413.717773,4567.948730,4364.615234,4365.384766,4364.615234,4319.487305,4362.179688,4346.538574,4731.153809,4758.333496,4542.051270,4721.666504,0.000000,1.000000,16.000000,,,,0.000000,4.000000,4.000000,4.000000,4.000000,4.000000,4.000000,4.000000,4.000000,4.000000,4.000000,4.000000,4.000000,4.000000,4.000000,100.000000,,,,,,,,,,,,,,,,,,,,,,,,,,,,,,,,,,,,,,,,,,,,,,,,,,,,,,,,,,,,,,,,,,,,,,,,,,,,,,,,,,,,,,,,,,,,,,,,,,,,,,,,,,,,,,,,,,,,,,,,,,,,,,,,,
1739354898.217552,1739354898.217921,26.000000,0.000000,4537.692383,4403.589844,4427.563965,4572.563965,4369.358887,4367.948730,4360.769043,4317.436035,4367.051270,4356.282227,4740.769043,4764.487305,4554.487305,4731.025879,0.000000,1.000000,16.000000,,,,0.000000,4.000000,4.000000,4.000000,4.000000,4.000000,4.000000,4.000000,4.000000,4.000000,4.000000,4.000000,4.000000,4.000000,4.000000,100.000000,,,,,,,,,,,,,,,,,,,,,,,,,,,,,,,,,,,,,,,,,,,,,,,,,,,,,,,,,,,,15.656183,13.920809,2.508558,0.504829,0.128272,25.848726,12.189333,3.170698,0.404095,0.193145,1.771673,6.374211,0.950925,0.346827,0.084478,5.419566,6.497180,1.457565,0.206953,0.119979,1.303954,2.652419,0.817477,0.074760,0.066874,1.133682,1.502060,0.709947,0.092377,0.046256,1.392809,2.049820,0.823731,0.225958,0.083435,0.354564,0.719011,0.602893,0.093753,0.066584,1.100792,4.248150,0.839859,0.255611,0.081779,1.551892,6.602705,1.014778,0.291699,0.075543,1.195414,7.449211,0.779673,0.306922,0.102312,2.096252,9.352244,1.212757,0.479834,0.106626,6.928507,9.882849,1.254315,0.356303,0.248598,11.518577,13.275258,1.618243,0.480146,0.167465
1739354898.225360,1739354898.225828,27.000000,0.000000,4540.512695,4407.563965,4432.051270,4573.205078,4369.743652,4367.307617,4357.179688,4314.615234,4365.384766,4354.102539,4742.820313,4770.128418,4553.205078,4735.512695,0.000000,1.000000,16.000000,,,,0.000000,4.000000,4.000000,4.000000,4.000000,4.000000,4.000000,4.000000,4.000000,4.000000,4.000000,4.000000,4.000000,4.000000,4.000000,100.000000,,,,,,,,,,,,,,,,,,,,,,,,,,,,,,,,,,,,,,,,,,,,,,,,,,,,,,,,,,,,,,,,,,,,,,,,,,,,,,,,,,,,,,,,,,,,,,,,,,,,,,,,,,,,,,,,,,,,,,,,,,,,,,,,,
1739354898.233168,1739354898.233636,28.000000,0.000000,4526.282227,4400.384766,4428.717773,4564.102539,4368.077148,4365.897461,4356.025879,4316.666504,4362.436035,4346.794922,4735.000000,4762.307617,4549.102539,4727.051270,0.000000,1.000000,16.000000,,,,0.000000,4.000000,4.000000,4.000000,4.000000,4.000000,4.000000,4.000000,4.000000,4.000000,4.000000,4.000000,4.000000,4.000000,4.000000,100.000000,,,,,,,,,,,,,,,,,7.000000,0.000000,0.484170,0.351318,-0.592041,0.540039,0.953241,-0.289586,0.062996,-38.480576,-30.538557,43.902927,,,,,,,,,,,,,,,,,,,,,,,,,,,,,,,,,,,,,,,,,,,,,,,,,,,,,,,,,,,,,,,,,,,,,,,,,,,,,,,,,,,,,,,,,,,,,,,,,,,,,
1739354898.240976,1739354898.241544,29.000000,0.000000,4507.179688,4381.922852,4417.948730,4543.846191,4357.692383,4358.974121,4348.333496,4315.000000,4350.769043,4333.333496,4716.153809,4742.692383,4543.077148,4713.717773,0.000000,1.000000,16.000000,,,,0.000000,4.000000,4.000000,4.000000,4.000000,4.000000,4.000000,4.000000,4.000000,4.000000,4.000000,4.000000,4.000000,4.000000,4.000000,100.000000,,,,,,,,,,,,,,,,,,,,,,,,,,,,,,,,,,,,,,,,,,,,,,,,,,,,,,,,,,,,,,,,,,,,,,,,,,,,,,,,,,,,,,,,,,,,,,,,,,,,,,,,,,,,,,,,,,,,,,,,,,,,,,,,,
1739354898.248784,1739354898.249352,30.000000,0.000000,4502.563965,4377.051270,4415.769043,4535.256348,4354.102539,4359.743652,4353.077148,4317.948730,4346.025879,4324.487305,4708.846191,4740.769043,4534.487305,4714.615234,0.000000,1.000000,16.000000,,,,0.000000,4.000000,4.000000,4.000000,4.000000,4.000000,4.000000,4.000000,4.000000,4.000000,4.000000,4.000000,4.000000,4.000000,4.000000,100.000000,,,,,,,,,,,,,,,,,,,,,,,,,,,,,,,,,,,,,,,,,,,,,,,,,,,,,,,,,,,,,,,,,,,,,,,,,,,,,,,,,,,,,,,,,,,,,,,,,,,,,,,,,,,,,,,,,,,,,,,,,,,,,,,,,
1739354898.256593,1739354898.257060,31.000000,0.000000,4511.922852,4387.179688,4428.077148,4543.589844,4364.743652,4370.000000,4365.641113,4325.256348,4360.512695,4335.897461,4718.974121,4755.384766,4540.769043,4726.025879,0.000000,1.000000,16.000000,,,,0.000000,4.000000,4.000000,4.000000,4.000000,4.000000,4.000000,4.000000,4.000000,4.000000,4.000000,4.000000,4.000000,4.000000,4.000000,100.000000,,,,,,,,,,,,,,,,,,,,,,,,,,,,,,,,,,,,,,,,,,,,,,,,,,,,,,,,,,,,,,,,,,,,,,,,,,,,,,,,,,,,,,,,,,,,,,,,,,,,,,,,,,,,,,,,,,,,,,,,,,,,,,,,,
1739354898.264401,1739354898.264868,32.000000,0.000000,4505.897461,4380.128418,4422.948730,4529.615234,4362.563965,4364.102539,4352.563965,4319.743652,4358.077148,4340.897461,4708.846191,4744.615234,4541.666504,4715.512695,0.000000,1.000000,16.000000,,,,0.000000,4.000000,4.000000,4.000000,4.000000,4.000000,4.000000,4.000000,4.000000,4.000000,4.000000,4.000000,4.000000,4.000000,4.000000,100.000000,,,,,,,,,,,,,,,,,8.000000,0.000000,0.483960,0.350830,-0.592224,0.540344,0.954706,-0.284214,0.053717,-38.699184,-30.484701,43.895969,,,,,,,,,,,,,,,,,,,,,,,,,,,,,,,,,,,,,,,,,,,,,,,,,,,,,,,,,,,,,,,,,,,,,,,,,,,,,,,,,,,,,,,,,,,,,,,,,,,,,
1739354898.272209,1739354898.272576,33.000000,0.000000,4488.717773,4368.461426,4407.820313,4507.820313,4346.794922,4349.743652,4333.333496,4311.410156,4340.769043,4328.333496,4683.974121,4721.282227,4525.769043,4695.512695,0.000000,1.000000,16.000000,,,,0.000000,4.000000,4.000000,4.000000,4.000000,4.000000,4.000000,4.000000,4.000000,4.000000,4.000000,4.000000,4.000000,4.000000,4.000000,100.000000,,,,,,,,,,,,,,,,,,,,,,,,,,,,,,,,,,,,,,,,,,,,,,,,,,,,,,,,,,,,,,,,,,,,,,,,,,,,,,,,,,,,,,,,,,,,,,,,,,,,,,,,,,,,,,,,,,,,,,,,,,,,,,,,,
1739354898.280017,1739354898.280384,34.000000,0.000000,4487.179688,4369.487305,4411.410156,4508.461426,4341.922852,4348.589844,4335.512695,4313.461426,4340.128418,4322.179688,4681.666504,4723.974121,4525.000000,4696.794922,0.000000,1.000000,16.000000,,,,0.000000,4.000000,4.000000,4.000000,4.000000,4.000000,4.000000,4.000000,4.000000,4.000000,4.000000,4.000000,4.000000,4.000000,4.000000,100.000000,,,,,,,,,,,,,,,,,,,,,,,,,,,,,,,,,,,,,,,,,,,,,,,,,,,,,,,,,,,,,,,,,,,,,,,,,,,,,,,,,,,,,,,,,,,,,,,,,,,,,,,,,,,,,,,,,,,,,,,,,,,,,,,,,
1739354898.287825,1739354898.288092,35.000000,0.000000,4492.563965,4366.666504,4419.871582,4503.717773,4344.230957,4347.179688,4335.256348,4317.692383,4343.846191,4325.384766,4688.846191,4734.615234,4539.487305,4705.897461,0.000000,1.000000,16.000000,,,,0.000000,4.000000,4.000000,4.000000,4.000000,4.000000,4.000000,4.000000,4.000000,4.000000,4.000000,4.000000,4.000000,4.000000,4.000000,100.000000,,,,,,,,,,,,,,,,,,,,,,,,,,,,,,,,,,,,,,,,,,,,,,,,,,,,,,,,,,,,,,,,,,,,,,,,,,,,,,,,,,,,,,,,,,,,,,,,,,,,,,,,,,,,,,,,,,,,,,,,,,,,,,,,,
1739354898.295633,1739354898.295900,36.000000,0.000000,4488.205078,4364.487305,4420.512695,4483.846191,4341.538574,4341.153809,4329.871582,4317.563965,4341.025879,4326.922852,4682.820313,4733.461426,4538.974121,4704.230957,0.000000,1.000000,16.000000,,,,0.000000,4.000000,4.000000,4.000000,4.000000,4.000000,4.000000,4.000000,4.000000,4.000000,4.000000,4.000000,4.000000,4.000000,4.000000,100.000000,,,,,,,,,,,,,,,,,9.000000,0.000000,0.483756,0.350708,-0.592407,0.540405,0.959101,-0.290074,0.053229,-38.845932,-30.486231,44.023037,,,,,,,,,,,,,,,,,,,,,,,,,,,,,,,,,,,,,,,,,,,,,,,,,,,,,,,,,,,,,,,,,,,,,,,,,,,,,,,,,,,,,,,,,,,,,,,,,,,,,
1739354898.303441,1739354898.303608,37.000000,0.000000,4479.487305,4365.256348,4417.436035,4472.051270,4336.153809,4342.436035,4333.974121,4316.666504,4345.128418,4328.974121,4684.487305,4731.922852,4528.589844,4697.307617,0.000000,1.000000,16.000000,,,,0.000000,4.000000,4.000000,4.000000,4.000000,4.000000,4.000000,4.000000,4.000000,4.000000,4.000000,4.000000,4.000000,4.000000,4.000000,100.000000,,,,,,,,,,,,,,,,,,,,,,,,,,,,,,,,,,,,,,,,,,,,,,,,,,,,,,,,,,,,,,,,,,,,,,,,,,,,,,,,,,,,,,,,,,,,,,,,,,,,,,,,,,,,,,,,,,,,,,,,,,,,,,,,,
1739354898.311249,1739354898.311416,38.000000,0.000000,4463.846191,4349.615234,4402.948730,4453.717773,4327.563965,4341.538574,4330.384766,4313.974121,4348.717773,4324.615234,4693.974121,4720.641113,4520.512695,4686.922852,0.000000,1.000000,16.000000,,,,0.000000,4.000000,4.000000,4.000000,4.000000,4.000000,4.000000,4.000000,4.000000,4.000000,4.000000,4.000000,4.000000,4.000000,4.000000,100.000000,,,,,,,,,,,,,,,,,,,,,,,,,,,,,,,,,,,,,,,,,,,,,,,,,,,,,,,,,,,,,,,,,,,,,,,,,,,,,,,,,,,,,,,,,,,,,,,,,,,,,,,,,,,,,,,,,,,,,,,,,,,,,,,,,
1739354898.319057,1739354898.319125,39.000000,0.000000,4443.717773,4331.922852,4383.205078,4425.512695,4320.641113,4332.563965,4317.179688,4307.948730,4337.820313,4308.333496,4684.871582,4695.512695,4512.307617,4669.871582,0.000000,1.000000,16.000000,,,,0.000000,4.000000,4.000000,4.000000,4.000000,4.000000,4.000000,4.000000,4.000000,4.000000,4.000000,4.000000,4.000000,4.000000,4.000000,100.000000,,,,,,,,,,,,,,,,,,,,,,,,,,,,,,,,,,,,,,,,,,,,,,,,,,,,,,,,,,,,,,,,,,,,,,,,,,,,,,,,,,,,,,,,,,,,,,,,,,,,,,,,,,,,,,,,,,,,,,,,,,,,,,,,,
1739354898.326865,1739354898.326932,40.000000,0.000000,4428.974121,4329.743652,4376.922852,4414.230957,4315.512695,4326.282227,4309.871582,4301.410156,4317.692383,4289.743652,4667.436035,4674.102539,4502.948730,4652.692383,0.000000,1.000000,16.000000,,,,0.000000,4.000000,4.000000,4.000000,4.000000,4.000000,4.000000,4.000000,4.000000,4.000000,4.000000,4.000000,4.000000,4.000000,4.000000,100.000000,,,,,,,,,,,,,,,,,10.000000,0.000000,0.483221,0.350769,-0.592529,0.540710,0.969357,-0.289586,0.063484,-38.778008,-30.554276,44.154068,,,,,,,,,,,,,,,,,,,,,,,,,,,,,,,,,,,,,,,,,,,,,,,,,,,,,,,,,,,,,,,,,,,,,,,,,,,,,,,,,,,,,,,,,,,,,,,,,,,,,
1739354898.334673,1739354898.334641,41.000000,0.000000,4416.922852,4323.717773,4375.128418,4406.922852,4305.128418,4316.794922,4299.871582,4298.589844,4300.000000,4274.615234,4657.436035,4662.692383,4492.692383,4641.282227,0.000000,1.000000,16.000000,,,,0.000000,4.000000,4.000000,4.000000,4.000000,4.000000,4.000000,4.000000,4.000000,4.000000,4.000000,4.000000,4.000000,4.000000,4.000000,100.000000,,,,,,,,,,,,,,,,,,,,,,,,,,,,,,,,,,,,,,,,,,,,,,,,,,,,,,,,,,,,,,,,,,,,,,,,,,,,,,,,,,,,,,,,,,,,,,,,,,,,,,,,,,,,,,,,,,,,,,,,,,,,,,,,,
1739354898.342481,1739354898.342449,42.000000,0.000000,4406.538574,4309.743652,4366.153809,4386.538574,4292.692383,4301.922852,4279.615234,4295.256348,4282.563965,4257.563965,4642.179688,4647.948730,4479.743652,4633.077148,0.000000,1.000000,16.000000,,,,0.000000,4.000000,4.000000,4.000000,4.000000,4.000000,4.000000,4.000000,4.000000,4.000000,4.000000,4.000000,4.000000,4.000000,4.000000,100.000000,,,,,,,,,,,,,,,,,,,,,,,,,,,,,,,,,,,,,,,,,,,,,,,,,,,,,,,,,,,,14.489737,12.298495,2.558726,0.477529,0.129764,23.785936,10.707891,3.111510,0.363361,0.168869,2.082068,5.657404,0.933456,0.367745,0.094578,5.625147,5.750832,1.475054,0.196856,0.111451,1.622472,2.582221,0.822410,0.081115,0.067985,1.308464,1.488731,0.688873,0.099656,0.044470,1.511069,1.881735,0.872031,0.242900,0.083307,0.394694,0.727190,0.632726,0.088978,0.070294,1.340679,3.959837,0.850350,0.235765,0.091219,2.030777,5.915967,0.996570,0.263863,0.084098,1.485949,6.588014,0.743260,0.289164,0.111283,2.496058,8.334892,1.251433,0.507264,0.119796,6.639311,8.724504,1.286683,0.357368,0.257487,10.824525,11.564664,1.432717,0.465320,0.175857
1739354898.350289,1739354898.350157,43.000000,0.000000,4392.948730,4300.000000,4352.307617,4366.410156,4281.410156,4291.538574,4265.897461,4286.025879,4265.512695,4237.563965,4625.256348,4629.358887,4469.871582,4622.563965,0.000000,1.000000,16.000000,,,,0.000000,4.000000,4.000000,4.000000,4.000000,4.000000,4.000000,4.000000,4.000000,4.000000,4.000000,4.000000,4.000000,4.000000,4.000000,100.000000,,,,,,,,,,,,,,,,,,,,,,,,,,,,,,,,,,,,,,,,,,,,,,,,,,,,,,,,,,,,,,,,,,,,,,,,,,,,,,,,,,,,,,,,,,,,,,,,,,,,,,,,,,,,,,,,,,,,,,,,,,,,,,,,,
1739354898.358097,1739354898.357965,44.000000,0.000000,4376.794922,4293.974121,4344.487305,4350.128418,4270.384766,4286.025879,4261.153809,4282.948730,4258.717773,4229.487305,4626.282227,4617.179688,4464.615234,4609.743652,0.000000,1.000000,16.000000,,,,0.000000,4.000000,4.000000,4.000000,4.000000,4.000000,4.000000,4.000000,4.000000,4.000000,4.000000,4.000000,4.000000,4.000000,4.000000,100.000000,,,,,,,,,,,,,,,,,11.000000,0.000000,0.482596,0.350952,-0.592651,0.541016,0.954218,-0.301306,0.051764,-38.816872,-30.532181,44.238663,,,,,,,,,,,,,,,,,,,,,,,,,,,,,,,,,,,,,,,,,,,,,,,,,,,,,,,,,,,,,,,,,,,,,,,,,,,,,,,,,,,,,,,,,,,,,,,,,,,,,
1739354898.365906,1739354898.365673,45.000000,0.000000,4364.615234,4284.487305,4342.307617,4328.717773,4259.358887,4274.743652,4249.230957,4284.487305,4255.769043,4228.205078,4632.179688,4608.461426,4458.077148,4598.077148,0.000000,1.000000,16.000000,,,,0.000000,4.000000,4.000000,4.000000,4.000000,4.000000,4.000000,4.000000,4.000000,4.000000,4.000000,4.000000,4.000000,4.000000,4.000000,100.000000,,,,,,,,,,,,,,,,,,,,,,,,,,,,,,,,,,,,,,,,,,,,,,,,,,,,,,,,,,,,,,,,,,,,,,,,,,,,,,,,,,,,,,,,,,,,,,,,,,,,,,,,,,,,,,,,,,,,,,,,,,,,,,,,,
1739354898.373714,1739354898.373581,46.000000,0.000000,4343.974121,4270.512695,4335.897461,4309.358887,4252.051270,4264.358887,4235.769043,4280.384766,4242.051270,4220.641113,4625.641113,4599.102539,4446.410156,4590.512695,0.000000,1.000000,16.000000,,,,0.000000,4.000000,4.000000,4.000000,4.000000,4.000000,4.000000,4.000000,4.000000,4.000000,4.000000,4.000000,4.000000,4.000000,4.000000,100.000000,,,,,,,,,,,,,,,,,,,,,,,,,,,,,,,,,,,,,,,,,,,,,,,,,,,,,,,,,,,,,,,,,,,,,,,,,,,,,,,,,,,,,,,,,,,,,,,,,,,,,,,,,,,,,,,,,,,,,,,,,,,,,,,,,
1739354898.381522,1739354898.381389,47.000000,0.000000,4310.512695,4263.205078,4328.077148,4295.897461,4245.384766,4258.717773,4227.948730,4275.256348,4232.307617,4210.641113,4618.974121,4587.563965,4430.512695,4586.794922,0.000000,1.000000,16.000000,,,,0.000000,4.000000,4.000000,4.000000,4.000000,4.000000,4.000000,4.000000,4.000000,4.000000,4.000000,4.000000,4.000000,4.000000,4.000000,100.000000,,,,,,,,,,,,,,,,,,,,,,,,,,,,,,,,,,,,,,,,,,,,,,,,,,,,,,,,,,,,,,,,,,,,,,,,,,,,,,,,,,,,,,,,,,,,,,,,,,,,,,,,,,,,,,,,,,,,,,,,,,,,,,,,,
1739354898.389330,1739354898.389297,48.000000,0.000000,4289.615234,4262.948730,4322.820313,4281.282227,4236.410156,4251.922852,4220.897461,4273.461426,4230.641113,4206.282227,4622.692383,4574.102539,4424.871582,4581.538574,0.000000,1.000000,16.000000,,,,0.000000,4.000000,4.000000,4.000000,4.000000,4.000000,4.000000,4.000000,4.000000,4.000000,4.000000,4.000000,4.000000,4.000000,4.000000,100.000000,,,,,,,,,,,,,,,,,12.000000,0.000000,0.482319,0.351257,-0.592529,0.541199,0.942498,-0.300818,0.040532,-38.801853,-30.628963,44.231461,,,,,,,,,,,,,,,,,,,,,,,,,,,,,,,,,,,,,,,,,,,,,,,,,,,,,,,,,,,,,,,,,,,,,,,,,,,,,,,,,,,,,,,,,,,,,,,,,,,,,
1739354898.397138,1739354898.397105,49.000000,0.000000,4283.589844,4253.077148,4314.102539,4266.282227,4227.436035,4243.077148,4215.512695,4271.282227,4224.102539,4201.025879,4621.794922,4562.692383,4426.794922,4573.461426,0.000000,1.000000,16.000000,,,,0.000000,4.000000,4.000000,4.000000,4.000000,4.000000,4.000000,4.000000,4.000000,4.000000,4.000000,4.000000,4.000000,4.000000,4.000000,100.000000,,,,,,,,,,,,,,,,,,,,,,,,,,,,,,,,,,,,,,,,,,,,,,,,,,,,,,,,,,,,,,,,,,,,,,,,,,,,,,,,,,,,,,,,,,,,,,,,,,,,,,,,,,,,,,,,,,,,,,,,,,,,,,,,,
1739354898.404946,1739354898.405013,50.000000,0.000000,4268.589844,4235.256348,4301.410156,4249.743652,4220.000000,4233.333496,4209.358887,4267.820313,4216.922852,4190.512695,4605.256348,4550.897461,4418.717773,4563.077148,0.000000,1.000000,16.000000,,,,0.000000,4.000000,4.000000,4.000000,4.000000,4.000000,4.000000,4.000000,4.000000,4.000000,4.000000,4.000000,4.000000,4.000000,4.000000,100.000000,,,,,,,,,,,,,,,,,,,,,,,,,,,,,,,,,,,,,,,,,,,,,,,,,,,,,,,,,,,,,,,,,,,,,,,,,,,,,,,,,,,,,,,,,,,,,,,,,,,,,,,,,,,,,,,,,,,,,,,,,,,,,,,,,
1739354898.412754,1739354898.412821,51.000000,0.000000,4254.102539,4229.615234,4296.410156,4235.384766,4214.358887,4230.384766,4203.846191,4266.922852,4213.589844,4185.769043,4594.358887,4540.256348,4413.077148,4552.051270,0.000000,1.000000,16.000000,,,,0.000000,4.000000,4.000000,4.000000,4.000000,4.000000,4.000000,4.000000,4.000000,4.000000,4.000000,4.000000,4.000000,4.000000,4.000000,100.000000,,,,,,,,,,,,,,,,,,,,,,,,,,,,,,,,,,,,,,,,,,,,,,,,,,,,,,,,,,,,,,,,,,,,,,,,,,,,,,,,,,,,,,,,,,,,,,,,,,,,,,,,,,,,,,,,,,,,,,,,,,,,,,,,,
1739354898.420562,1739354898.420728,52.000000,0.000000,4245.128418,4228.333496,4291.666504,4222.051270,4206.410156,4229.487305,4196.410156,4265.128418,4203.077148,4180.000000,4593.077148,4525.000000,4412.820313,4542.820313,0.000000,1.000000,16.000000,,,,0.000000,4.000000,4.000000,4.000000,4.000000,4.000000,4.000000,4.000000,4.000000,4.000000,4.000000,4.000000,4.000000,4.000000,4.000000,100.000000,,,,,,,,,,,,,,,,,13.000000,0.000000,0.482334,0.351563,-0.592224,0.541321,0.957636,-0.305701,0.053717,-38.705002,-30.766068,44.424980,,,,,,,,,,,,,,,,,,,,,,,,,,,,,,,,,,,,,,,,,,,,,,,,,,,,,,,,,,,,,,,,,,,,,,,,,,,,,,,,,,,,,,,,,,,,,,,,,,,,,
1739354898.428370,1739354898.428536,53.000000,0.000000,4232.563965,4218.461426,4276.025879,4206.666504,4199.871582,4217.179688,4187.307617,4258.461426,4186.922852,4162.820313,4580.256348,4507.692383,4402.051270,4534.743652,0.000000,1.000000,16.000000,,,,0.000000,4.000000,4.000000,4.000000,4.000000,4.000000,4.000000,4.000000,4.000000,4.000000,4.000000,4.000000,4.000000,4.000000,4.000000,100.000000,,,,,,,,,,,,,,,,,,,,,,,,,,,,,,,,,,,,,,,,,,,,,,,,,,,,,,,,,,,,,,,,,,,,,,,,,,,,,,,,,,,,,,,,,,,,,,,,,,,,,,,,,,,,,,,,,,,,,,,,,,,,,,,,,
1739354898.436178,1739354898.436444,54.000000,0.000000,4225.897461,4213.205078,4268.461426,4198.846191,4196.538574,4203.974121,4182.820313,4253.205078,4179.358887,4151.025879,4567.436035,4502.051270,4397.051270,4527.692383,0.000000,1.000000,16.000000,,,,0.000000,4.000000,4.000000,4.000000,4.000000,4.000000,4.000000,4.000000,4.000000,4.000000,4.000000,4.000000,4.000000,4.000000,4.000000,100.000000,,,,,,,,,,,,,,,,,,,,,,,,,,,,,,,,,,,,,,,,,,,,,,,,,,,,,,,,,,,,,,,,,,,,,,,,,,,,,,,,,,,,,,,,,,,,,,,,,,,,,,,,,,,,,,,,,,,,,,,,,,,,,,,,,
1739354898.443986,1739354898.444252,55.000000,0.000000,4231.025879,4217.307617,4274.230957,4201.410156,4191.282227,4203.077148,4178.717773,4253.205078,4177.436035,4154.358887,4569.230957,4506.410156,4411.153809,4530.384766,0.000000,1.000000,16.000000,,,,0.000000,4.000000,4.000000,4.000000,4.000000,4.000000,4.000000,4.000000,4.000000,4.000000,4.000000,4.000000,4.000000,4.000000,4.000000,100.000000,,,,,,,,,,,,,,,,,,,,,,,,,,,,,,,,,,,,,,,,,,,,,,,,,,,,,,,,,,,,,,,,,,,,,,,,,,,,,,,,,,,,,,,,,,,,,,,,,,,,,,,,,,,,,,,,,,,,,,,,,,,,,,,,,
1739354898.451795,1739354898.451960,56.000000,0.000000,4241.025879,4222.820313,4278.717773,4203.974121,4184.487305,4199.358887,4171.025879,4254.230957,4172.948730,4156.538574,4573.077148,4508.846191,4415.128418,4537.948730,0.000000,1.000000,16.000000,,,,0.000000,4.000000,4.000000,4.000000,4.000000,4.000000,4.000000,4.000000,4.000000,4.000000,4.000000,4.000000,4.000000,4.000000,4.000000,100.000000,,,,,,,,,,,,,,,,,14.000000,0.000000,0.482146,0.351624,-0.592285,0.541382,0.939079,-0.301795,0.061531,-38.751167,-30.839460,44.399151,,,,,,,,,,,,,,,,,,,,,,,,,,,,,,,,,,,,,,,,,,,,,,,,,,,,,,,,,,,,,,,,,,,,,,,,,,,,,,,,,,,,,,,,,,,,,,,,,,,,,
1739354898.459602,1739354898.459768,57.000000,0.000000,4242.820313,4230.256348,4280.000000,4204.102539,4185.897461,4187.563965,4163.077148,4249.230957,4170.641113,4152.563965,4571.282227,4509.615234,4401.538574,4535.256348,0.000000,1.000000,16.000000,,,,0.000000,4.000000,4.000000,4.000000,4.000000,4.000000,4.000000,4.000000,4.000000,4.000000,4.000000,4.000000,4.000000,4.000000,4.000000,100.000000,,,,,,,,,,,,,,,,,,,,,,,,,,,,,,,,,,,,,,,,,,,,,,,,,,,,,,,,,,,,,,,,,,,,,,,,,,,,,,,,,,,,,,,,,,,,,,,,,,,,,,,,,,,,,,,,,,,,,,,,,,,,,,,,,
1739354898.467411,1739354898.467476,58.000000,0.000000,4237.436035,4231.282227,4278.077148,4201.922852,4190.512695,4183.846191,4156.025879,4246.282227,4168.846191,4151.538574,4566.538574,4505.000000,4397.051270,4527.436035,0.000000,1.000000,16.000000,,,,0.000000,4.000000,4.000000,4.000000,4.000000,4.000000,4.000000,4.000000,4.000000,4.000000,4.000000,4.000000,4.000000,4.000000,4.000000,100.000000,,,,,,,,,,,,,,,,,,,,,,,,,,,,,,,,,,,,,,,,,,,,,,,,,,,,,,,,,,,,12.695550,9.603313,2.526013,0.439339,0.145556,19.614162,8.250656,2.821045,0.317352,0.157799,2.817233,4.490803,0.979244,0.406263,0.118839,6.590393,4.619276,1.427205,0.200516,0.118772,2.278352,2.400776,0.809451,0.100573,0.071986,1.750333,1.412299,0.637755,0.110667,0.047675,1.893972,1.635900,0.894388,0.250687,0.088034,0.486510,0.678495,0.606451,0.083944,0.071514,1.834500,3.380367,0.886457,0.236874,0.122083,2.960155,4.682766,0.980541,0.242302,0.117198,2.377263,5.140202,0.730328,0.289061,0.132236,3.729857,6.628654,1.401092,0.535577,0.152734,6.083847,6.747390,1.297673,0.363387,0.264052,10.099874,8.843285,1.240701,0.433081,0.196229
1739354898.475219,1739354898.475284,59.000000,0.000000,4231.922852,4222.948730,4271.153809,4191.666504,4186.025879,4186.410156,4155.641113,4251.794922,4168.846191,4152.436035,4560.256348,4495.769043,4399.102539,4527.436035,0.000000,1.000000,16.000000,,,,0.000000,4.000000,4.000000,4.000000,4.000000,4.000000,4.000000,4.000000,4.000000,4.000000,4.000000,4.000000,4.000000,4.000000,4.000000,100.000000,,,,,,,,,,,,,,,,,,,,,,,,,,,,,,,,,,,,,,,,,,,,,,,,,,,,,,,,,,,,,,,,,,,,,,,,,,,,,,,,,,,,,,,,,,,,,,,,,,,,,,,,,,,,,,,,,,,,,,,,,,,,,,,,,
1739354898.483027,1739354898.482992,60.000000,0.000000,4225.384766,4214.358887,4265.256348,4180.256348,4184.230957,4186.666504,4164.615234,4253.717773,4167.436035,4152.307617,4557.436035,4493.333496,4394.871582,4525.897461,0.000000,1.000000,16.000000,,,,0.000000,4.000000,4.000000,4.000000,4.000000,4.000000,4.000000,4.000000,4.000000,4.000000,4.000000,4.000000,4.000000,4.000000,4.000000,100.000000,,,,,,,,,,,,,,,,,15.000000,0.000000,0.482365,0.351990,-0.592224,0.541016,0.946893,-0.295446,0.052741,-38.542717,-30.805513,44.392570,,,,,,,,,,,,,,,,,,,,,,,,,,,,,,,,,,,,,,,,,,,,,,,,,,,,,,,,,,,,,,,,,,,,,,,,,,,,,,,,,,,,,,,,,,,,,,,,,,,,,
1739354898.490835,1739354898.490800,61.000000,0.000000,4217.307617,4206.922852,4256.794922,4172.948730,4187.051270,4186.025879,4163.717773,4245.000000,4159.230957,4145.384766,4553.461426,4488.205078,4385.384766,4512.436035,0.000000,1.000000,16.000000,,,,0.000000,4.000000,4.000000,4.000000,4.000000,4.000000,4.000000,4.000000,4.000000,4.000000,4.000000,4.000000,4.000000,4.000000,4.000000,100.000000,,,,,,,,,,,,,,,,,,,,,,,,,,,,,,,,,,,,,,,,,,,,,,,,,,,,,,,,,,,,,,,,,,,,,,,,,,,,,,,,,,,,,,,,,,,,,,,,,,,,,,,,,,,,,,,,,,,,,,,,,,,,,,,,,
1739354898.498643,1739354898.498509,62.000000,0.000000,4209.871582,4200.000000,4245.512695,4163.846191,4182.820313,4183.974121,4152.692383,4240.384766,4150.128418,4137.179688,4543.333496,4473.717773,4378.077148,4504.358887,0.000000,1.000000,16.000000,,,,0.000000,4.000000,4.000000,4.000000,4.000000,4.000000,4.000000,4.000000,4.000000,4.000000,4.000000,4.000000,4.000000,4.000000,4.000000,100.000000,,,,,,,,,,,,,,,,,,,,,,,,,,,,,,,,,,,,,,,,,,,,,,,,,,,,,,,,,,,,,,,,,,,,,,,,,,,,,,,,,,,,,,,,,,,,,,,,,,,,,,,,,,,,,,,,,,,,,,,,,,,,,,,,,
1739354898.506451,1739354898.506417,63.000000,0.000000,4204.102539,4200.000000,4244.102539,4161.153809,4174.871582,4177.820313,4154.743652,4244.102539,4151.410156,4139.615234,4539.487305,4470.641113,4380.641113,4513.974121,0.000000,1.000000,16.000000,,,,0.000000,4.000000,4.000000,4.000000,4.000000,4.000000,4.000000,4.000000,4.000000,4.000000,4.000000,4.000000,4.000000,4.000000,4.000000,100.000000,,,,,,,,,,,,,,,,,,,,,,,,,,,,,,,,,,,,,,,,,,,,,,,,,,,,,,,,,,,,,,,,,,,,,,,,,,,,,,,,,,,,,,,,,,,,,,,,,,,,,,,,,,,,,,,,,,,,,,,,,,,,,,,,,
1739354898.514259,1739354898.514225,64.000000,0.000000,4200.128418,4196.666504,4245.000000,4160.512695,4171.538574,4173.333496,4158.077148,4243.333496,4156.153809,4142.179688,4542.692383,4473.461426,4386.153809,4515.897461,5150.000000,1.000000,16.000000,,,,0.000000,4.000000,4.000000,4.000000,4.000000,4.000000,4.000000,4.000000,4.000000,4.000000,4.000000,4.000000,4.000000,4.000000,4.000000,100.000000,,,,,,,,,,,,,,,,,16.000000,0.000000,0.482453,0.352356,-0.592102,0.540833,0.954218,-0.298376,0.057624,-38.471779,-30.708296,44.403313,,,,,,,,,,,,,,,,,,,,,,,,,,,,,,,,,,,,,,,,,,,,,,,,,,,,,,,,,,,,,,,,,,,,,,,,,,,,,,,,,,,,,,,,,,,,,,,,,,,,,
1739354898.522067,1739354898.522133,65.000000,0.000000,4198.461426,4186.410156,4236.282227,4154.102539,4168.077148,4170.641113,4148.333496,4240.000000,4150.384766,4138.717773,4539.615234,4465.641113,4384.230957,4500.128418,5504.000000,1.000000,16.000000,,,,0.000000,4.000000,4.000000,4.000000,4.000000,4.000000,4.000000,4.000000,4.000000,4.000000,4.000000,4.000000,4.000000,4.000000,4.000000,100.000000,,,,,,,,,,,,,,,,,,,,,,,,,,,,,,,,,,,,,,,,,,,,,,,,,,,,,,,,,,,,,,,,,,,,,,,,,,,,,,,,,,,,,,,,,,,,,,,,,,,,,,,,,,,,,,,,,,,,,,,,,,,,,,,,,
1739354898.529875,1739354898.529941,66.000000,0.000000,4191.538574,4184.102539,4229.358887,4151.922852,4166.410156,4163.077148,4138.077148,4240.128418,4141.153809,4134.743652,4533.205078,4453.205078,4376.282227,4500.128418,5534.000000,1.000000,16.000000,,,,0.000000,4.000000,4.000000,4.000000,4.000000,4.000000,4.000000,4.000000,4.000000,4.000000,4.000000,4.000000,4.000000,4.000000,4.000000,100.000000,,,,,,,,,,,,,,,,,,,,,,,,,,,,,,,,,,,,,,,,,,,,,,,,,,,,,,,,,,,,,,,,,,,,,,,,,,,,,,,,,,,,,,,,,,,,,,,,,,,,,,,,,,,,,,,,,,,,,,,,,,,,,,,,,
