title:Yousef Rihani1739354267298, start timestamp:1739354268.683449, stop timestamp:1739354331.639971, headset type:EPOCX, headset serial:E50208A5, headset firmware:720, channels:168, sampling rate:eeg_128;mot_32;pm_0.1;pow_8, samples:8064      , version:2.2, 
Timestamp,OriginalTimestamp,EEG.Counter,EEG.Interpolated,EEG.AF3,EEG.F7,EEG.F3,EEG.FC5,EEG.T7,EEG.P7,EEG.O1,EEG.O2,EEG.P8,EEG.T8,EEG.FC6,EEG.F4,EEG.F8,EEG.AF4,EEG.RawCq,EEG.Battery,EEG.BatteryPercent,MarkerIndex,MarkerType,MarkerValueInt,EEG.MarkerHardware,CQ.AF3,CQ.F7,CQ.F3,CQ.FC5,CQ.T7,CQ.P7,CQ.O1,CQ.O2,CQ.P8,CQ.T8,CQ.FC6,CQ.F4,CQ.F8,CQ.AF4,CQ.Overall,EQ.SampleRateQuality,EQ.OVERALL,EQ.AF3,EQ.F7,EQ.F3,EQ.FC5,EQ.T7,EQ.P7,EQ.O1,EQ.O2,EQ.P8,EQ.T8,EQ.FC6,EQ.F4,EQ.F8,EQ.AF4,MOT.CounterMems,MOT.InterpolatedMems,MOT.Q0,MOT.Q1,MOT.Q2,MOT.Q3,MOT.AccX,MOT.AccY,MOT.AccZ,MOT.MagX,MOT.MagY,MOT.MagZ,PM.Attention.IsActive,PM.Attention.Scaled,PM.Attention.Raw,PM.Attention.Min,PM.Attention.Max,PM.Engagement.IsActive,PM.Engagement.Scaled,PM.Engagement.Raw,PM.Engagement.Min,PM.Engagement.Max,PM.Excitement.IsActive,PM.Excitement.Scaled,PM.Excitement.Raw,PM.Excitement.Min,PM.Excitement.Max,PM.LongTermExcitement,PM.Stress.IsActive,PM.Stress.Scaled,PM.Stress.Raw,PM.Stress.Min,PM.Stress.Max,PM.Relaxation.IsActive,PM.Relaxation.Scaled,PM.Relaxation.Raw,PM.Relaxation.Min,PM.Relaxation.Max,PM.Interest.IsActive,PM.Interest.Scaled,PM.Interest.Raw,PM.Interest.Min,PM.Interest.Max,POW.AF3.Theta,POW.AF3.Alpha,POW.AF3.BetaL,POW.AF3.BetaH,POW.AF3.Gamma,POW.F7.Theta,POW.F7.Alpha,POW.F7.BetaL,POW.F7.BetaH,POW.F7.Gamma,POW.F3.Theta,POW.F3.Alpha,POW.F3.BetaL,POW.F3.BetaH,POW.F3.Gamma,POW.FC5.Theta,POW.FC5.Alpha,POW.FC5.BetaL,POW.FC5.BetaH,POW.FC5.Gamma,POW.T7.Theta,POW.T7.Alpha,POW.T7.BetaL,POW.T7.BetaH,POW.T7.Gamma,POW.P7.Theta,POW.P7.Alpha,POW.P7.BetaL,POW.P7.BetaH,POW.P7.Gamma,POW.O1.Theta,POW.O1.Alpha,POW.O1.BetaL,POW.O1.BetaH,POW.O1.Gamma,POW.O2.Theta,POW.O2.Alpha,POW.O2.BetaL,POW.O2.BetaH,POW.O2.Gamma,POW.P8.Theta,POW.P8.Alpha,POW.P8.BetaL,POW.P8.BetaH,POW.P8.Gamma,POW.T8.Theta,POW.T8.Alpha,POW.T8.BetaL,POW.T8.BetaH,POW.T8.Gamma,POW.FC6.Theta,POW.FC6.Alpha,POW.FC6.BetaL,POW.FC6.BetaH,POW.FC6.Gamma,POW.F4.Theta,POW.F4.Alpha,POW.F4.BetaL,POW.F4.BetaH,POW.F4.Gamma,POW.F8.Theta,POW.F8.Alpha,POW.F8.BetaL,POW.F8.BetaH,POW.F8.Gamma,POW.AF4.Theta,POW.AF4.Alpha,POW.AF4.BetaL,POW.AF4.BetaH,POW.AF4.Gamma
1739354268.683449,1739354268.684475,40.000000,0.000000,4294.871582,4293.333496,4292.051270,4315.384766,4282.179688,4270.384766,4196.153809,4254.871582,4273.846191,4258.589844,4442.051270,4481.153809,4399.358887,4452.820313,0.000000,1.000000,18.000000,,,,0.000000,4.000000,4.000000,4.000000,4.000000,4.000000,4.000000,4.000000,4.000000,4.000000,4.000000,4.000000,4.000000,4.000000,4.000000,100.000000,,,,,,,,,,,,,,,,,10.000000,0.000000,0.198160,0.591858,-0.354187,0.696411,0.960566,-0.265657,0.046881,-39.142769,-27.445541,44.696445,,,,,,,,,,,,,,,,,,,,,,,,,,,,,,,,,,,,,,,,,,,,,,,,,,,,,,,,,,,,,,,,,,,,,,,,,,,,,,,,,,,,,,,,,,,,,,,,,,,,,
1739354268.691257,1739354268.692283,41.000000,0.000000,4301.153809,4308.846191,4297.692383,4323.205078,4277.948730,4266.282227,4196.153809,4256.666504,4263.333496,4245.897461,4434.358887,4478.461426,4389.358887,4460.128418,0.000000,1.000000,18.000000,,,,0.000000,4.000000,4.000000,4.000000,4.000000,4.000000,4.000000,4.000000,4.000000,4.000000,4.000000,4.000000,4.000000,4.000000,4.000000,100.000000,,,,,,,,,,,,,,,,,,,,,,,,,,,,,,,,,,,,,,,,,,,,,,,,,,,,,,,,,,,,,,,,,,,,,,,,,,,,,,,,,,,,,,,,,,,,,,,,,,,,,,,,,,,,,,,,,,,,,,,,,,,,,,,,,
1739354268.699065,1739354268.700091,42.000000,0.000000,4309.230957,4315.128418,4311.666504,4330.128418,4282.948730,4269.358887,4200.769043,4261.922852,4265.897461,4246.666504,4442.179688,4487.307617,4385.384766,4469.102539,0.000000,1.000000,18.000000,,,,0.000000,4.000000,4.000000,4.000000,4.000000,4.000000,4.000000,4.000000,4.000000,4.000000,4.000000,4.000000,4.000000,4.000000,4.000000,100.000000,,,,,,,,,,,,,,,,,,,,,,,,,,,,,,,,,,,,,,,,,,,,,,,,,,,,,,,,,,,,58.628040,19.111767,2.462051,1.059327,0.316988,31.177200,11.267125,1.821444,0.989415,0.388037,23.799440,3.791604,1.729735,0.511528,0.258243,9.460232,3.737646,1.345543,0.564936,0.330313,4.388651,1.592881,1.116656,0.454042,0.404774,4.693306,1.450329,0.750628,0.324072,0.287566,5.172889,2.319653,1.005436,0.440051,0.281129,11.371523,0.733961,0.876744,0.170836,0.165417,5.127402,3.460309,1.518339,0.472800,0.257973,7.005333,8.330002,1.704231,0.921718,0.372489,16.760900,6.734976,2.473760,0.512037,0.553800,21.066830,7.880093,2.470364,0.927674,0.443260,25.016949,9.596069,1.888035,0.549211,0.284799,54.810226,14.884075,2.913748,0.755863,0.308098
1739354268.706873,1739354268.707799,43.000000,0.000000,4299.230957,4303.717773,4302.692383,4320.897461,4277.436035,4263.974121,4187.307617,4253.846191,4261.410156,4250.512695,4435.769043,4479.358887,4379.358887,4460.769043,0.000000,1.000000,18.000000,,,,0.000000,4.000000,4.000000,4.000000,4.000000,4.000000,4.000000,4.000000,4.000000,4.000000,4.000000,4.000000,4.000000,4.000000,4.000000,100.000000,,,,,,,,,,,,,,,,,,,,,,,,,,,,,,,,,,,,,,,,,,,,,,,,,,,,,,,,,,,,,,,,,,,,,,,,,,,,,,,,,,,,,,,,,,,,,,,,,,,,,,,,,,,,,,,,,,,,,,,,,,,,,,,,,
1739354268.714681,1739354268.715607,44.000000,0.000000,4290.512695,4296.922852,4292.307617,4311.538574,4267.051270,4256.794922,4179.358887,4250.384766,4253.846191,4244.615234,4425.256348,4467.307617,4375.769043,4449.102539,0.000000,1.000000,18.000000,,,,0.000000,4.000000,4.000000,4.000000,4.000000,4.000000,4.000000,4.000000,4.000000,4.000000,4.000000,4.000000,4.000000,4.000000,4.000000,100.000000,,,,,,,,,,,,,,,,,11.000000,0.000000,0.196716,0.592407,-0.354553,0.696167,0.968380,-0.251984,0.043951,-39.111824,-27.500986,44.743465,,,,,,,,,,,,,,,,,,,,,,,,,,,,,,,,,,,,,,,,,,,,,,,,,,,,,,,,,,,,,,,,,,,,,,,,,,,,,,,,,,,,,,,,,,,,,,,,,,,,,
1739354268.722489,1739354268.723315,45.000000,0.000000,4293.333496,4296.538574,4296.922852,4317.051270,4267.692383,4253.589844,4185.769043,4254.871582,4258.461426,4238.717773,4422.948730,4466.153809,4377.307617,4444.230957,0.000000,1.000000,18.000000,,,,0.000000,4.000000,4.000000,4.000000,4.000000,4.000000,4.000000,4.000000,4.000000,4.000000,4.000000,4.000000,4.000000,4.000000,4.000000,100.000000,,,,,,,,,,,,,,,,,,,,,,,,,,,,,,,,,,,,,,,,,,,,,,,,,,,,,,,,,,,,,,,,,,,,,,,,,,,,,,,,,,,,,,,,,,,,,,,,,,,,,,,,,,,,,,,,,,,,,,,,,,,,,,,,,
1739354268.730297,1739354268.731123,46.000000,0.000000,4292.948730,4293.974121,4298.333496,4317.179688,4262.692383,4245.641113,4183.461426,4255.641113,4260.000000,4241.153809,4414.615234,4462.179688,4375.897461,4442.692383,0.000000,1.000000,18.000000,,,,0.000000,4.000000,4.000000,4.000000,4.000000,4.000000,4.000000,4.000000,4.000000,4.000000,4.000000,4.000000,4.000000,4.000000,4.000000,100.000000,,,,,,,,,,,,,,,,,,,,,,,,,,,,,,,,,,,,,,,,,,,,,,,,,,,,,,,,,,,,,,,,,,,,,,,,,,,,,,,,,,,,,,,,,,,,,,,,,,,,,,,,,,,,,,,,,,,,,,,,,,,,,,,,,
1739354268.738105,1739354268.738831,47.000000,0.000000,4289.230957,4292.179688,4296.794922,4312.051270,4263.717773,4248.717773,4180.897461,4254.358887,4258.846191,4247.436035,4408.717773,4463.205078,4374.871582,4447.307617,0.000000,1.000000,18.000000,,,,0.000000,4.000000,4.000000,4.000000,4.000000,4.000000,4.000000,4.000000,4.000000,4.000000,4.000000,4.000000,4.000000,4.000000,4.000000,100.000000,,,,,,,,,,,,,,,,,,,,,,,,,,,,,,,,,,,,,,,,,,,,,,,,,,,,,,,,,,,,,,,,,,,,,,,,,,,,,,,,,,,,,,,,,,,,,,,,,,,,,,,,,,,,,,,,,,,,,,,,,,,,,,,,,
1739354268.745913,1739354268.746639,48.000000,0.000000,4293.333496,4294.871582,4305.641113,4317.820313,4274.743652,4258.589844,4186.538574,4254.230957,4263.333496,4248.077148,4415.384766,4472.563965,4381.794922,4453.461426,0.000000,1.000000,18.000000,,,,0.000000,4.000000,4.000000,4.000000,4.000000,4.000000,4.000000,4.000000,4.000000,4.000000,4.000000,4.000000,4.000000,4.000000,4.000000,100.000000,,,,,,,,,,,,,,,,,12.000000,0.000000,0.196490,0.592590,-0.354492,0.696106,0.966915,-0.264192,0.047369,-39.133976,-27.417555,44.619122,,,,,,,,,,,,,,,,,,,,,,,,,,,,,,,,,,,,,,,,,,,,,,,,,,,,,,,,,,,,,,,,,,,,,,,,,,,,,,,,,,,,,,,,,,,,,,,,,,,,,
1739354268.753721,1739354268.754347,49.000000,0.000000,4295.128418,4294.487305,4311.410156,4320.641113,4271.025879,4253.717773,4186.025879,4252.948730,4260.512695,4240.000000,4416.153809,4471.410156,4381.538574,4454.487305,0.000000,1.000000,18.000000,,,,0.000000,4.000000,4.000000,4.000000,4.000000,4.000000,4.000000,4.000000,4.000000,4.000000,4.000000,4.000000,4.000000,4.000000,4.000000,100.000000,,,,,,,,,,,,,,,,,,,,,,,,,,,,,,,,,,,,,,,,,,,,,,,,,,,,,,,,,,,,,,,,,,,,,,,,,,,,,,,,,,,,,,,,,,,,,,,,,,,,,,,,,,,,,,,,,,,,,,,,,,,,,,,,,
1739354268.761530,1739354268.762155,50.000000,0.000000,4285.512695,4284.487305,4303.205078,4310.641113,4259.230957,4246.794922,4181.922852,4251.538574,4248.589844,4226.410156,4398.589844,4461.282227,4365.512695,4451.794922,0.000000,1.000000,18.000000,,,,0.000000,4.000000,4.000000,4.000000,4.000000,4.000000,4.000000,4.000000,4.000000,4.000000,4.000000,4.000000,4.000000,4.000000,4.000000,100.000000,,,,,,,,,,,,,,,,,,,,,,,,,,,,,,,,,,,,,,,,,,,,,,,,,,,,,,,,,,,,,,,,,,,,,,,,,,,,,,,,,,,,,,,,,,,,,,,,,,,,,,,,,,,,,,,,,,,,,,,,,,,,,,,,,
1739354268.769338,1739354268.769863,51.000000,0.000000,4277.436035,4279.743652,4295.384766,4306.538574,4254.871582,4247.563965,4178.077148,4251.794922,4241.538574,4219.102539,4384.615234,4454.358887,4354.743652,4445.384766,0.000000,1.000000,18.000000,,,,0.000000,4.000000,4.000000,4.000000,4.000000,4.000000,4.000000,4.000000,4.000000,4.000000,4.000000,4.000000,4.000000,4.000000,4.000000,100.000000,,,,,,,,,,,,,,,,,,,,,,,,,,,,,,,,,,,,,,,,,,,,,,,,,,,,,,,,,,,,,,,,,,,,,,,,,,,,,,,,,,,,,,,,,,,,,,,,,,,,,,,,,,,,,,,,,,,,,,,,,,,,,,,,,
1739354268.777146,1739354268.777671,52.000000,0.000000,4271.025879,4277.436035,4293.205078,4304.358887,4248.717773,4242.051270,4173.717773,4252.179688,4242.820313,4222.051270,4386.794922,4453.333496,4359.102539,4436.666504,0.000000,1.000000,18.000000,,,,0.000000,4.000000,4.000000,4.000000,4.000000,4.000000,4.000000,4.000000,4.000000,4.000000,4.000000,4.000000,4.000000,4.000000,4.000000,100.000000,,,,,,,,,,,,,,,,,13.000000,0.000000,0.195280,0.592957,-0.354309,0.696228,0.981077,-0.264681,0.045416,-39.170578,-27.375799,44.690540,,,,,,,,,,,,,,,,,,,,,,,,,,,,,,,,,,,,,,,,,,,,,,,,,,,,,,,,,,,,,,,,,,,,,,,,,,,,,,,,,,,,,,,,,,,,,,,,,,,,,
1739354268.784954,1739354268.785379,53.000000,0.000000,4272.307617,4282.692383,4298.205078,4303.717773,4250.641113,4240.384766,4178.717773,4255.256348,4247.307617,4230.384766,4396.153809,4460.769043,4367.948730,4440.769043,0.000000,1.000000,18.000000,,,,0.000000,4.000000,4.000000,4.000000,4.000000,4.000000,4.000000,4.000000,4.000000,4.000000,4.000000,4.000000,4.000000,4.000000,4.000000,100.000000,,,,,,,,,,,,,,,,,,,,,,,,,,,,,,,,,,,,,,,,,,,,,,,,,,,,,,,,,,,,,,,,,,,,,,,,,,,,,,,,,,,,,,,,,,,,,,,,,,,,,,,,,,,,,,,,,,,,,,,,,,,,,,,,,
1739354268.792762,1739354268.793187,54.000000,0.000000,4289.487305,4298.333496,4310.769043,4317.820313,4269.102539,4250.641113,4188.589844,4260.128418,4251.922852,4233.461426,4399.487305,4475.769043,4373.846191,4456.794922,0.000000,1.000000,18.000000,,,,0.000000,4.000000,4.000000,4.000000,4.000000,4.000000,4.000000,4.000000,4.000000,4.000000,4.000000,4.000000,4.000000,4.000000,4.000000,100.000000,,,,,,,,,,,,,,,,,,,,,,,,,,,,,,,,,,,,,,,,,,,,,,,,,,,,,,,,,,,,,,,,,,,,,,,,,,,,,,,,,,,,,,,,,,,,,,,,,,,,,,,,,,,,,,,,,,,,,,,,,,,,,,,,,
1739354268.800570,1739354268.800895,55.000000,0.000000,4293.589844,4293.589844,4313.461426,4319.487305,4264.871582,4243.461426,4184.102539,4260.897461,4247.436035,4223.461426,4392.051270,4476.794922,4369.358887,4454.102539,0.000000,1.000000,18.000000,,,,0.000000,4.000000,4.000000,4.000000,4.000000,4.000000,4.000000,4.000000,4.000000,4.000000,4.000000,4.000000,4.000000,4.000000,4.000000,100.000000,,,,,,,,,,,,,,,,,,,,,,,,,,,,,,,,,,,,,,,,,,,,,,,,,,,,,,,,,,,,,,,,,,,,,,,,,,,,,,,,,,,,,,,,,,,,,,,,,,,,,,,,,,,,,,,,,,,,,,,,,,,,,,,,,
1739354268.808378,1739354268.808803,56.000000,0.000000,4279.358887,4277.179688,4308.846191,4308.077148,4243.846191,4233.974121,4180.512695,4261.666504,4245.000000,4222.948730,4396.153809,4469.615234,4365.769043,4441.666504,0.000000,1.000000,18.000000,,,,0.000000,4.000000,4.000000,4.000000,4.000000,4.000000,4.000000,4.000000,4.000000,4.000000,4.000000,4.000000,4.000000,4.000000,4.000000,100.000000,,,,,,,,,,,,,,,,,14.000000,0.000000,0.194146,0.593079,-0.354248,0.696472,0.969845,-0.265169,0.048346,-39.136852,-27.388220,44.688152,,,,,,,,,,,,,,,,,,,,,,,,,,,,,,,,,,,,,,,,,,,,,,,,,,,,,,,,,,,,,,,,,,,,,,,,,,,,,,,,,,,,,,,,,,,,,,,,,,,,,
1739354268.816186,1739354268.816611,57.000000,0.000000,4278.205078,4280.512695,4308.589844,4309.487305,4245.256348,4246.410156,4188.974121,4262.820313,4247.179688,4232.051270,4411.025879,4470.897461,4371.538574,4441.922852,0.000000,1.000000,18.000000,,,,0.000000,4.000000,4.000000,4.000000,4.000000,4.000000,4.000000,4.000000,4.000000,4.000000,4.000000,4.000000,4.000000,4.000000,4.000000,100.000000,,,,,,,,,,,,,,,,,,,,,,,,,,,,,,,,,,,,,,,,,,,,,,,,,,,,,,,,,,,,,,,,,,,,,,,,,,,,,,,,,,,,,,,,,,,,,,,,,,,,,,,,,,,,,,,,,,,,,,,,,,,,,,,,,
1739354268.823994,1739354268.824519,58.000000,0.000000,4279.487305,4280.384766,4300.897461,4308.974121,4249.230957,4244.230957,4187.436035,4256.794922,4234.615234,4221.410156,4408.461426,4464.230957,4365.512695,4438.589844,0.000000,1.000000,18.000000,,,,0.000000,4.000000,4.000000,4.000000,4.000000,4.000000,4.000000,4.000000,4.000000,4.000000,4.000000,4.000000,4.000000,4.000000,4.000000,100.000000,,,,,,,,,,,,,,,,,,,,,,,,,,,,,,,,,,,,,,,,,,,,,,,,,,,,,,,,,,,,44.098061,14.034356,1.835939,0.977832,0.353763,24.710541,8.254472,1.399385,0.963704,0.436963,20.815266,3.153401,1.803946,0.580038,0.298284,6.831339,2.771195,1.089068,0.589256,0.374144,4.957253,1.686125,0.915845,0.459901,0.489540,5.232791,1.647671,0.657225,0.330469,0.322769,5.598153,2.692577,0.918340,0.476456,0.320404,10.654565,0.763906,0.856447,0.201416,0.204449,5.432677,3.502939,1.165937,0.496450,0.267688,7.746296,7.970973,1.323337,0.992665,0.468617,15.634637,5.950245,2.081945,0.587113,0.577940,19.015862,6.802576,2.282438,1.034127,0.543401,19.711903,7.272802,1.411733,0.585441,0.320572,42.517017,11.010214,2.508024,0.847153,0.363253
1739354268.831802,1739354268.832328,59.000000,0.000000,4272.820313,4269.230957,4294.487305,4304.102539,4248.589844,4230.000000,4180.128418,4253.589844,4230.256348,4208.461426,4405.384766,4460.000000,4357.307617,4437.307617,0.000000,1.000000,18.000000,,,,0.000000,4.000000,4.000000,4.000000,4.000000,4.000000,4.000000,4.000000,4.000000,4.000000,4.000000,4.000000,4.000000,4.000000,4.000000,100.000000,,,,,,,,,,,,,,,,,,,,,,,,,,,,,,,,,,,,,,,,,,,,,,,,,,,,,,,,,,,,,,,,,,,,,,,,,,,,,,,,,,,,,,,,,,,,,,,,,,,,,,,,,,,,,,,,,,,,,,,,,,,,,,,,,
1739354268.839610,1739354268.840236,60.000000,0.000000,4276.794922,4277.307617,4304.102539,4310.384766,4259.871582,4240.256348,4187.307617,4261.025879,4241.666504,4219.743652,4422.563965,4470.897461,4363.077148,4451.538574,0.000000,1.000000,18.000000,,,,0.000000,4.000000,4.000000,4.000000,4.000000,4.000000,4.000000,4.000000,4.000000,4.000000,4.000000,4.000000,4.000000,4.000000,4.000000,100.000000,,,,,,,,,,,,,,,,,15.000000,0.000000,0.193304,0.593140,-0.354126,0.696716,0.952753,-0.273471,0.052741,-39.189835,-27.482731,44.852673,,,,,,,,,,,,,,,,,,,,,,,,,,,,,,,,,,,,,,,,,,,,,,,,,,,,,,,,,,,,,,,,,,,,,,,,,,,,,,,,,,,,,,,,,,,,,,,,,,,,,
1739354268.847418,1739354268.848044,61.000000,0.000000,4281.794922,4287.051270,4307.948730,4308.205078,4262.820313,4251.666504,4192.179688,4260.769043,4237.307617,4219.615234,4432.563965,4471.025879,4366.282227,4458.974121,0.000000,1.000000,18.000000,,,,0.000000,4.000000,4.000000,4.000000,4.000000,4.000000,4.000000,4.000000,4.000000,4.000000,4.000000,4.000000,4.000000,4.000000,4.000000,100.000000,,,,,,,,,,,,,,,,,,,,,,,,,,,,,,,,,,,,,,,,,,,,,,,,,,,,,,,,,,,,,,,,,,,,,,,,,,,,,,,,,,,,,,,,,,,,,,,,,,,,,,,,,,,,,,,,,,,,,,,,,,,,,,,,,
1739354268.855226,1739354268.855952,62.000000,0.000000,4277.436035,4276.538574,4302.436035,4297.436035,4254.487305,4243.846191,4191.025879,4256.410156,4230.769043,4204.487305,4426.794922,4464.615234,4365.897461,4455.897461,0.000000,1.000000,18.000000,,,,0.000000,4.000000,4.000000,4.000000,4.000000,4.000000,4.000000,4.000000,4.000000,4.000000,4.000000,4.000000,4.000000,4.000000,4.000000,100.000000,,,,,,,,,,,,,,,,,,,,,,,,,,,,,,,,,,,,,,,,,,,,,,,,,,,,,,,,,,,,,,,,,,,,,,,,,,,,,,,,,,,,,,,,,,,,,,,,,,,,,,,,,,,,,,,,,,,,,,,,,,,,,,,,,
1739354268.863034,1739354268.863760,63.000000,0.000000,4277.948730,4272.820313,4307.563965,4301.794922,4261.922852,4246.922852,4195.128418,4263.589844,4245.128418,4217.563965,4426.922852,4471.666504,4371.538574,4459.615234,0.000000,1.000000,18.000000,,,,0.000000,4.000000,4.000000,4.000000,4.000000,4.000000,4.000000,4.000000,4.000000,4.000000,4.000000,4.000000,4.000000,4.000000,4.000000,100.000000,,,,,,,,,,,,,,,,,,,,,,,,,,,,,,,,,,,,,,,,,,,,,,,,,,,,,,,,,,,,,,,,,,,,,,,,,,,,,,,,,,,,,,,,,,,,,,,,,,,,,,,,,,,,,,,,,,,,,,,,,,,,,,,,,
1739354268.870843,1739354268.871668,64.000000,0.000000,4282.179688,4281.153809,4313.974121,4308.974121,4267.436035,4251.025879,4194.487305,4268.333496,4255.128418,4237.948730,4434.102539,4477.820313,4371.922852,4461.666504,5083.000000,1.000000,18.000000,,,,0.000000,4.000000,4.000000,4.000000,4.000000,4.000000,4.000000,4.000000,4.000000,4.000000,4.000000,4.000000,4.000000,4.000000,4.000000,100.000000,,,,,,,,,,,,,,,,,16.000000,0.000000,0.193170,0.593262,-0.353394,0.697021,0.962031,-0.272494,0.051276,-39.354183,-27.384459,44.984070,,,,,,,,,,,,,,,,,,,,,,,,,,,,,,,,,,,,,,,,,,,,,,,,,,,,,,,,,,,,,,,,,,,,,,,,,,,,,,,,,,,,,,,,,,,,,,,,,,,,,
1739354268.878651,1739354268.879476,65.000000,0.000000,4278.974121,4281.025879,4308.846191,4304.102539,4247.563965,4238.589844,4186.153809,4260.769043,4249.487305,4235.384766,4437.820313,4470.641113,4365.512695,4457.563965,5442.000000,1.000000,18.000000,,,,0.000000,4.000000,4.000000,4.000000,4.000000,4.000000,4.000000,4.000000,4.000000,4.000000,4.000000,4.000000,4.000000,4.000000,4.000000,100.000000,,,,,,,,,,,,,,,,,,,,,,,,,,,,,,,,,,,,,,,,,,,,,,,,,,,,,,,,,,,,,,,,,,,,,,,,,,,,,,,,,,,,,,,,,,,,,,,,,,,,,,,,,,,,,,,,,,,,,,,,,,,,,,,,,
1739354268.886459,1739354268.887384,66.000000,0.000000,4278.333496,4276.538574,4304.615234,4302.051270,4237.820313,4237.948730,4189.230957,4256.538574,4246.410156,4228.846191,4431.666504,4468.589844,4369.230957,4461.666504,5455.000000,1.000000,18.000000,,,,0.000000,4.000000,4.000000,4.000000,4.000000,4.000000,4.000000,4.000000,4.000000,4.000000,4.000000,4.000000,4.000000,4.000000,4.000000,100.000000,,,,,,,,,,,,,,,,,,,,,,,,,,,,,,,,,,,,,,,,,,,,,,,,,,,,,,,,,,,,,,,,,,,,,,,,,,,,,,,,,,,,,,,,,,,,,,,,,,,,,,,,,,,,,,,,,,,,,,,,,,,,,,,,,
1739354268.894267,1739354268.895191,67.000000,0.000000,4283.846191,4278.333496,4311.153809,4312.436035,4259.615234,4249.102539,4202.692383,4262.179688,4251.153809,4230.512695,4423.205078,4476.794922,4372.307617,4466.538574,5349.000000,1.000000,18.000000,,,,0.000000,4.000000,4.000000,4.000000,4.000000,4.000000,4.000000,4.000000,4.000000,4.000000,4.000000,4.000000,4.000000,4.000000,4.000000,100.000000,,,,,,,,,,,,,,,,,,,,,,,,,,,,,,,,,,,,,,,,,,,,,,,,,,,,,,,,,,,,,,,,,,,,,,,,,,,,,,,,,,,,,,,,,,,,,,,,,,,,,,,,,,,,,,,,,,,,,,,,,,,,,,,,,
1739354268.902075,1739354268.902900,68.000000,0.000000,4284.358887,4281.025879,4312.820313,4314.871582,4269.487305,4243.205078,4199.615234,4262.563965,4248.846191,4220.769043,4423.589844,4476.794922,4363.589844,4458.205078,5317.000000,1.000000,18.000000,,,,0.000000,4.000000,4.000000,4.000000,4.000000,4.000000,4.000000,4.000000,4.000000,4.000000,4.000000,4.000000,4.000000,4.000000,4.000000,100.000000,,,,,,,,,,,,,,,,,17.000000,0.000000,0.193730,0.593445,-0.352417,0.697205,0.971310,-0.266146,0.054694,-39.385433,-27.312679,45.002331,,,,,,,,,,,,,,,,,,,,,,,,,,,,,,,,,,,,,,,,,,,,,,,,,,,,,,,,,,,,,,,,,,,,,,,,,,,,,,,,,,,,,,,,,,,,,,,,,,,,,
1739354268.909883,1739354268.910708,69.000000,0.000000,4275.256348,4275.128418,4301.153809,4298.589844,4247.179688,4225.128418,4175.897461,4257.179688,4236.538574,4205.000000,4423.846191,4465.641113,4361.538574,4451.025879,5357.000000,1.000000,18.000000,,,,0.000000,4.000000,4.000000,4.000000,4.000000,4.000000,4.000000,4.000000,4.000000,4.000000,4.000000,4.000000,4.000000,4.000000,4.000000,100.000000,,,,,,,,,,,,,,,,,,,,,,,,,,,,,,,,,,,,,,,,,,,,,,,,,,,,,,,,,,,,,,,,,,,,,,,,,,,,,,,,,,,,,,,,,,,,,,,,,,,,,,,,,,,,,,,,,,,,,,,,,,,,,,,,,
1739354268.917691,1739354268.918416,70.000000,0.000000,4277.179688,4270.897461,4299.615234,4293.205078,4238.205078,4227.563965,4173.461426,4260.641113,4236.666504,4209.230957,4428.205078,4465.897461,4375.769043,4459.871582,5320.000000,1.000000,18.000000,,,,0.000000,4.000000,4.000000,4.000000,4.000000,4.000000,4.000000,4.000000,4.000000,4.000000,4.000000,4.000000,4.000000,4.000000,4.000000,100.000000,,,,,,,,,,,,,,,,,,,,,,,,,,,,,,,,,,,,,,,,,,,,,,,,,,,,,,,,,,,,,,,,,,,,,,,,,,,,,,,,,,,,,,,,,,,,,,,,,,,,,,,,,,,,,,,,,,,,,,,,,,,,,,,,,
1739354268.925499,1739354268.926224,71.000000,0.000000,4290.512695,4276.794922,4313.846191,4309.871582,4255.641113,4242.307617,4196.794922,4270.897461,4252.436035,4220.897461,4444.743652,4478.846191,4384.615234,4472.820313,3373.000000,1.000000,18.000000,,,,0.000000,4.000000,4.000000,4.000000,4.000000,4.000000,4.000000,4.000000,4.000000,4.000000,4.000000,4.000000,4.000000,4.000000,4.000000,100.000000,,,,,,,,,,,,,,,,,,,,,,,,,,,,,,,,,,,,,,,,,,,,,,,,,,,,,,,,,,,,,,,,,,,,,,,,,,,,,,,,,,,,,,,,,,,,,,,,,,,,,,,,,,,,,,,,,,,,,,,,,,,,,,,,,
1739354268.933307,1739354268.933932,72.000000,0.000000,4288.077148,4273.461426,4313.461426,4309.487305,4255.641113,4238.589844,4198.589844,4269.487305,4254.743652,4218.461426,4454.230957,4477.820313,4375.512695,4470.256348,5126.000000,1.000000,18.000000,,,,0.000000,4.000000,4.000000,4.000000,4.000000,4.000000,4.000000,4.000000,4.000000,4.000000,4.000000,4.000000,4.000000,4.000000,4.000000,100.000000,,,,,,,,,,,,,,,,,18.000000,0.000000,0.194214,0.593506,-0.351685,0.697388,0.967892,-0.253937,0.061531,-39.513557,-27.381411,45.135429,,,,,,,,,,,,,,,,,,,,,,,,,,,,,,,,,,,,,,,,,,,,,,,,,,,,,,,,,,,,,,,,,,,,,,,,,,,,,,,,,,,,,,,,,,,,,,,,,,,,,
1739354268.941115,1739354268.941740,73.000000,0.000000,4276.538574,4264.358887,4302.948730,4291.794922,4239.743652,4227.563965,4182.051270,4260.769043,4246.538574,4216.025879,4452.692383,4470.512695,4368.077148,4460.769043,5472.000000,1.000000,18.000000,,,,0.000000,4.000000,4.000000,4.000000,4.000000,4.000000,4.000000,4.000000,4.000000,4.000000,4.000000,4.000000,4.000000,4.000000,4.000000,100.000000,,,,,,,,,,,,,,,,,,,,,,,,,,,,,,,,,,,,,,,,,,,,,,,,,,,,,,,,,,,,,,,,,,,,,,,,,,,,,,,,,,,,,,,,,,,,,,,,,,,,,,,,,,,,,,,,,,,,,,,,,,,,,,,,,
1739354268.948923,1739354268.949448,74.000000,0.000000,4279.743652,4270.384766,4307.563965,4298.205078,4244.615234,4229.743652,4188.974121,4261.282227,4251.410156,4226.666504,4456.794922,4475.641113,4374.102539,4465.384766,4999.000000,1.000000,18.000000,,,,0.000000,4.000000,4.000000,4.000000,4.000000,4.000000,4.000000,4.000000,4.000000,4.000000,4.000000,4.000000,4.000000,4.000000,4.000000,100.000000,1.000000,100.000000,4.000000,4.000000,4.000000,4.000000,4.000000,4.000000,4.000000,4.000000,4.000000,4.000000,4.000000,4.000000,4.000000,4.000000,,,,,,,,,,,,,,,,,,,,,,,,,,,,,,,,,,,,,,,,,,,,28.592640,8.817947,1.411828,0.912062,0.393816,17.771112,5.196163,1.074685,0.901270,0.475561,16.133364,2.506597,1.915422,0.661344,0.339994,4.314939,1.840914,0.965458,0.610198,0.410363,5.335059,1.735683,0.710839,0.503662,0.584514,5.467223,1.807258,0.537026,0.341664,0.362903,5.564423,2.915147,0.811641,0.512378,0.359284,8.773397,0.760139,0.770200,0.241079,0.239384,5.331264,3.404997,0.899829,0.540841,0.286935,8.058014,7.143564,1.167673,1.053343,0.574581,14.161699,5.445229,1.713418,0.683699,0.611256,16.031075,5.500710,2.183908,1.157289,0.640721,13.671328,5.023521,1.055203,0.632618,0.364710,28.578138,7.230903,2.254254,0.948464,0.422415
1739354268.956731,1739354268.957356,75.000000,0.000000,4284.615234,4273.717773,4312.820313,4309.871582,4252.436035,4235.641113,4202.179688,4264.358887,4258.717773,4229.743652,4461.282227,4478.589844,4378.461426,4470.384766,5404.000000,1.000000,18.000000,,,,0.000000,4.000000,4.000000,4.000000,4.000000,4.000000,4.000000,4.000000,4.000000,4.000000,4.000000,4.000000,4.000000,4.000000,4.000000,100.000000,,,,,,,,,,,,,,,,,,,,,,,,,,,,,,,,,,,,,,,,,,,,,,,,,,,,,,,,,,,,,,,,,,,,,,,,,,,,,,,,,,,,,,,,,,,,,,,,,,,,,,,,,,,,,,,,,,,,,,,,,,,,,,,,,
1739354268.964539,1739354268.965164,76.000000,0.000000,4278.846191,4267.051270,4309.871582,4302.179688,4248.077148,4240.000000,4200.897461,4266.153809,4259.871582,4226.282227,4460.512695,4475.512695,4371.538574,4463.974121,5659.000000,1.000000,18.000000,,,,0.000000,4.000000,4.000000,4.000000,4.000000,4.000000,4.000000,4.000000,4.000000,4.000000,4.000000,4.000000,4.000000,4.000000,4.000000,100.000000,,,,,,,,,,,,,,,,,19.000000,0.000000,0.194635,0.593872,-0.351196,0.697205,0.969845,-0.246612,0.060066,-39.428867,-27.293270,45.121887,,,,,,,,,,,,,,,,,,,,,,,,,,,,,,,,,,,,,,,,,,,,,,,,,,,,,,,,,,,,,,,,,,,,,,,,,,,,,,,,,,,,,,,,,,,,,,,,,,,,,
1739354268.972348,1739354268.973072,77.000000,0.000000,4278.077148,4269.615234,4311.025879,4297.563965,4248.461426,4246.282227,4204.102539,4270.128418,4262.307617,4231.538574,4461.153809,4478.974121,4371.410156,4457.436035,6778.000000,1.000000,18.000000,,,,0.000000,4.000000,4.000000,4.000000,4.000000,4.000000,4.000000,4.000000,4.000000,4.000000,4.000000,4.000000,4.000000,4.000000,4.000000,100.000000,,,,,,,,,,,,,,,,,,,,,,,,,,,,,,,,,,,,,,,,,,,,,,,,,,,,,,,,,,,,,,,,,,,,,,,,,,,,,,,,,,,,,,,,,,,,,,,,,,,,,,,,,,,,,,,,,,,,,,,,,,,,,,,,,
1739354268.980156,1739354268.980880,78.000000,0.000000,4277.563965,4271.922852,4307.051270,4300.128418,4248.589844,4241.922852,4203.333496,4266.282227,4261.282227,4233.205078,4453.333496,4476.794922,4378.846191,4456.538574,4999.000000,1.000000,18.000000,,,,0.000000,4.000000,4.000000,4.000000,4.000000,4.000000,4.000000,4.000000,4.000000,4.000000,4.000000,4.000000,4.000000,4.000000,4.000000,100.000000,,,,,,,,,,,,,,,,,,,,,,,,,,,,,,,,,,,,,,,,,,,,,,,,,,,,,,,,,,,,,,,,,,,,,,,,,,,,,,,,,,,,,,,,,,,,,,,,,,,,,,,,,,,,,,,,,,,,,,,,,,,,,,,,,
1739354268.987964,1739354268.988788,79.000000,0.000000,4263.461426,4257.563965,4292.948730,4291.922852,4237.436035,4228.589844,4188.974121,4257.051270,4244.230957,4216.538574,4432.820313,4457.179688,4367.820313,4449.743652,5404.000000,1.000000,18.000000,,,,0.000000,4.000000,4.000000,4.000000,4.000000,4.000000,4.000000,4.000000,4.000000,4.000000,4.000000,4.000000,4.000000,4.000000,4.000000,100.000000,,,,,,,,,,,,,,,,,,,,,,,,,,,,,,,,,,,,,,,,,,,,,,,,,,,,,,,,,,,,,,,,,,,,,,,,,,,,,,,,,,,,,,,,,,,,,,,,,,,,,,,,,,,,,,,,,,,,,,,,,,,,,,,,,
1739354268.995772,1739354268.996597,80.000000,0.000000,4260.769043,4252.692383,4291.282227,4289.358887,4236.922852,4230.897461,4189.487305,4258.077148,4227.436035,4200.512695,4416.153809,4449.615234,4353.589844,4441.538574,5659.000000,1.000000,18.000000,,,,0.000000,4.000000,4.000000,4.000000,4.000000,4.000000,4.000000,4.000000,4.000000,4.000000,4.000000,4.000000,4.000000,4.000000,4.000000,100.000000,,,,,,,,,,,,,,,,,20.000000,0.000000,0.194779,0.593933,-0.351013,0.697205,0.975705,-0.242705,0.052741,-39.502647,-27.230610,45.076366,,,,,,,,,,,,,,,,,,,,,,,,,,,,,,,,,,,,,,,,,,,,,,,,,,,,,,,,,,,,,,,,,,,,,,,,,,,,,,,,,,,,,,,,,,,,,,,,,,,,,
1739354269.003580,1739354269.004505,81.000000,0.000000,4276.025879,4269.871582,4305.128418,4304.743652,4258.333496,4244.487305,4203.205078,4255.384766,4234.871582,4216.282227,4418.846191,4463.205078,4360.641113,4446.282227,6778.000000,1.000000,18.000000,,,,0.000000,4.000000,4.000000,4.000000,4.000000,4.000000,4.000000,4.000000,4.000000,4.000000,4.000000,4.000000,4.000000,4.000000,4.000000,100.000000,,,,,,,,,,,,,,,,,,,,,,,,,,,,,,,,,,,,,,,,,,,,,,,,,,,,,,,,,,,,,,,,,,,,,,,,,,,,,,,,,,,,,,,,,,,,,,,,,,,,,,,,,,,,,,,,,,,,,,,,,,,,,,,,,
1739354269.011388,1739354269.012313,82.000000,0.000000,4282.436035,4281.410156,4311.025879,4315.128418,4266.922852,4244.487305,4201.153809,4234.102539,4244.102539,4240.384766,4425.769043,4466.410156,4371.153809,4453.077148,4999.000000,1.000000,18.000000,,,,0.000000,4.000000,4.000000,4.000000,4.000000,4.000000,4.000000,4.000000,4.000000,4.000000,4.000000,4.000000,4.000000,4.000000,4.000000,100.000000,,,,,,,,,,,,,,,,,,,,,,,,,,,,,,,,,,,,,,,,,,,,,,,,,,,,,,,,,,,,,,,,,,,,,,,,,,,,,,,,,,,,,,,,,,,,,,,,,,,,,,,,,,,,,,,,,,,,,,,,,,,,,,,,,
1739354269.019196,1739354269.020221,83.000000,0.000000,4279.230957,4275.384766,4304.743652,4310.000000,4254.358887,4236.794922,4194.871582,4222.051270,4234.102539,4238.846191,4426.666504,4455.512695,4368.717773,4453.333496,5404.000000,1.000000,18.000000,,,,0.000000,4.000000,4.000000,4.000000,4.000000,4.000000,4.000000,4.000000,4.000000,4.000000,4.000000,4.000000,4.000000,4.000000,4.000000,100.000000,,,,,,,,,,,,,,,,,,,,,,,,,,,,,,,,,,,,,,,,,,,,,,,,,,,,,,,,,,,,,,,,,,,,,,,,,,,,,,,,,,,,,,,,,,,,,,,,,,,,,,,,,,,,,,,,,,,,,,,,,,,,,,,,,
1739354269.027004,1739354269.028029,84.000000,0.000000,4275.641113,4266.410156,4298.333496,4300.769043,4245.641113,4235.641113,4198.077148,4228.974121,4228.974121,4225.256348,4434.358887,4453.589844,4361.282227,4445.512695,5659.000000,1.000000,18.000000,,,,0.000000,4.000000,4.000000,4.000000,4.000000,4.000000,4.000000,4.000000,4.000000,4.000000,4.000000,4.000000,4.000000,4.000000,4.000000,100.000000,,,,,,,,,,,,,,,,,21.000000,0.000000,0.195031,0.593994,-0.350891,0.697144,0.972287,-0.241729,0.062019,-39.485718,-27.174215,45.285397,,,,,,,,,,,,,,,,,,,,,,,,,,,,,,,,,,,,,,,,,,,,,,,,,,,,,,,,,,,,,,,,,,,,,,,,,,,,,,,,,,,,,,,,,,,,,,,,,,,,,
1739354269.034812,1739354269.035937,85.000000,0.000000,4269.230957,4263.205078,4297.948730,4295.897461,4248.333496,4238.846191,4200.512695,4230.641113,4239.102539,4226.025879,4448.974121,4457.051270,4357.948730,4437.563965,6778.000000,1.000000,18.000000,,,,0.000000,4.000000,4.000000,4.000000,4.000000,4.000000,4.000000,4.000000,4.000000,4.000000,4.000000,4.000000,4.000000,4.000000,4.000000,100.000000,,,,,,,,,,,,,,,,,,,,,,,,,,,,,,,,,,,,,,,,,,,,,,,,,,,,,,,,,,,,,,,,,,,,,,,,,,,,,,,,,,,,,,,,,,,,,,,,,,,,,,,,,,,,,,,,,,,,,,,,,,,,,,,,,
1739354269.042620,1739354269.043845,86.000000,0.000000,4271.282227,4265.128418,4303.461426,4296.282227,4258.589844,4244.871582,4205.769043,4230.384766,4250.384766,4241.538574,4460.128418,4460.128418,4366.282227,4443.717773,4999.000000,1.000000,18.000000,,,,0.000000,4.000000,4.000000,4.000000,4.000000,4.000000,4.000000,4.000000,4.000000,4.000000,4.000000,4.000000,4.000000,4.000000,4.000000,100.000000,,,,,,,,,,,,,,,,,,,,,,,,,,,,,,,,,,,,,,,,,,,,,,,,,,,,,,,,,,,,,,,,,,,,,,,,,,,,,,,,,,,,,,,,,,,,,,,,,,,,,,,,,,,,,,,,,,,,,,,,,,,,,,,,,
1739354269.050428,1739354269.051654,87.000000,0.000000,4281.153809,4271.538574,4307.563965,4295.256348,4264.102539,4247.563965,4214.743652,4232.820313,4255.769043,4244.871582,4467.307617,4467.563965,4374.230957,4448.974121,5404.000000,1.000000,18.000000,,,,0.000000,4.000000,4.000000,4.000000,4.000000,4.000000,4.000000,4.000000,4.000000,4.000000,4.000000,4.000000,4.000000,4.000000,4.000000,100.000000,,,,,,,,,,,,,,,,,,,,,,,,,,,,,,,,,,,,,,,,,,,,,,,,,,,,,,,,,,,,,,,,,,,,,,,,,,,,,,,,,,,,,,,,,,,,,,,,,,,,,,,,,,,,,,,,,,,,,,,,,,,,,,,,,
1739354269.058236,1739354269.059462,88.000000,0.000000,4285.000000,4280.000000,4310.256348,4301.282227,4266.794922,4252.948730,4218.461426,4233.717773,4256.282227,4239.358887,4478.077148,4475.256348,4373.205078,4444.102539,5659.000000,1.000000,18.000000,,,,0.000000,4.000000,4.000000,4.000000,4.000000,4.000000,4.000000,4.000000,4.000000,4.000000,4.000000,4.000000,4.000000,4.000000,4.000000,100.000000,,,,,,,,,,,,,,,,,22.000000,0.000000,0.195031,0.593994,-0.350891,0.697144,0.965938,-0.258332,0.047857,-39.553810,-27.123461,45.306858,,,,,,,,,,,,,,,,,,,,,,,,,,,,,,,,,,,,,,,,,,,,,,,,,,,,,,,,,,,,,,,,,,,,,,,,,,,,,,,,,,,,,,,,,,,,,,,,,,,,,
1739354269.066044,1739354269.067170,89.000000,0.000000,4280.641113,4278.077148,4311.025879,4307.179688,4272.307617,4258.846191,4218.333496,4235.256348,4250.256348,4237.692383,4475.000000,4471.282227,4367.179688,4438.717773,6778.000000,1.000000,18.000000,,,,0.000000,4.000000,4.000000,4.000000,4.000000,4.000000,4.000000,4.000000,4.000000,4.000000,4.000000,4.000000,4.000000,4.000000,4.000000,100.000000,,,,,,,,,,,,,,,,,,,,,,,,,,,,,,,,,,,,,,,,,,,,,,,,,,,,,,,,,,,,,,,,,,,,,,,,,,,,,,,,,,,,,,,,,,,,,,,,,,,,,,,,,,,,,,,,,,,,,,,,,,,,,,,,,
1739354269.073853,1739354269.074978,90.000000,0.000000,4276.666504,4272.692383,4307.307617,4299.230957,4270.769043,4254.230957,4216.922852,4229.615234,4245.384766,4239.743652,4460.384766,4458.589844,4356.282227,4431.794922,4999.000000,1.000000,18.000000,,,,0.000000,4.000000,4.000000,4.000000,4.000000,4.000000,4.000000,4.000000,4.000000,4.000000,4.000000,4.000000,4.000000,4.000000,4.000000,100.000000,,,,,,,,,,,,,,,,,,,,,,,,,,,,,,,,,,,,,,,,,,,,,,,,,,,,,,,,,,,,16.275892,4.862612,1.369138,0.875166,0.430413,12.257947,2.980383,0.990027,0.823292,0.493388,11.152676,2.022205,2.081768,0.724997,0.378354,2.572464,1.250405,1.107808,0.618465,0.430818,5.514667,1.763119,0.605399,0.573448,0.667226,5.396066,1.932160,0.429686,0.354062,0.401613,5.205153,2.961708,0.729681,0.536876,0.394912,6.367165,0.733123,0.650481,0.280548,0.261057,4.920431,3.192070,0.808615,0.592712,0.313589,8.015375,6.077175,1.337412,1.084001,0.670379,13.034997,5.342782,1.471165,0.772252,0.650360,13.059308,4.350102,2.292600,1.252570,0.711897,8.621333,3.393677,0.935890,0.669857,0.411738,16.773254,4.455750,2.255292,1.019867,0.471797
1739354269.081661,1739354269.082686,91.000000,0.000000,4282.948730,4280.641113,4310.128418,4298.589844,4263.077148,4250.512695,4222.179688,4219.743652,4246.538574,4242.820313,4453.717773,4456.794922,4353.717773,4427.692383,5404.000000,1.000000,18.000000,,,,0.000000,4.000000,4.000000,4.000000,4.000000,4.000000,4.000000,4.000000,4.000000,4.000000,4.000000,4.000000,4.000000,4.000000,4.000000,100.000000,,,,,,,,,,,,,,,,,,,,,,,,,,,,,,,,,,,,,,,,,,,,,,,,,,,,,,,,,,,,,,,,,,,,,,,,,,,,,,,,,,,,,,,,,,,,,,,,,,,,,,,,,,,,,,,,,,,,,,,,,,,,,,,,,
1739354269.089469,1739354269.090494,92.000000,0.000000,4291.410156,4286.666504,4314.871582,4309.871582,4267.563965,4256.666504,4226.538574,4213.589844,4245.512695,4235.128418,4449.743652,4462.179688,4357.948730,4431.153809,5659.000000,1.000000,18.000000,,,,0.000000,4.000000,4.000000,4.000000,4.000000,4.000000,4.000000,4.000000,4.000000,4.000000,4.000000,4.000000,4.000000,4.000000,4.000000,100.000000,,,,,,,,,,,,,,,,,23.000000,0.000000,0.195064,0.594055,-0.350891,0.697083,0.956171,-0.265657,0.052741,-39.515095,-27.111115,45.359505,,,,,,,,,,,,,,,,,,,,,,,,,,,,,,,,,,,,,,,,,,,,,,,,,,,,,,,,,,,,,,,,,,,,,,,,,,,,,,,,,,,,,,,,,,,,,,,,,,,,,
1739354269.097277,1739354269.098202,93.000000,0.000000,4291.922852,4281.666504,4313.846191,4309.230957,4278.974121,4260.128418,4222.307617,4214.358887,4241.922852,4228.205078,4454.615234,4463.589844,4358.077148,4436.282227,6778.000000,1.000000,18.000000,,,,0.000000,4.000000,4.000000,4.000000,4.000000,4.000000,4.000000,4.000000,4.000000,4.000000,4.000000,4.000000,4.000000,4.000000,4.000000,100.000000,,,,,,,,,,,,,,,,,,,,,,,,,,,,,,,,,,,,,,,,,,,,,,,,,,,,,,,,,,,,,,,,,,,,,,,,,,,,,,,,,,,,,,,,,,,,,,,,,,,,,,,,,,,,,,,,,,,,,,,,,,,,,,,,,
1739354269.105085,1739354269.106110,94.000000,0.000000,4293.846191,4287.179688,4320.512695,4305.897461,4275.128418,4259.230957,4223.205078,4223.077148,4247.948730,4244.487305,4478.846191,4471.666504,4368.333496,4446.922852,4999.000000,1.000000,18.000000,,,,0.000000,4.000000,4.000000,4.000000,4.000000,4.000000,4.000000,4.000000,4.000000,4.000000,4.000000,4.000000,4.000000,4.000000,4.000000,100.000000,,,,,,,,,,,,,,,,,,,,,,,,,,,,,,,,,,,,,,,,,,,,,,,,,,,,,,,,,,,,,,,,,,,,,,,,,,,,,,,,,,,,,,,,,,,,,,,,,,,,,,,,,,,,,,,,,,,,,,,,,,,,,,,,,
1739354269.112893,1739354269.113918,95.000000,0.000000,4300.000000,4296.538574,4329.102539,4313.333496,4267.692383,4265.641113,4232.179688,4240.897461,4261.666504,4269.615234,4501.922852,4487.692383,4387.563965,4465.000000,5404.000000,1.000000,18.000000,,,,0.000000,4.000000,4.000000,4.000000,4.000000,4.000000,4.000000,4.000000,4.000000,4.000000,4.000000,4.000000,4.000000,4.000000,4.000000,100.000000,,,,,,,,,,,,,,,,,,,,,,,,,,,,,,,,,,,,,,,,,,,,,,,,,,,,,,,,,,,,,,,,,,,,,,,,,,,,,,,,,,,,,,,,,,,,,,,,,,,,,,,,,,,,,,,,,,,,,,,,,,,,,,,,,
1739354269.120701,1739354269.121727,96.000000,0.000000,4295.384766,4286.922852,4325.769043,4312.179688,4264.615234,4265.769043,4230.641113,4257.436035,4266.666504,4268.077148,4507.307617,4493.333496,4387.692383,4475.128418,5659.000000,1.000000,18.000000,,,,0.000000,4.000000,4.000000,4.000000,4.000000,4.000000,4.000000,4.000000,4.000000,4.000000,4.000000,4.000000,4.000000,4.000000,4.000000,100.000000,,,,,,,,,,,,,,,,,24.000000,0.000000,0.195064,0.594055,-0.350891,0.697083,0.960566,-0.263704,0.051276,-39.530254,-26.983335,45.373554,,,,,,,,,,,,,,,,,,,,,,,,,,,,,,,,,,,,,,,,,,,,,,,,,,,,,,,,,,,,,,,,,,,,,,,,,,,,,,,,,,,,,,,,,,,,,,,,,,,,,
1739354269.128509,1739354269.129435,97.000000,0.000000,4291.666504,4278.717773,4322.563965,4306.282227,4261.153809,4259.871582,4226.282227,4265.384766,4263.333496,4256.025879,4513.589844,4495.384766,4384.102539,4478.846191,6778.000000,1.000000,18.000000,,,,0.000000,4.000000,4.000000,4.000000,4.000000,4.000000,4.000000,4.000000,4.000000,4.000000,4.000000,4.000000,4.000000,4.000000,4.000000,100.000000,,,,,,,,,,,,,,,,,,,,,,,,,,,,,,,,,,,,,,,,,,,,,,,,,,,,,,,,,,,,,,,,,,,,,,,,,,,,,,,,,,,,,,,,,,,,,,,,,,,,,,,,,,,,,,,,,,,,,,,,,,,,,,,,,
1739354269.136317,1739354269.137243,98.000000,0.000000,4301.153809,4291.538574,4331.794922,4315.897461,4268.461426,4267.179688,4235.769043,4271.410156,4265.769043,4264.102539,4527.692383,4507.692383,4394.358887,4488.974121,4999.000000,1.000000,18.000000,,,,0.000000,4.000000,4.000000,4.000000,4.000000,4.000000,4.000000,4.000000,4.000000,4.000000,4.000000,4.000000,4.000000,4.000000,4.000000,100.000000,,,,,,,,,,,,,,,,,,,,,,,,,,,,,,,,,,,,,,,,,,,,,,,,,,,,,,,,,,,,,,,,,,,,,,,,,,,,,,,,,,,,,,,,,,,,,,,,,,,,,,,,,,,,,,,,,,,,,,,,,,,,,,,,,
1739354269.144125,1739354269.144951,99.000000,0.000000,4302.436035,4296.282227,4331.025879,4322.051270,4272.307617,4270.000000,4238.461426,4272.179688,4262.436035,4267.307617,4528.974121,4506.666504,4394.871582,4491.538574,5404.000000,1.000000,18.000000,,,,0.000000,4.000000,4.000000,4.000000,4.000000,4.000000,4.000000,4.000000,4.000000,4.000000,4.000000,4.000000,4.000000,4.000000,4.000000,100.000000,,,,,,,,,,,,,,,,,,,,,,,,,,,,,,,,,,,,,,,,,,,,,,,,,,,,,,,,,,,,,,,,,,,,,,,,,,,,,,,,,,,,,,,,,,,,,,,,,,,,,,,,,,,,,,,,,,,,,,,,,,,,,,,,,
1739354269.151933,1739354269.152759,100.000000,0.000000,4289.102539,4280.897461,4316.538574,4310.128418,4256.025879,4253.589844,4221.666504,4263.589844,4246.922852,4250.384766,4513.205078,4484.358887,4383.846191,4480.897461,5659.000000,1.000000,18.000000,,,,0.000000,4.000000,4.000000,4.000000,4.000000,4.000000,4.000000,4.000000,4.000000,4.000000,4.000000,4.000000,4.000000,4.000000,4.000000,100.000000,,,,,,,,,,,,,,,,,25.000000,0.000000,0.195107,0.593933,-0.350952,0.697144,0.957636,-0.268099,0.051276,-39.660561,-26.985003,45.502865,,,,,,,,,,,,,,,,,,,,,,,,,,,,,,,,,,,,,,,,,,,,,,,,,,,,,,,,,,,,,,,,,,,,,,,,,,,,,,,,,,,,,,,,,,,,,,,,,,,,,
1739354269.159741,1739354269.160467,101.000000,0.000000,4275.769043,4262.948730,4305.384766,4294.743652,4241.282227,4245.384766,4213.077148,4258.846191,4238.846191,4227.179688,4502.436035,4469.615234,4378.205078,4473.974121,6778.000000,1.000000,18.000000,,,,0.000000,4.000000,4.000000,4.000000,4.000000,4.000000,4.000000,4.000000,4.000000,4.000000,4.000000,4.000000,4.000000,4.000000,4.000000,100.000000,,,,,,,,,,,,,,,,,,,,,,,,,,,,,,,,,,,,,,,,,,,,,,,,,,,,,,,,,,,,,,,,,,,,,,,,,,,,,,,,,,,,,,,,,,,,,,,,,,,,,,,,,,,,,,,,,,,,,,,,,,,,,,,,,
1739354269.167549,1739354269.168275,102.000000,0.000000,4275.897461,4260.256348,4309.230957,4293.974121,4248.077148,4257.051270,4224.743652,4263.461426,4244.230957,4226.025879,4507.051270,4478.077148,4381.922852,4477.179688,4999.000000,1.000000,18.000000,,,,0.000000,4.000000,4.000000,4.000000,4.000000,4.000000,4.000000,4.000000,4.000000,4.000000,4.000000,4.000000,4.000000,4.000000,4.000000,100.000000,,,,,,,,,,,,,,,,,,,,,,,,,,,,,,,,,,,,,,,,,,,,,,,,,,,,,,,,,,,,,,,,,,,,,,,,,,,,,,,,,,,,,,,,,,,,,,,,,,,,,,,,,,,,,,,,,,,,,,,,,,,,,,,,,
1739354269.175357,1739354269.175983,103.000000,0.000000,4286.410156,4267.307617,4317.692383,4298.717773,4250.512695,4256.153809,4226.666504,4265.384766,4247.948730,4239.871582,4505.641113,4488.974121,4390.641113,4484.487305,5404.000000,1.000000,18.000000,,,,0.000000,4.000000,4.000000,4.000000,4.000000,4.000000,4.000000,4.000000,4.000000,4.000000,4.000000,4.000000,4.000000,4.000000,4.000000,100.000000,,,,,,,,,,,,,,,,,,,,,,,,,,,,,,,,,,,,,,,,,,,,,,,,,,,,,,,,,,,,,,,,,,,,,,,,,,,,,,,,,,,,,,,,,,,,,,,,,,,,,,,,,,,,,,,,,,,,,,,,,,,,,,,,,
1739354269.183166,1739354269.183791,104.000000,0.000000,4294.358887,4267.563965,4319.487305,4299.230957,4239.871582,4243.974121,4215.641113,4261.025879,4253.333496,4248.333496,4512.307617,4492.820313,4403.717773,4492.307617,5659.000000,1.000000,18.000000,,,,0.000000,4.000000,4.000000,4.000000,4.000000,4.000000,4.000000,4.000000,4.000000,4.000000,4.000000,4.000000,4.000000,4.000000,4.000000,100.000000,,,,,,,,,,,,,,,,,26.000000,0.000000,0.195335,0.593750,-0.351135,0.697144,0.973263,-0.250519,0.055671,-39.627838,-27.003168,45.585911,,,,,,,,,,,,,,,,,,,,,,,,,,,,,,,,,,,,,,,,,,,,,,,,,,,,,,,,,,,,,,,,,,,,,,,,,,,,,,,,,,,,,,,,,,,,,,,,,,,,,
1739354269.190974,1739354269.191499,105.000000,0.000000,4293.205078,4260.769043,4318.205078,4301.153809,4238.846191,4245.512695,4214.871582,4257.563965,4259.487305,4253.974121,4532.051270,4492.820313,4410.641113,4493.461426,6778.000000,1.000000,18.000000,,,,0.000000,4.000000,4.000000,4.000000,4.000000,4.000000,4.000000,4.000000,4.000000,4.000000,4.000000,4.000000,4.000000,4.000000,4.000000,100.000000,,,,,,,,,,,,,,,,,,,,,,,,,,,,,,,,,,,,,,,,,,,,,,,,,,,,,,,,,,,,,,,,,,,,,,,,,,,,,,,,,,,,,,,,,,,,,,,,,,,,,,,,,,,,,,,,,,,,,,,,,,,,,,,,,
1739354269.198782,1739354269.199407,106.000000,0.000000,4290.512695,4260.769043,4317.692383,4304.358887,4244.871582,4250.897461,4218.205078,4256.666504,4254.615234,4254.871582,4531.153809,4488.589844,4410.256348,4489.871582,4999.000000,1.000000,18.000000,,,,0.000000,4.000000,4.000000,4.000000,4.000000,4.000000,4.000000,4.000000,4.000000,4.000000,4.000000,4.000000,4.000000,4.000000,4.000000,100.000000,,,,,,,,,,,,,,,,,,,,,,,,,,,,,,,,,,,,,,,,,,,,,,,,,,,,,,,,,,,,9.017149,2.685040,1.681122,0.856584,0.455006,8.995606,1.923639,1.157503,0.750544,0.486188,7.010666,1.742887,2.273230,0.749251,0.407804,1.776917,1.084162,1.513672,0.609736,0.433322,5.493397,1.761158,0.640787,0.647982,0.720419,5.075103,2.003457,0.355051,0.362874,0.432735,4.585304,2.831010,0.691413,0.541895,0.425549,4.116934,0.687178,0.533124,0.307800,0.265645,4.345945,2.878027,0.888369,0.632093,0.343209,7.640017,4.966195,1.769880,1.069427,0.738553,12.703800,5.511520,1.386369,0.821661,0.685142,10.632520,3.532987,2.603770,1.281271,0.740257,5.455215,2.500170,1.049480,0.676499,0.452940,9.092334,2.899317,2.463430,1.032529,0.499930
1739354269.206590,1739354269.207215,107.000000,0.000000,4298.461426,4270.384766,4323.077148,4309.615234,4255.128418,4255.897461,4220.897461,4261.025879,4253.461426,4249.358887,4525.128418,4490.128418,4412.436035,4493.205078,5404.000000,1.000000,18.000000,,,,0.000000,4.000000,4.000000,4.000000,4.000000,4.000000,4.000000,4.000000,4.000000,4.000000,4.000000,4.000000,4.000000,4.000000,4.000000,100.000000,,,,,,,,,,,,,,,,,,,,,,,,,,,,,,,,,,,,,,,,,,,,,,,,,,,,,,,,,,,,,,,,,,,,,,,,,,,,,,,,,,,,,,,,,,,,,,,,,,,,,,,,,,,,,,,,,,,,,,,,,,,,,,,,,
1739354269.214398,1739354269.215123,108.000000,0.000000,4305.256348,4274.487305,4329.743652,4313.974121,4262.179688,4264.230957,4230.897461,4273.205078,4266.794922,4250.256348,4544.615234,4502.692383,4415.641113,4497.436035,5659.000000,1.000000,18.000000,,,,0.000000,4.000000,4.000000,4.000000,4.000000,4.000000,4.000000,4.000000,4.000000,4.000000,4.000000,4.000000,4.000000,4.000000,4.000000,100.000000,,,,,,,,,,,,,,,,,27.000000,0.000000,0.195409,0.593689,-0.351318,0.697083,0.969845,-0.264681,0.050299,-39.631721,-26.936186,45.627319,,,,,,,,,,,,,,,,,,,,,,,,,,,,,,,,,,,,,,,,,,,,,,,,,,,,,,,,,,,,,,,,,,,,,,,,,,,,,,,,,,,,,,,,,,,,,,,,,,,,,
1739354269.222206,1739354269.222931,109.000000,0.000000,4298.589844,4265.512695,4326.538574,4307.948730,4252.307617,4258.846191,4230.384766,4277.948730,4277.820313,4258.717773,4554.743652,4507.692383,4416.538574,4489.743652,6778.000000,1.000000,18.000000,,,,0.000000,4.000000,4.000000,4.000000,4.000000,4.000000,4.000000,4.000000,4.000000,4.000000,4.000000,4.000000,4.000000,4.000000,4.000000,100.000000,,,,,,,,,,,,,,,,,,,,,,,,,,,,,,,,,,,,,,,,,,,,,,,,,,,,,,,,,,,,,,,,,,,,,,,,,,,,,,,,,,,,,,,,,,,,,,,,,,,,,,,,,,,,,,,,,,,,,,,,,,,,,,,,,
1739354269.230014,1739354269.230839,110.000000,0.000000,4294.487305,4257.820313,4323.205078,4301.666504,4242.948730,4248.846191,4221.153809,4272.051270,4277.179688,4264.358887,4548.589844,4503.333496,4413.205078,4485.512695,4999.000000,1.000000,18.000000,,,,0.000000,4.000000,4.000000,4.000000,4.000000,4.000000,4.000000,4.000000,4.000000,4.000000,4.000000,4.000000,4.000000,4.000000,4.000000,100.000000,,,,,,,,,,,,,,,,,,,,,,,,,,,,,,,,,,,,,,,,,,,,,,,,,,,,,,,,,,,,,,,,,,,,,,,,,,,,,,,,,,,,,,,,,,,,,,,,,,,,,,,,,,,,,,,,,,,,,,,,,,,,,,,,,
1739354269.237822,1739354269.238647,111.000000,0.000000,4296.794922,4262.179688,4325.384766,4302.051270,4249.487305,4251.538574,4227.563965,4270.000000,4272.307617,4258.589844,4556.025879,4506.538574,4408.461426,4488.461426,5404.000000,1.000000,18.000000,,,,0.000000,4.000000,4.000000,4.000000,4.000000,4.000000,4.000000,4.000000,4.000000,4.000000,4.000000,4.000000,4.000000,4.000000,4.000000,100.000000,,,,,,,,,,,,,,,,,,,,,,,,,,,,,,,,,,,,,,,,,,,,,,,,,,,,,,,,,,,,,,,,,,,,,,,,,,,,,,,,,,,,,,,,,,,,,,,,,,,,,,,,,,,,,,,,,,,,,,,,,,,,,,,,,
1739354269.245630,1739354269.246555,112.000000,0.000000,4289.230957,4258.717773,4319.615234,4297.436035,4252.051270,4252.948730,4232.563965,4270.256348,4263.974121,4244.358887,4547.948730,4501.538574,4399.358887,4477.820313,5659.000000,1.000000,18.000000,,,,0.000000,4.000000,4.000000,4.000000,4.000000,4.000000,4.000000,4.000000,4.000000,4.000000,4.000000,4.000000,4.000000,4.000000,4.000000,100.000000,,,,,,,,,,,,,,,,,28.000000,0.000000,0.195791,0.593384,-0.351379,0.697205,0.943963,-0.249054,0.050787,-39.701881,-27.025900,45.564587,,,,,,,,,,,,,,,,,,,,,,,,,,,,,,,,,,,,,,,,,,,,,,,,,,,,,,,,,,,,,,,,,,,,,,,,,,,,,,,,,,,,,,,,,,,,,,,,,,,,,
1739354269.253438,1739354269.254363,113.000000,0.000000,4276.538574,4249.871582,4308.846191,4292.563965,4245.384766,4251.025879,4224.102539,4265.769043,4261.538574,4240.000000,4519.615234,4483.717773,4391.538574,4461.538574,6778.000000,1.000000,18.000000,,,,0.000000,4.000000,4.000000,4.000000,4.000000,4.000000,4.000000,4.000000,4.000000,4.000000,4.000000,4.000000,4.000000,4.000000,4.000000,100.000000,,,,,,,,,,,,,,,,,,,,,,,,,,,,,,,,,,,,,,,,,,,,,,,,,,,,,,,,,,,,,,,,,,,,,,,,,,,,,,,,,,,,,,,,,,,,,,,,,,,,,,,,,,,,,,,,,,,,,,,,,,,,,,,,,
1739354269.261246,1739354269.262071,114.000000,0.000000,4268.333496,4245.256348,4303.333496,4295.384766,4243.461426,4248.589844,4215.512695,4260.769043,4259.230957,4239.743652,4514.358887,4472.436035,4387.820313,4454.615234,4999.000000,1.000000,18.000000,,,,0.000000,4.000000,4.000000,4.000000,4.000000,4.000000,4.000000,4.000000,4.000000,4.000000,4.000000,4.000000,4.000000,4.000000,4.000000,100.000000,,,,,,,,,,,,,,,,,,,,,,,,,,,,,,,,,,,,,,,,,,,,,,,,,,,,,,,,,,,,,,,,,,,,,,,,,,,,,,,,,,,,,,,,,,,,,,,,,,,,,,,,,,,,,,,,,,,,,,,,,,,,,,,,,
1739354269.269055,1739354269.269879,115.000000,0.000000,4261.410156,4237.563965,4303.589844,4293.846191,4246.153809,4245.384766,4216.922852,4261.922852,4251.538574,4230.128418,4531.153809,4473.205078,4383.974121,4457.436035,5404.000000,1.000000,18.000000,,,,0.000000,4.000000,4.000000,4.000000,4.000000,4.000000,4.000000,4.000000,4.000000,4.000000,4.000000,4.000000,4.000000,4.000000,4.000000,100.000000,,,,,,,,,,,,,,,,,,,,,,,,,,,,,,,,,,,,,,,,,,,,,,,,,,,,,,,,,,,,,,,,,,,,,,,,,,,,,,,,,,,,,,,,,,,,,,,,,,,,,,,,,,,,,,,,,,,,,,,,,,,,,,,,,
1739354269.276863,1739354269.277587,116.000000,0.000000,4263.461426,4237.563965,4310.512695,4291.538574,4244.743652,4251.282227,4226.153809,4265.256348,4254.615234,4231.794922,4537.563965,4480.000000,4382.563965,4463.461426,5659.000000,1.000000,18.000000,,,,0.000000,4.000000,4.000000,4.000000,4.000000,4.000000,4.000000,4.000000,4.000000,4.000000,4.000000,4.000000,4.000000,4.000000,4.000000,100.000000,,,,,,,,,,,,,,,,,29.000000,0.000000,0.196309,0.593140,-0.351624,0.697144,0.979612,-0.260774,0.054694,-39.698360,-27.039976,45.558128,,,,,,,,,,,,,,,,,,,,,,,,,,,,,,,,,,,,,,,,,,,,,,,,,,,,,,,,,,,,,,,,,,,,,,,,,,,,,,,,,,,,,,,,,,,,,,,,,,,,,
1739354269.284671,1739354269.285395,117.000000,0.000000,4273.974121,4246.666504,4315.769043,4300.128418,4247.948730,4262.179688,4233.974121,4268.717773,4266.153809,4246.538574,4536.282227,4486.410156,4382.820313,4467.051270,6778.000000,1.000000,18.000000,,,,0.000000,4.000000,4.000000,4.000000,4.000000,4.000000,4.000000,4.000000,4.000000,4.000000,4.000000,4.000000,4.000000,4.000000,4.000000,100.000000,,,,,,,,,,,,,,,,,,,,,,,,,,,,,,,,,,,,,,,,,,,,,,,,,,,,,,,,,,,,,,,,,,,,,,,,,,,,,,,,,,,,,,,,,,,,,,,,,,,,,,,,,,,,,,,,,,,,,,,,,,,,,,,,,
1739354269.292479,1739354269.293103,118.000000,0.000000,4278.846191,4249.487305,4314.358887,4303.461426,4257.179688,4264.230957,4233.974121,4268.846191,4264.871582,4244.487305,4545.641113,4488.461426,4386.410156,4470.000000,4999.000000,1.000000,18.000000,,,,0.000000,4.000000,4.000000,4.000000,4.000000,4.000000,4.000000,4.000000,4.000000,4.000000,4.000000,4.000000,4.000000,4.000000,4.000000,100.000000,,,,,,,,,,,,,,,,,,,,,,,,,,,,,,,,,,,,,,,,,,,,,,,,,,,,,,,,,,,,,,,,,,,,,,,,,,,,,,,,,,,,,,,,,,,,,,,,,,,,,,,,,,,,,,,,,,,,,,,,,,,,,,,,,
1739354269.300287,1739354269.300911,119.000000,0.000000,4275.128418,4245.000000,4312.948730,4294.487305,4257.179688,4257.948730,4226.666504,4267.692383,4253.461426,4231.282227,4551.282227,4486.794922,4385.384766,4473.077148,5404.000000,1.000000,18.000000,,,,0.000000,4.000000,4.000000,4.000000,4.000000,4.000000,4.000000,4.000000,4.000000,4.000000,4.000000,4.000000,4.000000,4.000000,4.000000,100.000000,,,,,,,,,,,,,,,,,,,,,,,,,,,,,,,,,,,,,,,,,,,,,,,,,,,,,,,,,,,,,,,,,,,,,,,,,,,,,,,,,,,,,,,,,,,,,,,,,,,,,,,,,,,,,,,,,,,,,,,,,,,,,,,,,
1739354269.308095,1739354269.308619,120.000000,0.000000,4270.512695,4245.641113,4312.179688,4292.307617,4248.333496,4252.948730,4220.256348,4266.153809,4248.717773,4230.128418,4543.974121,4481.538574,4376.922852,4470.256348,5659.000000,1.000000,18.000000,,,,0.000000,4.000000,4.000000,4.000000,4.000000,4.000000,4.000000,4.000000,4.000000,4.000000,4.000000,4.000000,4.000000,4.000000,4.000000,100.000000,,,,,,,,,,,,,,,,,30.000000,0.000000,0.196568,0.593018,-0.351685,0.697144,0.961543,-0.256867,0.047369,-39.678524,-26.902645,45.418983,,,,,,,,,,,,,,,,,,,,,,,,,,,,,,,,,,,,,,,,,,,,,,,,,,,,,,,,,,,,,,,,,,,,,,,,,,,,,,,,,,,,,,,,,,,,,,,,,,,,,
1739354269.315903,1739354269.316427,121.000000,0.000000,4264.230957,4246.025879,4306.794922,4295.512695,4246.794922,4248.846191,4216.153809,4261.922852,4243.717773,4226.666504,4538.717773,4472.307617,4375.256348,4460.384766,6778.000000,1.000000,18.000000,,,,0.000000,4.000000,4.000000,4.000000,4.000000,4.000000,4.000000,4.000000,4.000000,4.000000,4.000000,4.000000,4.000000,4.000000,4.000000,100.000000,,,,,,,,,,,,,,,,,,,,,,,,,,,,,,,,,,,,,,,,,,,,,,,,,,,,,,,,,,,,,,,,,,,,,,,,,,,,,,,,,,,,,,,,,,,,,,,,,,,,,,,,,,,,,,,,,,,,,,,,,,,,,,,,,
1739354269.323711,1739354269.324135,122.000000,0.000000,4262.307617,4243.974121,4305.897461,4293.717773,4249.871582,4245.769043,4213.974121,4261.410156,4236.794922,4213.461426,4532.051270,4469.230957,4378.974121,4454.358887,4999.000000,1.000000,18.000000,,,,0.000000,4.000000,4.000000,4.000000,4.000000,4.000000,4.000000,4.000000,4.000000,4.000000,4.000000,4.000000,4.000000,4.000000,4.000000,100.000000,,,,,,,,,,,,,,,,,,,,,,,,,,,,,,,,,,,,,,,,,,,,,,,,,,,,,,,,,,,,6.056297,1.911255,2.134524,0.830819,0.459999,7.503250,1.744471,1.448659,0.694748,0.456999,4.188950,1.599210,2.415967,0.728027,0.422916,1.641193,1.209964,2.031733,0.583313,0.421802,5.240291,1.699386,0.777409,0.709406,0.737956,4.569327,1.987690,0.314335,0.364102,0.451703,3.852273,2.546959,0.687207,0.525868,0.450504,2.455328,0.642242,0.461452,0.313611,0.255278,3.746952,2.501794,1.067677,0.638320,0.369672,6.969240,3.935478,2.294253,1.004852,0.770119,13.013814,5.729326,1.427005,0.813093,0.701379,8.763915,3.037196,2.987913,1.223832,0.720778,4.003627,2.105980,1.289030,0.641396,0.479105,5.316962,2.225279,2.708271,0.977478,0.499552
1739354269.331519,1739354269.331943,123.000000,0.000000,4267.820313,4250.512695,4311.410156,4295.256348,4248.846191,4249.615234,4215.641113,4266.153809,4243.205078,4222.820313,4528.974121,4475.000000,4382.948730,4458.205078,5404.000000,1.000000,18.000000,,,,0.000000,4.000000,4.000000,4.000000,4.000000,4.000000,4.000000,4.000000,4.000000,4.000000,4.000000,4.000000,4.000000,4.000000,4.000000,100.000000,,,,,,,,,,,,,,,,,,,,,,,,,,,,,,,,,,,,,,,,,,,,,,,,,,,,,,,,,,,,,,,,,,,,,,,,,,,,,,,,,,,,,,,,,,,,,,,,,,,,,,,,,,,,,,,,,,,,,,,,,,,,,,,,,
1739354269.339327,1739354269.339651,124.000000,0.000000,4269.871582,4250.641113,4308.461426,4295.128418,4248.205078,4252.307617,4216.922852,4266.794922,4253.205078,4244.743652,4539.743652,4477.436035,4385.384766,4459.358887,5659.000000,1.000000,18.000000,,,,0.000000,4.000000,4.000000,4.000000,4.000000,4.000000,4.000000,4.000000,4.000000,4.000000,4.000000,4.000000,4.000000,4.000000,4.000000,100.000000,,,,,,,,,,,,,,,,,31.000000,0.000000,0.196716,0.592896,-0.351929,0.697083,0.955195,-0.257844,0.052252,-39.577339,-26.995714,45.377087,,,,,,,,,,,,,,,,,,,,,,,,,,,,,,,,,,,,,,,,,,,,,,,,,,,,,,,,,,,,,,,,,,,,,,,,,,,,,,,,,,,,,,,,,,,,,,,,,,,,,
1739354269.347135,1739354269.347459,125.000000,0.000000,4259.230957,4237.051270,4297.307617,4283.974121,4249.487305,4249.487305,4213.974121,4265.256348,4249.615234,4242.179688,4546.922852,4472.436035,4381.666504,4448.205078,6778.000000,1.000000,18.000000,,,,0.000000,4.000000,4.000000,4.000000,4.000000,4.000000,4.000000,4.000000,4.000000,4.000000,4.000000,4.000000,4.000000,4.000000,4.000000,100.000000,,,,,,,,,,,,,,,,,,,,,,,,,,,,,,,,,,,,,,,,,,,,,,,,,,,,,,,,,,,,,,,,,,,,,,,,,,,,,,,,,,,,,,,,,,,,,,,,,,,,,,,,,,,,,,,,,,,,,,,,,,,,,,,,,
1739354269.354943,1739354269.355167,126.000000,0.000000,4247.692383,4227.436035,4291.794922,4275.128418,4247.692383,4253.717773,4216.025879,4272.051270,4249.358887,4235.384766,4544.615234,4469.102539,4377.051270,4440.128418,4999.000000,1.000000,18.000000,,,,0.000000,4.000000,4.000000,4.000000,4.000000,4.000000,4.000000,4.000000,4.000000,4.000000,4.000000,4.000000,4.000000,4.000000,4.000000,100.000000,,,,,,,,,,,,,,,,,,,,,,,,,,,,,,,,,,,,,,,,,,,,,,,,,,,,,,,,,,,,,,,,,,,,,,,,,,,,,,,,,,,,,,,,,,,,,,,,,,,,,,,,,,,,,,,,,,,,,,,,,,,,,,,,,
1739354269.362751,1739354269.363076,127.000000,0.000000,4247.179688,4229.487305,4294.487305,4275.512695,4244.743652,4263.461426,4227.436035,4279.743652,4264.487305,4240.897461,4549.487305,4474.358887,4377.179688,4445.128418,18.000000,1.000000,18.000000,,,,0.000000,4.000000,4.000000,4.000000,4.000000,4.000000,4.000000,4.000000,4.000000,4.000000,4.000000,4.000000,4.000000,4.000000,4.000000,100.000000,,,,,,,,,,,,,,,,,,,,,,,,,,,,,,,,,,,,,,,,,,,,,,,,,,,,,,,,,,,,,,,,,,,,,,,,,,,,,,,,,,,,,,,,,,,,,,,,,,,,,,,,,,,,,,,,,,,,,,,,,,,,,,,,,
1739354269.370560,1739354269.370884,0.000000,0.000000,4255.128418,4235.000000,4295.256348,4278.589844,4246.922852,4263.717773,4235.512695,4277.307617,4268.333496,4235.769043,4553.461426,4477.948730,4377.436035,4447.820313,5091.000000,1.000000,18.000000,,,,0.000000,4.000000,4.000000,4.000000,4.000000,4.000000,4.000000,4.000000,4.000000,4.000000,4.000000,4.000000,4.000000,4.000000,4.000000,100.000000,,,,,,,,,,,,,,,,,0.000000,0.000000,0.196798,0.592651,-0.352173,0.697144,0.960078,-0.268587,0.057136,-39.536270,-26.996143,45.289375,,,,,,,,,,,,,,,,,,,,,,,,,,,,,,,,,,,,,,,,,,,,,,,,,,,,,,,,,,,,,,,,,,,,,,,,,,,,,,,,,,,,,,,,,,,,,,,,,,,,,
1739354269.378368,1739354269.378792,1.000000,0.000000,4260.128418,4235.128418,4294.102539,4281.410156,4247.436035,4255.769043,4231.538574,4273.333496,4252.948730,4229.102539,4551.025879,4473.846191,4374.871582,4438.717773,5450.000000,1.000000,18.000000,,,,0.000000,4.000000,4.000000,4.000000,4.000000,4.000000,4.000000,4.000000,4.000000,4.000000,4.000000,4.000000,4.000000,4.000000,4.000000,100.000000,,,,,,,,,,,,,,,,,,,,,,,,,,,,,,,,,,,,,,,,,,,,,,,,,,,,,,,,,,,,,,,,,,,,,,,,,,,,,,,,,,,,,,,,,,,,,,,,,,,,,,,,,,,,,,,,,,,,,,,,,,,,,,,,,
1739354269.386176,1739354269.386600,2.000000,0.000000,4259.487305,4232.179688,4294.102539,4278.974121,4234.871582,4249.230957,4225.256348,4271.410156,4245.897461,4233.974121,4553.205078,4471.666504,4374.743652,4434.358887,5467.000000,1.000000,18.000000,,,,0.000000,4.000000,4.000000,4.000000,4.000000,4.000000,4.000000,4.000000,4.000000,4.000000,4.000000,4.000000,4.000000,4.000000,4.000000,100.000000,,,,,,,,,,,,,,,,,,,,,,,,,,,,,,,,,,,,,,,,,,,,,,,,,,,,,,,,,,,,,,,,,,,,,,,,,,,,,,,,,,,,,,,,,,,,,,,,,,,,,,,,,,,,,,,,,,,,,,,,,,,,,,,,,
1739354269.393984,1739354269.394508,3.000000,0.000000,4261.794922,4237.436035,4297.948730,4276.410156,4233.589844,4247.948730,4227.692383,4271.666504,4255.769043,4236.025879,4555.128418,4474.615234,4377.179688,4443.333496,5364.000000,1.000000,18.000000,,,,0.000000,4.000000,4.000000,4.000000,4.000000,4.000000,4.000000,4.000000,4.000000,4.000000,4.000000,4.000000,4.000000,4.000000,4.000000,100.000000,,,,,,,,,,,,,,,,,,,,,,,,,,,,,,,,,,,,,,,,,,,,,,,,,,,,,,,,,,,,,,,,,,,,,,,,,,,,,,,,,,,,,,,,,,,,,,,,,,,,,,,,,,,,,,,,,,,,,,,,,,,,,,,,,
1739354269.401792,1739354269.402316,4.000000,0.000000,4267.051270,4250.512695,4300.897461,4281.025879,4249.743652,4250.769043,4230.256348,4278.974121,4265.128418,4238.205078,4550.256348,4478.077148,4380.128418,4448.461426,5328.000000,1.000000,18.000000,,,,0.000000,4.000000,4.000000,4.000000,4.000000,4.000000,4.000000,4.000000,4.000000,4.000000,4.000000,4.000000,4.000000,4.000000,4.000000,100.000000,,,,,,,,,,,,,,,,,1.000000,0.000000,0.197200,0.592407,-0.352600,0.697021,0.964962,-0.270052,0.058113,-39.665977,-26.946529,45.210438,,,,,,,,,,,,,,,,,,,,,,,,,,,,,,,,,,,,,,,,,,,,,,,,,,,,,,,,,,,,,,,,,,,,,,,,,,,,,,,,,,,,,,,,,,,,,,,,,,,,,
1739354269.409600,1739354269.410224,5.000000,0.000000,4264.358887,4252.948730,4294.615234,4283.974121,4252.820313,4251.282227,4223.717773,4281.794922,4261.922852,4242.948730,4543.846191,4476.666504,4383.717773,4444.358887,5359.000000,1.000000,18.000000,,,,0.000000,4.000000,4.000000,4.000000,4.000000,4.000000,4.000000,4.000000,4.000000,4.000000,4.000000,4.000000,4.000000,4.000000,4.000000,100.000000,,,,,,,,,,,,,,,,,,,,,,,,,,,,,,,,,,,,,,,,,,,,,,,,,,,,,,,,,,,,,,,,,,,,,,,,,,,,,,,,,,,,,,,,,,,,,,,,,,,,,,,,,,,,,,,,,,,,,,,,,,,,,,,,,
1739354269.417408,1739354269.418033,6.000000,0.000000,4260.512695,4246.282227,4294.615234,4282.436035,4244.871582,4249.871582,4216.794922,4276.538574,4251.794922,4236.282227,4540.897461,4474.230957,4385.256348,4442.307617,5327.000000,1.000000,18.000000,,,,0.000000,4.000000,4.000000,4.000000,4.000000,4.000000,4.000000,4.000000,4.000000,4.000000,4.000000,4.000000,4.000000,4.000000,4.000000,100.000000,,,,,,,,,,,,,,,,,,,,,,,,,,,,,,,,,,,,,,,,,,,,,,,,,,,,,,,,,,,,,,,,,,,,,,,,,,,,,,,,,,,,,,,,,,,,,,,,,,,,,,,,,,,,,,,,,,,,,,,,,,,,,,,,,
1739354269.425216,1739354269.425941,7.000000,0.000000,4265.000000,4248.717773,4302.692383,4281.922852,4241.282227,4250.000000,4218.589844,4278.974121,4248.846191,4231.666504,4535.641113,4478.846191,4388.974121,4449.615234,3373.000000,1.000000,18.000000,,,,0.000000,4.000000,4.000000,4.000000,4.000000,4.000000,4.000000,4.000000,4.000000,4.000000,4.000000,4.000000,4.000000,4.000000,4.000000,100.000000,,,,,,,,,,,,,,,,,,,,,,,,,,,,,,,,,,,,,,,,,,,,,,,,,,,,,,,,,,,,,,,,,,,,,,,,,,,,,,,,,,,,,,,,,,,,,,,,,,,,,,,,,,,,,,,,,,,,,,,,,,,,,,,,,
1739354269.433024,1739354269.433749,8.000000,0.000000,4267.179688,4251.666504,4299.871582,4278.205078,4236.538574,4246.538574,4216.922852,4280.000000,4247.820313,4235.256348,4522.563965,4480.256348,4391.794922,4455.641113,5131.000000,1.000000,18.000000,,,,0.000000,4.000000,4.000000,4.000000,4.000000,4.000000,4.000000,4.000000,4.000000,4.000000,4.000000,4.000000,4.000000,4.000000,4.000000,100.000000,,,,,,,,,,,,,,,,,2.000000,0.000000,0.197453,0.592102,-0.353333,0.696838,0.961543,-0.264192,0.049322,-39.516048,-27.068542,45.272728,,,,,,,,,,,,,,,,,,,,,,,,,,,,,,,,,,,,,,,,,,,,,,,,,,,,,,,,,,,,,,,,,,,,,,,,,,,,,,,,,,,,,,,,,,,,,,,,,,,,,
1739354269.440832,1739354269.441656,9.000000,0.000000,4268.974121,4250.769043,4298.077148,4283.461426,4239.358887,4245.000000,4213.974121,4275.769043,4246.025879,4235.512695,4525.000000,4477.051270,4393.333496,4459.230957,5480.000000,1.000000,18.000000,,,,0.000000,4.000000,4.000000,4.000000,4.000000,4.000000,4.000000,4.000000,4.000000,4.000000,4.000000,4.000000,4.000000,4.000000,4.000000,100.000000,,,,,,,,,,,,,,,,,,,,,,,,,,,,,,,,,,,,,,,,,,,,,,,,,,,,,,,,,,,,,,,,,,,,,,,,,,,,,,,,,,,,,,,,,,,,,,,,,,,,,,,,,,,,,,,,,,,,,,,,,,,,,,,,,
1739354269.448640,1739354269.449464,10.000000,0.000000,4273.717773,4249.871582,4308.205078,4294.102539,4252.563965,4249.615234,4224.102539,4283.717773,4255.384766,4234.358887,4541.538574,4484.358887,4396.025879,4465.641113,5003.000000,1.000000,18.000000,,,,0.000000,4.000000,4.000000,4.000000,4.000000,4.000000,4.000000,4.000000,4.000000,4.000000,4.000000,4.000000,4.000000,4.000000,4.000000,100.000000,1.000000,83.333336,3.000000,4.000000,4.000000,4.000000,4.000000,4.000000,4.000000,4.000000,4.000000,4.000000,4.000000,4.000000,4.000000,3.000000,,,,,,,,,,,,,,,,,,,,,,,,,,,,,,,,,,,,,,,,,,,,5.121160,1.745050,2.450356,0.780598,0.441838,6.639392,1.862603,1.672047,0.657526,0.415411,2.519496,1.485715,2.420687,0.673733,0.419721,1.672814,1.392789,2.437272,0.543991,0.402124,4.773007,1.544963,0.925983,0.748096,0.725032,3.961276,1.855872,0.298146,0.356249,0.456449,3.120631,2.150867,0.691297,0.493142,0.468649,1.554934,0.626444,0.479002,0.299966,0.235756,3.195103,2.122022,1.268173,0.608003,0.386483,6.006508,3.068277,2.722955,0.905871,0.767558,13.358546,5.833470,1.545704,0.755684,0.687977,7.108627,2.717716,3.254620,1.100210,0.660818,3.420911,1.869396,1.510576,0.573796,0.483469,3.836401,1.916220,2.799148,0.875335,0.470066
1739354269.456448,1739354269.457172,11.000000,0.000000,4269.871582,4246.025879,4307.307617,4284.743652,4246.666504,4251.922852,4234.230957,4296.025879,4267.820313,4235.128418,4542.051270,4489.102539,4393.846191,4463.974121,5404.000000,1.000000,18.000000,,,,0.000000,4.000000,4.000000,4.000000,4.000000,4.000000,4.000000,4.000000,4.000000,4.000000,4.000000,4.000000,4.000000,4.000000,4.000000,100.000000,,,,,,,,,,,,,,,,,,,,,,,,,,,,,,,,,,,,,,,,,,,,,,,,,,,,,,,,,,,,,,,,,,,,,,,,,,,,,,,,,,,,,,,,,,,,,,,,,,,,,,,,,,,,,,,,,,,,,,,,,,,,,,,,,
1739354269.464256,1739354269.464980,12.000000,0.000000,4264.358887,4245.384766,4297.948730,4277.179688,4232.692383,4251.794922,4234.871582,4291.282227,4266.153809,4238.205078,4534.743652,4480.641113,4392.051270,4454.487305,5651.000000,1.000000,18.000000,,,,0.000000,4.000000,4.000000,4.000000,4.000000,4.000000,4.000000,4.000000,4.000000,4.000000,4.000000,4.000000,4.000000,4.000000,4.000000,100.000000,,,,,,,,,,,,,,,,,3.000000,0.000000,0.197526,0.591858,-0.353821,0.696777,0.967892,-0.269564,0.055671,-39.514442,-27.061687,45.162121,,,,,,,,,,,,,,,,,,,,,,,,,,,,,,,,,,,,,,,,,,,,,,,,,,,,,,,,,,,,,,,,,,,,,,,,,,,,,,,,,,,,,,,,,,,,,,,,,,,,,
1739354269.472064,1739354269.472688,13.000000,0.000000,4266.025879,4247.307617,4296.922852,4287.436035,4240.897461,4251.282227,4231.410156,4279.230957,4258.333496,4245.512695,4535.128418,4473.717773,4394.358887,4448.974121,6780.000000,1.000000,18.000000,,,,0.000000,4.000000,4.000000,4.000000,4.000000,4.000000,4.000000,4.000000,4.000000,4.000000,4.000000,4.000000,4.000000,4.000000,4.000000,100.000000,,,,,,,,,,,,,,,,,,,,,,,,,,,,,,,,,,,,,,,,,,,,,,,,,,,,,,,,,,,,,,,,,,,,,,,,,,,,,,,,,,,,,,,,,,,,,,,,,,,,,,,,,,,,,,,,,,,,,,,,,,,,,,,,,
1739354269.479873,1739354269.480496,14.000000,0.000000,4267.051270,4247.563965,4298.077148,4288.974121,4252.307617,4252.563965,4233.333496,4279.871582,4263.333496,4247.307617,4536.666504,4478.461426,4396.282227,4450.128418,5003.000000,1.000000,18.000000,,,,0.000000,4.000000,4.000000,4.000000,4.000000,4.000000,4.000000,4.000000,4.000000,4.000000,4.000000,4.000000,4.000000,4.000000,4.000000,100.000000,,,,,,,,,,,,,,,,,,,,,,,,,,,,,,,,,,,,,,,,,,,,,,,,,,,,,,,,,,,,,,,,,,,,,,,,,,,,,,,,,,,,,,,,,,,,,,,,,,,,,,,,,,,,,,,,,,,,,,,,,,,,,,,,,
1739354269.487681,1739354269.488205,15.000000,0.000000,4264.230957,4245.897461,4295.128418,4279.743652,4248.333496,4254.230957,4234.871582,4283.461426,4262.820313,4237.179688,4540.000000,4479.487305,4394.230957,4448.333496,5404.000000,1.000000,18.000000,,,,0.000000,4.000000,4.000000,4.000000,4.000000,4.000000,4.000000,4.000000,4.000000,4.000000,4.000000,4.000000,4.000000,4.000000,4.000000,100.000000,,,,,,,,,,,,,,,,,,,,,,,,,,,,,,,,,,,,,,,,,,,,,,,,,,,,,,,,,,,,,,,,,,,,,,,,,,,,,,,,,,,,,,,,,,,,,,,,,,,,,,,,,,,,,,,,,,,,,,,,,,,,,,,,,
1739354269.495489,1739354269.496012,16.000000,0.000000,4261.025879,4242.820313,4291.153809,4278.333496,4245.512695,4250.512695,4231.282227,4282.563965,4253.205078,4224.871582,4535.641113,4473.461426,4390.000000,4444.743652,0.000000,1.000000,18.000000,,,,0.000000,4.000000,4.000000,4.000000,4.000000,4.000000,4.000000,4.000000,4.000000,4.000000,4.000000,4.000000,4.000000,4.000000,4.000000,100.000000,,,,,,,,,,,,,,,,,4.000000,0.000000,0.197805,0.591431,-0.354858,0.696533,0.968380,-0.272983,0.056648,-39.496330,-27.105520,45.245911,,,,,,,,,,,,,,,,,,,,,,,,,,,,,,,,,,,,,,,,,,,,,,,,,,,,,,,,,,,,,,,,,,,,,,,,,,,,,,,,,,,,,,,,,,,,,,,,,,,,,
1739354269.503297,1739354269.503721,17.000000,0.000000,4257.179688,4238.717773,4289.230957,4277.051270,4245.256348,4245.256348,4229.871582,4285.128418,4255.000000,4226.410156,4529.102539,4471.666504,4387.948730,4445.256348,0.000000,1.000000,18.000000,,,,0.000000,4.000000,4.000000,4.000000,4.000000,4.000000,4.000000,4.000000,4.000000,4.000000,4.000000,4.000000,4.000000,4.000000,4.000000,100.000000,,,,,,,,,,,,,,,,,,,,,,,,,,,,,,,,,,,,,,,,,,,,,,,,,,,,,,,,,,,,,,,,,,,,,,,,,,,,,,,,,,,,,,,,,,,,,,,,,,,,,,,,,,,,,,,,,,,,,,,,,,,,,,,,,
1739354269.511105,1739354269.511529,18.000000,0.000000,4265.384766,4244.871582,4298.974121,4282.179688,4242.820313,4246.282227,4230.769043,4285.128418,4264.487305,4244.743652,4544.102539,4481.153809,4394.871582,4452.563965,0.000000,1.000000,18.000000,,,,0.000000,4.000000,4.000000,4.000000,4.000000,4.000000,4.000000,4.000000,4.000000,4.000000,4.000000,4.000000,4.000000,4.000000,4.000000,100.000000,,,,,,,,,,,,,,,,,,,,,,,,,,,,,,,,,,,,,,,,,,,,,,,,,,,,,,,,,,,,,,,,,,,,,,,,,,,,,,,,,,,,,,,,,,,,,,,,,,,,,,,,,,,,,,,,,,,,,,,,,,,,,,,,,
1739354269.518913,1739354269.519237,19.000000,0.000000,4280.769043,4261.538574,4311.666504,4300.000000,4246.153809,4250.384766,4233.205078,4276.282227,4265.769043,4252.307617,4560.512695,4489.871582,4404.358887,4458.333496,0.000000,1.000000,18.000000,,,,0.000000,4.000000,4.000000,4.000000,4.000000,4.000000,4.000000,4.000000,4.000000,4.000000,4.000000,4.000000,4.000000,4.000000,4.000000,100.000000,,,,,,,,,,,,,,,,,,,,,,,,,,,,,,,,,,,,,,,,,,,,,,,,,,,,,,,,,,,,,,,,,,,,,,,,,,,,,,,,,,,,,,,,,,,,,,,,,,,,,,,,,,,,,,,,,,,,,,,,,,,,,,,,,
1739354269.526721,1739354269.527145,20.000000,0.000000,4282.820313,4266.025879,4313.205078,4303.333496,4250.897461,4248.846191,4231.538574,4262.820313,4257.820313,4241.538574,4554.743652,4482.948730,4400.641113,4452.820313,0.000000,1.000000,18.000000,,,,0.000000,4.000000,4.000000,4.000000,4.000000,4.000000,4.000000,4.000000,4.000000,4.000000,4.000000,4.000000,4.000000,4.000000,4.000000,100.000000,,,,,,,,,,,,,,,,,5.000000,0.000000,0.197722,0.591125,-0.355652,0.696411,0.970822,-0.272006,0.053229,-39.713364,-27.178301,45.337986,,,,,,,,,,,,,,,,,,,,,,,,,,,,,,,,,,,,,,,,,,,,,,,,,,,,,,,,,,,,,,,,,,,,,,,,,,,,,,,,,,,,,,,,,,,,,,,,,,,,,
1739354269.534529,1739354269.534953,21.000000,0.000000,4282.436035,4261.794922,4313.974121,4297.179688,4252.307617,4249.871582,4232.563965,4248.077148,4252.051270,4239.615234,4549.743652,4475.000000,4392.948730,4450.000000,0.000000,1.000000,18.000000,,,,0.000000,4.000000,4.000000,4.000000,4.000000,4.000000,4.000000,4.000000,4.000000,4.000000,4.000000,4.000000,4.000000,4.000000,4.000000,100.000000,,,,,,,,,,,,,,,,,,,,,,,,,,,,,,,,,,,,,,,,,,,,,,,,,,,,,,,,,,,,,,,,,,,,,,,,,,,,,,,,,,,,,,,,,,,,,,,,,,,,,,,,,,,,,,,,,,,,,,,,,,,,,,,,,
1739354269.542337,1739354269.542861,22.000000,0.000000,4291.025879,4268.846191,4322.307617,4307.563965,4260.769043,4258.846191,4241.666504,4237.307617,4247.563965,4250.384766,4556.794922,4477.692383,4393.974121,4459.871582,0.000000,1.000000,18.000000,,,,0.000000,4.000000,4.000000,4.000000,4.000000,4.000000,4.000000,4.000000,4.000000,4.000000,4.000000,4.000000,4.000000,4.000000,4.000000,100.000000,,,,,,,,,,,,,,,,,,,,,,,,,,,,,,,,,,,,,,,,,,,,,,,,,,,,,,,,,,,,,,,,,,,,,,,,,,,,,,,,,,,,,,,,,,,,,,,,,,,,,,,,,,,,,,,,,,,,,,,,,,,,,,,,,
1739354269.550145,1739354269.550669,23.000000,0.000000,4298.846191,4276.794922,4324.230957,4319.743652,4270.000000,4264.615234,4248.461426,4233.333496,4247.436035,4252.692383,4558.077148,4480.256348,4395.512695,4466.025879,0.000000,1.000000,18.000000,,,,0.000000,4.000000,4.000000,4.000000,4.000000,4.000000,4.000000,4.000000,4.000000,4.000000,4.000000,4.000000,4.000000,4.000000,4.000000,100.000000,,,,,,,,,,,,,,,,,,,,,,,,,,,,,,,,,,,,,,,,,,,,,,,,,,,,,,,,,,,,,,,,,,,,,,,,,,,,,,,,,,,,,,,,,,,,,,,,,,,,,,,,,,,,,,,,,,,,,,,,,,,,,,,,,
1739354269.557953,1739354269.558577,24.000000,0.000000,4296.538574,4270.897461,4317.179688,4316.666504,4271.538574,4265.769043,4247.948730,4224.615234,4251.666504,4245.384766,4552.179688,4474.615234,4391.282227,4456.794922,0.000000,1.000000,18.000000,,,,0.000000,4.000000,4.000000,4.000000,4.000000,4.000000,4.000000,4.000000,4.000000,4.000000,4.000000,4.000000,4.000000,4.000000,4.000000,100.000000,,,,,,,,,,,,,,,,,6.000000,0.000000,0.197703,0.591125,-0.356140,0.696167,0.971310,-0.274936,0.052252,-39.808697,-27.093803,45.237522,,,,,,,,,,,,,,,,,,,,,,,,,,,,,,,,,,,,,,,,,,,,,,,,,,,,,,,,,,,,,,,,,,,,,,,,,,,,,,,,,,,,,,,,,,,,,,,,,,,,,
1739354269.565761,1739354269.566386,25.000000,0.000000,4282.692383,4257.563965,4306.538574,4303.205078,4260.769043,4258.846191,4239.102539,4199.615234,4243.205078,4233.077148,4530.769043,4453.846191,4379.487305,4434.871582,0.000000,1.000000,18.000000,,,,0.000000,4.000000,4.000000,4.000000,4.000000,4.000000,4.000000,4.000000,4.000000,4.000000,4.000000,4.000000,4.000000,4.000000,4.000000,100.000000,,,,,,,,,,,,,,,,,,,,,,,,,,,,,,,,,,,,,,,,,,,,,,,,,,,,,,,,,,,,,,,,,,,,,,,,,,,,,,,,,,,,,,,,,,,,,,,,,,,,,,,,,,,,,,,,,,,,,,,,,,,,,,,,,
1739354269.573569,1739354269.574294,26.000000,0.000000,4277.307617,4256.794922,4305.769043,4298.717773,4250.256348,4252.692383,4236.538574,4196.794922,4236.794922,4227.563965,4519.871582,4447.820313,4377.307617,4430.897461,0.000000,1.000000,18.000000,,,,0.000000,4.000000,4.000000,4.000000,4.000000,4.000000,4.000000,4.000000,4.000000,4.000000,4.000000,4.000000,4.000000,4.000000,4.000000,100.000000,,,,,,,,,,,,,,,,,,,,,,,,,,,,,,,,,,,,,,,,,,,,,,,,,,,,,,,,,,,,4.389432,1.606013,2.446139,0.712064,0.403853,5.597703,1.849690,1.685801,0.633327,0.374476,1.556658,1.353693,2.234080,0.607043,0.397962,1.539864,1.459936,2.553013,0.499312,0.379205,4.159185,1.292772,0.997446,0.758207,0.693718,3.303232,1.604955,0.298164,0.339113,0.447839,2.464489,1.696579,0.680458,0.448102,0.478737,1.353398,0.675262,0.610559,0.276509,0.213357,2.727108,1.804118,1.440028,0.556792,0.390047,4.801013,2.408793,2.937540,0.804518,0.741649,13.102793,5.862097,1.732107,0.681226,0.642537,5.399776,2.474374,3.267268,0.957638,0.577013,2.996287,1.609967,1.615362,0.498963,0.463752,3.193287,1.718972,2.640477,0.762015,0.418000
1739354269.581378,1739354269.582102,27.000000,0.000000,4289.615234,4262.563965,4315.512695,4303.974121,4254.743652,4255.128418,4243.974121,4242.307617,4247.436035,4239.615234,4550.256348,4476.410156,4398.717773,4454.358887,0.000000,1.000000,18.000000,,,,0.000000,4.000000,4.000000,4.000000,4.000000,4.000000,4.000000,4.000000,4.000000,4.000000,4.000000,4.000000,4.000000,4.000000,4.000000,100.000000,,,,,,,,,,,,,,,,,,,,,,,,,,,,,,,,,,,,,,,,,,,,,,,,,,,,,,,,,,,,,,,,,,,,,,,,,,,,,,,,,,,,,,,,,,,,,,,,,,,,,,,,,,,,,,,,,,,,,,,,,,,,,,,,,
1739354269.589186,1739354269.590010,28.000000,0.000000,4295.256348,4264.871582,4317.692383,4303.205078,4262.307617,4253.589844,4243.589844,4280.897461,4255.256348,4250.769043,4580.641113,4495.769043,4417.307617,4469.743652,0.000000,1.000000,18.000000,,,,0.000000,4.000000,4.000000,4.000000,4.000000,4.000000,4.000000,4.000000,4.000000,4.000000,4.000000,4.000000,4.000000,4.000000,4.000000,100.000000,,,,,,,,,,,,,,,,,7.000000,0.000000,0.197714,0.591553,-0.356140,0.695801,0.957148,-0.261751,0.040044,-39.677826,-27.217756,45.263767,,,,,,,,,,,,,,,,,,,,,,,,,,,,,,,,,,,,,,,,,,,,,,,,,,,,,,,,,,,,,,,,,,,,,,,,,,,,,,,,,,,,,,,,,,,,,,,,,,,,,
1739354269.596994,1739354269.597818,29.000000,0.000000,4287.820313,4266.794922,4314.743652,4301.410156,4259.615234,4245.897461,4233.077148,4281.794922,4249.230957,4250.512695,4579.743652,4488.205078,4411.666504,4466.153809,0.000000,1.000000,18.000000,,,,0.000000,4.000000,4.000000,4.000000,4.000000,4.000000,4.000000,4.000000,4.000000,4.000000,4.000000,4.000000,4.000000,4.000000,4.000000,100.000000,,,,,,,,,,,,,,,,,,,,,,,,,,,,,,,,,,,,,,,,,,,,,,,,,,,,,,,,,,,,,,,,,,,,,,,,,,,,,,,,,,,,,,,,,,,,,,,,,,,,,,,,,,,,,,,,,,,,,,,,,,,,,,,,,
1739354269.604802,1739354269.605726,30.000000,0.000000,4286.025879,4267.051270,4318.974121,4306.538574,4254.615234,4244.102539,4230.512695,4279.487305,4247.948730,4243.717773,4573.333496,4485.128418,4404.487305,4465.384766,0.000000,1.000000,18.000000,,,,0.000000,4.000000,4.000000,4.000000,4.000000,4.000000,4.000000,4.000000,4.000000,4.000000,4.000000,4.000000,4.000000,4.000000,4.000000,100.000000,,,,,,,,,,,,,,,,,,,,,,,,,,,,,,,,,,,,,,,,,,,,,,,,,,,,,,,,,,,,,,,,,,,,,,,,,,,,,,,,,,,,,,,,,,,,,,,,,,,,,,,,,,,,,,,,,,,,,,,,,,,,,,,,,
1739354269.612610,1739354269.613534,31.000000,0.000000,4283.589844,4262.692383,4317.051270,4300.897461,4249.615234,4239.615234,4233.205078,4279.102539,4248.846191,4235.000000,4574.487305,4483.461426,4403.461426,4463.333496,0.000000,1.000000,18.000000,,,,0.000000,4.000000,4.000000,4.000000,4.000000,4.000000,4.000000,4.000000,4.000000,4.000000,4.000000,4.000000,4.000000,4.000000,4.000000,100.000000,,,,,,,,,,,,,,,,,,,,,,,,,,,,,,,,,,,,,,,,,,,,,,,,,,,,,,,,,,,,,,,,,,,,,,,,,,,,,,,,,,,,,,,,,,,,,,,,,,,,,,,,,,,,,,,,,,,,,,,,,,,,,,,,,
1739354269.620418,1739354269.621442,32.000000,0.000000,4277.307617,4259.102539,4307.051270,4292.436035,4248.077148,4231.282227,4227.692383,4266.538574,4241.410156,4228.846191,4569.230957,4470.769043,4392.948730,4452.307617,0.000000,1.000000,18.000000,,,,0.000000,4.000000,4.000000,4.000000,4.000000,4.000000,4.000000,4.000000,4.000000,4.000000,4.000000,4.000000,4.000000,4.000000,4.000000,100.000000,,,,,,,,,,,,,,,,,8.000000,0.000000,0.197944,0.592163,-0.355713,0.695435,0.960078,-0.255891,0.047857,-39.710045,-27.279314,45.270725,,,,,,,,,,,,,,,,,,,,,,,,,,,,,,,,,,,,,,,,,,,,,,,,,,,,,,,,,,,,,,,,,,,,,,,,,,,,,,,,,,,,,,,,,,,,,,,,,,,,,
1739354269.628226,1739354269.629250,33.000000,0.000000,4279.358887,4264.230957,4309.230957,4303.205078,4257.948730,4239.743652,4230.769043,4266.153809,4240.384766,4228.077148,4566.025879,4473.589844,4387.307617,4455.384766,0.000000,1.000000,18.000000,,,,0.000000,4.000000,4.000000,4.000000,4.000000,4.000000,4.000000,4.000000,4.000000,4.000000,4.000000,4.000000,4.000000,4.000000,4.000000,100.000000,,,,,,,,,,,,,,,,,,,,,,,,,,,,,,,,,,,,,,,,,,,,,,,,,,,,,,,,,,,,,,,,,,,,,,,,,,,,,,,,,,,,,,,,,,,,,,,,,,,,,,,,,,,,,,,,,,,,,,,,,,,,,,,,,
1739354269.636034,1739354269.636958,34.000000,0.000000,4283.846191,4266.025879,4315.256348,4311.666504,4265.769043,4250.769043,4242.307617,4272.051270,4246.666504,4236.282227,4573.717773,4483.846191,4393.589844,4465.512695,0.000000,1.000000,18.000000,,,,0.000000,4.000000,4.000000,4.000000,4.000000,4.000000,4.000000,4.000000,4.000000,4.000000,4.000000,4.000000,4.000000,4.000000,4.000000,100.000000,,,,,,,,,,,,,,,,,,,,,,,,,,,,,,,,,,,,,,,,,,,,,,,,,,,,,,,,,,,,,,,,,,,,,,,,,,,,,,,,,,,,,,,,,,,,,,,,,,,,,,,,,,,,,,,,,,,,,,,,,,,,,,,,,
1739354269.643842,1739354269.644766,35.000000,0.000000,4279.615234,4260.128418,4307.179688,4301.025879,4261.538574,4248.333496,4246.538574,4265.000000,4243.589844,4238.205078,4578.717773,4475.384766,4392.179688,4458.846191,0.000000,1.000000,18.000000,,,,0.000000,4.000000,4.000000,4.000000,4.000000,4.000000,4.000000,4.000000,4.000000,4.000000,4.000000,4.000000,4.000000,4.000000,4.000000,100.000000,,,,,,,,,,,,,,,,,,,,,,,,,,,,,,,,,,,,,,,,,,,,,,,,,,,,,,,,,,,,,,,,,,,,,,,,,,,,,,,,,,,,,,,,,,,,,,,,,,,,,,,,,,,,,,,,,,,,,,,,,,,,,,,,,
1739354269.651650,1739354269.652474,36.000000,0.000000,4277.436035,4260.000000,4305.256348,4302.436035,4259.871582,4249.358887,4247.307617,4267.307617,4238.974121,4232.179688,4584.615234,4475.641113,4386.666504,4457.051270,0.000000,1.000000,18.000000,,,,0.000000,4.000000,4.000000,4.000000,4.000000,4.000000,4.000000,4.000000,4.000000,4.000000,4.000000,4.000000,4.000000,4.000000,4.000000,100.000000,,,,,,,,,,,,,,,,,9.000000,0.000000,0.198290,0.592407,-0.355591,0.695190,0.972287,-0.257844,0.042486,-39.555706,-27.284716,45.193653,,,,,,,,,,,,,,,,,,,,,,,,,,,,,,,,,,,,,,,,,,,,,,,,,,,,,,,,,,,,,,,,,,,,,,,,,,,,,,,,,,,,,,,,,,,,,,,,,,,,,
1739354269.659458,1739354269.660382,37.000000,0.000000,4281.025879,4267.820313,4312.948730,4313.461426,4263.077148,4250.641113,4248.333496,4277.820313,4243.205078,4235.128418,4591.538574,4488.717773,4388.589844,4465.256348,0.000000,1.000000,18.000000,,,,0.000000,4.000000,4.000000,4.000000,4.000000,4.000000,4.000000,4.000000,4.000000,4.000000,4.000000,4.000000,4.000000,4.000000,4.000000,100.000000,,,,,,,,,,,,,,,,,,,,,,,,,,,,,,,,,,,,,,,,,,,,,,,,,,,,,,,,,,,,,,,,,,,,,,,,,,,,,,,,,,,,,,,,,,,,,,,,,,,,,,,,,,,,,,,,,,,,,,,,,,,,,,,,,
1739354269.667266,1739354269.668190,38.000000,0.000000,4284.487305,4273.461426,4315.000000,4311.794922,4265.128418,4246.922852,4247.563965,4276.794922,4247.820313,4244.615234,4602.307617,4490.769043,4393.333496,4466.538574,0.000000,1.000000,18.000000,,,,0.000000,4.000000,4.000000,4.000000,4.000000,4.000000,4.000000,4.000000,4.000000,4.000000,4.000000,4.000000,4.000000,4.000000,4.000000,100.000000,,,,,,,,,,,,,,,,,,,,,,,,,,,,,,,,,,,,,,,,,,,,,,,,,,,,,,,,,,,,,,,,,,,,,,,,,,,,,,,,,,,,,,,,,,,,,,,,,,,,,,,,,,,,,,,,,,,,,,,,,,,,,,,,,
1739354269.675074,1739354269.676098,39.000000,0.000000,4293.077148,4279.102539,4319.102539,4313.974121,4266.538574,4251.410156,4245.256348,4275.769043,4255.000000,4250.128418,4618.589844,4494.743652,4398.846191,4467.307617,0.000000,1.000000,18.000000,,,,0.000000,4.000000,4.000000,4.000000,4.000000,4.000000,4.000000,4.000000,4.000000,4.000000,4.000000,4.000000,4.000000,4.000000,4.000000,100.000000,,,,,,,,,,,,,,,,,,,,,,,,,,,,,,,,,,,,,,,,,,,,,,,,,,,,,,,,,,,,,,,,,,,,,,,,,,,,,,,,,,,,,,,,,,,,,,,,,,,,,,,,,,,,,,,,,,,,,,,,,,,,,,,,,
1739354269.682882,1739354269.683907,40.000000,0.000000,4314.615234,4298.846191,4337.563965,4334.743652,4282.820313,4262.948730,4253.205078,4280.897461,4271.794922,4262.563965,4638.589844,4521.153809,4412.307617,4480.384766,0.000000,1.000000,18.000000,,,,0.000000,4.000000,4.000000,4.000000,4.000000,4.000000,4.000000,4.000000,4.000000,4.000000,4.000000,4.000000,4.000000,4.000000,4.000000,100.000000,,,,,,,,,,,,,,,,,10.000000,0.000000,0.198276,0.592590,-0.355652,0.695007,0.962520,-0.257356,0.048834,-39.550137,-27.422911,45.207619,,,,,,,,,,,,,,,,,,,,,,,,,,,,,,,,,,,,,,,,,,,,,,,,,,,,,,,,,,,,,,,,,,,,,,,,,,,,,,,,,,,,,,,,,,,,,,,,,,,,,
1739354269.690691,1739354269.691715,41.000000,0.000000,4328.717773,4313.333496,4348.589844,4349.358887,4303.205078,4265.000000,4257.051270,4271.282227,4277.563965,4271.538574,4648.974121,4535.769043,4416.666504,4487.820313,0.000000,1.000000,18.000000,,,,0.000000,4.000000,4.000000,4.000000,4.000000,4.000000,4.000000,4.000000,4.000000,4.000000,4.000000,4.000000,4.000000,4.000000,4.000000,100.000000,,,,,,,,,,,,,,,,,,,,,,,,,,,,,,,,,,,,,,,,,,,,,,,,,,,,,,,,,,,,,,,,,,,,,,,,,,,,,,,,,,,,,,,,,,,,,,,,,,,,,,,,,,,,,,,,,,,,,,,,,,,,,,,,,
1739354269.698499,1739354269.699423,42.000000,0.000000,4321.153809,4306.794922,4343.589844,4342.948730,4298.717773,4258.589844,4247.563965,4257.436035,4263.333496,4262.692383,4636.025879,4523.717773,4401.666504,4478.205078,0.000000,1.000000,18.000000,,,,0.000000,4.000000,4.000000,4.000000,4.000000,4.000000,4.000000,4.000000,4.000000,4.000000,4.000000,4.000000,4.000000,4.000000,4.000000,100.000000,,,,,,,,,,,,,,,,,,,,,,,,,,,,,,,,,,,,,,,,,,,,,,,,,,,,,,,,,,,,3.486944,1.495189,2.154698,0.647465,0.355221,4.338388,1.717907,1.495444,0.610299,0.344249,1.000848,1.254399,1.902886,0.544806,0.361430,1.254532,1.422235,2.362958,0.454818,0.356194,3.489387,0.990335,0.958126,0.738163,0.656239,2.657723,1.276664,0.315350,0.316389,0.428194,1.949381,1.259196,0.649754,0.398589,0.479025,1.726520,0.806649,0.835145,0.257744,0.192532,2.366598,1.582583,1.560598,0.511733,0.381649,3.514486,1.977387,2.933957,0.734890,0.703982,12.024330,6.008103,2.019981,0.628495,0.572615,3.839339,2.309222,3.029592,0.844945,0.488409,2.633622,1.379309,1.602324,0.440201,0.422668,3.055613,1.710714,2.316734,0.667365,0.355729
1739354269.706307,1739354269.707231,43.000000,0.000000,4318.589844,4305.256348,4347.563965,4338.333496,4287.820313,4258.589844,4251.282227,4270.512695,4262.307617,4267.820313,4636.025879,4528.461426,4400.769043,4482.179688,0.000000,1.000000,18.000000,,,,0.000000,4.000000,4.000000,4.000000,4.000000,4.000000,4.000000,4.000000,4.000000,4.000000,4.000000,4.000000,4.000000,4.000000,4.000000,100.000000,,,,,,,,,,,,,,,,,,,,,,,,,,,,,,,,,,,,,,,,,,,,,,,,,,,,,,,,,,,,,,,,,,,,,,,,,,,,,,,,,,,,,,,,,,,,,,,,,,,,,,,,,,,,,,,,,,,,,,,,,,,,,,,,,
1739354269.714115,1739354269.714939,44.000000,0.000000,4331.282227,4315.641113,4357.051270,4345.000000,4296.025879,4267.563965,4267.820313,4298.077148,4279.358887,4286.282227,4664.615234,4546.538574,4418.077148,4500.897461,0.000000,1.000000,18.000000,,,,0.000000,4.000000,4.000000,4.000000,4.000000,4.000000,4.000000,4.000000,4.000000,4.000000,4.000000,4.000000,4.000000,4.000000,4.000000,100.000000,,,,,,,,,,,,,,,,,11.000000,0.000000,0.198355,0.592957,-0.355713,0.694641,0.951288,-0.260774,0.043951,-39.545120,-27.547287,45.270191,,,,,,,,,,,,,,,,,,,,,,,,,,,,,,,,,,,,,,,,,,,,,,,,,,,,,,,,,,,,,,,,,,,,,,,,,,,,,,,,,,,,,,,,,,,,,,,,,,,,,
1739354269.721923,1739354269.722747,45.000000,0.000000,4327.436035,4312.051270,4350.128418,4343.077148,4299.102539,4271.666504,4270.128418,4306.025879,4282.692383,4282.948730,4673.333496,4541.538574,4416.410156,4497.563965,0.000000,1.000000,18.000000,,,,0.000000,4.000000,4.000000,4.000000,4.000000,4.000000,4.000000,4.000000,4.000000,4.000000,4.000000,4.000000,4.000000,4.000000,4.000000,100.000000,,,,,,,,,,,,,,,,,,,,,,,,,,,,,,,,,,,,,,,,,,,,,,,,,,,,,,,,,,,,,,,,,,,,,,,,,,,,,,,,,,,,,,,,,,,,,,,,,,,,,,,,,,,,,,,,,,,,,,,,,,,,,,,,,
1739354269.729731,1739354269.730455,46.000000,0.000000,4309.487305,4300.769043,4339.743652,4334.871582,4291.538574,4270.897461,4266.922852,4301.282227,4274.102539,4273.717773,4659.743652,4529.487305,4400.769043,4486.282227,0.000000,1.000000,18.000000,,,,0.000000,4.000000,4.000000,4.000000,4.000000,4.000000,4.000000,4.000000,4.000000,4.000000,4.000000,4.000000,4.000000,4.000000,4.000000,100.000000,,,,,,,,,,,,,,,,,,,,,,,,,,,,,,,,,,,,,,,,,,,,,,,,,,,,,,,,,,,,,,,,,,,,,,,,,,,,,,,,,,,,,,,,,,,,,,,,,,,,,,,,,,,,,,,,,,,,,,,,,,,,,,,,,
1739354269.737539,1739354269.738263,47.000000,0.000000,4312.563965,4306.153809,4345.641113,4341.794922,4297.307617,4278.461426,4278.205078,4305.512695,4277.436035,4281.282227,4669.102539,4539.230957,4403.846191,4497.179688,0.000000,1.000000,18.000000,,,,0.000000,4.000000,4.000000,4.000000,4.000000,4.000000,4.000000,4.000000,4.000000,4.000000,4.000000,4.000000,4.000000,4.000000,4.000000,100.000000,,,,,,,,,,,,,,,,,,,,,,,,,,,,,,,,,,,,,,,,,,,,,,,,,,,,,,,,,,,,,,,,,,,,,,,,,,,,,,,,,,,,,,,,,,,,,,,,,,,,,,,,,,,,,,,,,,,,,,,,,,,,,,,,,
1739354269.745347,1739354269.745971,48.000000,0.000000,4315.384766,4303.077148,4343.846191,4344.871582,4296.538574,4279.871582,4277.948730,4303.846191,4273.846191,4276.538574,4673.717773,4537.948730,4403.974121,4496.666504,0.000000,1.000000,18.000000,,,,0.000000,4.000000,4.000000,4.000000,4.000000,4.000000,4.000000,4.000000,4.000000,4.000000,4.000000,4.000000,4.000000,4.000000,4.000000,100.000000,,,,,,,,,,,,,,,,,12.000000,0.000000,0.198328,0.593323,-0.355713,0.694336,0.953241,-0.254426,0.038579,-39.673943,-27.575891,45.276505,,,,,,,,,,,,,,,,,,,,,,,,,,,,,,,,,,,,,,,,,,,,,,,,,,,,,,,,,,,,,,,,,,,,,,,,,,,,,,,,,,,,,,,,,,,,,,,,,,,,,
1739354269.753155,1739354269.753779,49.000000,0.000000,4296.794922,4282.307617,4326.666504,4327.307617,4277.436035,4265.512695,4262.179688,4292.179688,4259.487305,4267.436035,4652.436035,4517.563965,4391.538574,4474.230957,0.000000,1.000000,18.000000,,,,0.000000,4.000000,4.000000,4.000000,4.000000,4.000000,4.000000,4.000000,4.000000,4.000000,4.000000,4.000000,4.000000,4.000000,4.000000,100.000000,,,,,,,,,,,,,,,,,,,,,,,,,,,,,,,,,,,,,,,,,,,,,,,,,,,,,,,,,,,,,,,,,,,,,,,,,,,,,,,,,,,,,,,,,,,,,,,,,,,,,,,,,,,,,,,,,,,,,,,,,,,,,,,,,
1739354269.760963,1739354269.761487,50.000000,0.000000,4300.769043,4286.666504,4332.820313,4327.436035,4277.051270,4264.615234,4263.974121,4292.436035,4269.487305,4287.948730,4656.666504,4529.615234,4401.794922,4484.487305,0.000000,1.000000,18.000000,,,,0.000000,4.000000,4.000000,4.000000,4.000000,4.000000,4.000000,4.000000,4.000000,4.000000,4.000000,4.000000,4.000000,4.000000,4.000000,100.000000,,,,,,,,,,,,,,,,,,,,,,,,,,,,,,,,,,,,,,,,,,,,,,,,,,,,,,,,,,,,,,,,,,,,,,,,,,,,,,,,,,,,,,,,,,,,,,,,,,,,,,,,,,,,,,,,,,,,,,,,,,,,,,,,,
1739354269.768771,1739354269.769395,51.000000,0.000000,4314.230957,4297.692383,4342.436035,4340.128418,4283.461426,4273.589844,4264.615234,4296.666504,4278.846191,4291.538574,4662.436035,4540.897461,4409.358887,4503.333496,0.000000,1.000000,18.000000,,,,0.000000,4.000000,4.000000,4.000000,4.000000,4.000000,4.000000,4.000000,4.000000,4.000000,4.000000,4.000000,4.000000,4.000000,4.000000,100.000000,,,,,,,,,,,,,,,,,,,,,,,,,,,,,,,,,,,,,,,,,,,,,,,,,,,,,,,,,,,,,,,,,,,,,,,,,,,,,,,,,,,,,,,,,,,,,,,,,,,,,,,,,,,,,,,,,,,,,,,,,,,,,,,,,
1739354269.776580,1739354269.777203,52.000000,0.000000,4300.000000,4282.436035,4327.692383,4332.179688,4272.436035,4264.871582,4251.538574,4288.846191,4260.384766,4262.563965,4637.051270,4517.051270,4394.230957,4485.897461,0.000000,1.000000,18.000000,,,,0.000000,4.000000,4.000000,4.000000,4.000000,4.000000,4.000000,4.000000,4.000000,4.000000,4.000000,4.000000,4.000000,4.000000,4.000000,100.000000,,,,,,,,,,,,,,,,,13.000000,0.000000,0.198967,0.593506,-0.355408,0.694153,0.962031,-0.250519,0.044439,-39.856548,-27.568302,45.182190,,,,,,,,,,,,,,,,,,,,,,,,,,,,,,,,,,,,,,,,,,,,,,,,,,,,,,,,,,,,,,,,,,,,,,,,,,,,,,,,,,,,,,,,,,,,,,,,,,,,,
1739354269.784387,1739354269.785111,53.000000,0.000000,4290.512695,4279.615234,4320.384766,4328.205078,4269.102539,4256.153809,4250.512695,4284.743652,4255.769043,4257.179688,4623.846191,4509.871582,4392.179688,4475.512695,0.000000,1.000000,18.000000,,,,0.000000,4.000000,4.000000,4.000000,4.000000,4.000000,4.000000,4.000000,4.000000,4.000000,4.000000,4.000000,4.000000,4.000000,4.000000,100.000000,,,,,,,,,,,,,,,,,,,,,,,,,,,,,,,,,,,,,,,,,,,,,,,,,,,,,,,,,,,,,,,,,,,,,,,,,,,,,,,,,,,,,,,,,,,,,,,,,,,,,,,,,,,,,,,,,,,,,,,,,,,,,,,,,
1739354269.792196,1739354269.792920,54.000000,0.000000,4299.743652,4294.871582,4327.436035,4338.974121,4279.230957,4263.461426,4257.692383,4290.000000,4267.307617,4269.487305,4626.794922,4524.871582,4402.179688,4487.179688,0.000000,1.000000,18.000000,,,,0.000000,4.000000,4.000000,4.000000,4.000000,4.000000,4.000000,4.000000,4.000000,4.000000,4.000000,4.000000,4.000000,4.000000,4.000000,100.000000,,,,,,,,,,,,,,,,,,,,,,,,,,,,,,,,,,,,,,,,,,,,,,,,,,,,,,,,,,,,,,,,,,,,,,,,,,,,,,,,,,,,,,,,,,,,,,,,,,,,,,,,,,,,,,,,,,,,,,,,,,,,,,,,,
1739354269.800004,1739354269.800828,55.000000,0.000000,4300.769043,4291.410156,4326.794922,4339.871582,4283.205078,4266.410156,4252.692383,4291.025879,4261.410156,4267.307617,4610.897461,4520.000000,4400.256348,4488.974121,0.000000,1.000000,18.000000,,,,0.000000,4.000000,4.000000,4.000000,4.000000,4.000000,4.000000,4.000000,4.000000,4.000000,4.000000,4.000000,4.000000,4.000000,4.000000,100.000000,,,,,,,,,,,,,,,,,,,,,,,,,,,,,,,,,,,,,,,,,,,,,,,,,,,,,,,,,,,,,,,,,,,,,,,,,,,,,,,,,,,,,,,,,,,,,,,,,,,,,,,,,,,,,,,,,,,,,,,,,,,,,,,,,
1739354269.807812,1739354269.808736,56.000000,0.000000,4307.948730,4292.307617,4330.897461,4344.487305,4286.922852,4264.230957,4255.256348,4294.743652,4264.487305,4273.589844,4602.692383,4524.358887,4405.897461,4495.512695,0.000000,1.000000,18.000000,,,,0.000000,4.000000,4.000000,4.000000,4.000000,4.000000,4.000000,4.000000,4.000000,4.000000,4.000000,4.000000,4.000000,4.000000,4.000000,100.000000,,,,,,,,,,,,,,,,,14.000000,0.000000,0.199216,0.593567,-0.355286,0.694092,0.962031,-0.258332,0.040532,-39.804226,-27.611473,45.097301,,,,,,,,,,,,,,,,,,,,,,,,,,,,,,,,,,,,,,,,,,,,,,,,,,,,,,,,,,,,,,,,,,,,,,,,,,,,,,,,,,,,,,,,,,,,,,,,,,,,,
1739354269.815620,1739354269.816544,57.000000,0.000000,4319.743652,4307.692383,4339.743652,4356.410156,4292.051270,4268.077148,4269.743652,4301.153809,4285.512695,4290.256348,4608.461426,4545.769043,4422.948730,4507.179688,0.000000,1.000000,18.000000,,,,0.000000,4.000000,4.000000,4.000000,4.000000,4.000000,4.000000,4.000000,4.000000,4.000000,4.000000,4.000000,4.000000,4.000000,4.000000,100.000000,,,,,,,,,,,,,,,,,,,,,,,,,,,,,,,,,,,,,,,,,,,,,,,,,,,,,,,,,,,,,,,,,,,,,,,,,,,,,,,,,,,,,,,,,,,,,,,,,,,,,,,,,,,,,,,,,,,,,,,,,,,,,,,,,
1739354269.823428,1739354269.824352,58.000000,0.000000,4296.153809,4290.897461,4318.717773,4337.820313,4279.102539,4263.461426,4258.717773,4287.948730,4275.000000,4278.589844,4572.563965,4521.922852,4410.641113,4484.871582,0.000000,1.000000,18.000000,,,,0.000000,4.000000,4.000000,4.000000,4.000000,4.000000,4.000000,4.000000,4.000000,4.000000,4.000000,4.000000,4.000000,4.000000,4.000000,100.000000,,,,,,,,,,,,,,,,,,,,,,,,,,,,,,,,,,,,,,,,,,,,,,,,,,,,,,,,,,,,2.594102,1.488308,1.688966,0.597949,0.305647,3.136324,1.579778,1.174621,0.571967,0.326943,0.707718,1.216600,1.507826,0.491116,0.316072,0.933367,1.332976,1.953063,0.411188,0.334053,2.885017,0.719794,0.830994,0.690591,0.618498,2.074995,0.957768,0.351186,0.292365,0.399481,1.585511,0.931356,0.607239,0.351912,0.465984,2.616681,1.045203,1.119718,0.267310,0.176692,2.126999,1.456815,1.620356,0.492867,0.365325,2.356151,1.756436,2.774908,0.717926,0.661032,10.300374,6.273093,2.428860,0.626681,0.494312,2.612330,2.205375,2.624205,0.784739,0.409478,2.406416,1.241644,1.502809,0.405273,0.366627,3.333735,1.854490,1.936385,0.600087,0.296638
1739354269.831236,1739354269.832060,59.000000,0.000000,4282.307617,4277.307617,4304.358887,4325.256348,4273.333496,4259.871582,4246.666504,4276.153809,4259.615234,4270.384766,4530.256348,4496.410156,4394.615234,4467.179688,0.000000,1.000000,18.000000,,,,0.000000,4.000000,4.000000,4.000000,4.000000,4.000000,4.000000,4.000000,4.000000,4.000000,4.000000,4.000000,4.000000,4.000000,4.000000,100.000000,,,,,,,,,,,,,,,,,,,,,,,,,,,,,,,,,,,,,,,,,,,,,,,,,,,,,,,,,,,,,,,,,,,,,,,,,,,,,,,,,,,,,,,,,,,,,,,,,,,,,,,,,,,,,,,,,,,,,,,,,,,,,,,,,
1739354269.839044,1739354269.839868,60.000000,0.000000,4318.333496,4312.307617,4334.487305,4363.589844,4298.077148,4274.615234,4268.717773,4291.410156,4278.589844,4297.820313,4540.769043,4534.487305,4416.410156,4499.102539,0.000000,1.000000,18.000000,,,,0.000000,4.000000,4.000000,4.000000,4.000000,4.000000,4.000000,4.000000,4.000000,4.000000,4.000000,4.000000,4.000000,4.000000,4.000000,100.000000,,,,,,,,,,,,,,,,,15.000000,0.000000,0.199792,0.593445,-0.355286,0.694031,0.951776,-0.254914,0.056648,-39.823803,-27.550325,45.004238,,,,,,,,,,,,,,,,,,,,,,,,,,,,,,,,,,,,,,,,,,,,,,,,,,,,,,,,,,,,,,,,,,,,,,,,,,,,,,,,,,,,,,,,,,,,,,,,,,,,,
1739354269.846852,1739354269.847576,61.000000,0.000000,4341.282227,4334.102539,4356.538574,4390.128418,4314.102539,4284.358887,4281.922852,4301.025879,4290.641113,4312.692383,4549.230957,4564.487305,4437.051270,4521.922852,0.000000,1.000000,18.000000,,,,0.000000,4.000000,4.000000,4.000000,4.000000,4.000000,4.000000,4.000000,4.000000,4.000000,4.000000,4.000000,4.000000,4.000000,4.000000,100.000000,,,,,,,,,,,,,,,,,,,,,,,,,,,,,,,,,,,,,,,,,,,,,,,,,,,,,,,,,,,,,,,,,,,,,,,,,,,,,,,,,,,,,,,,,,,,,,,,,,,,,,,,,,,,,,,,,,,,,,,,,,,,,,,,,
1739354269.854660,1739354269.855384,62.000000,0.000000,4326.153809,4314.615234,4342.307617,4370.512695,4308.846191,4277.179688,4266.666504,4289.487305,4277.692383,4296.410156,4513.717773,4543.205078,4425.384766,4505.256348,0.000000,1.000000,18.000000,,,,0.000000,4.000000,4.000000,4.000000,4.000000,4.000000,4.000000,4.000000,4.000000,4.000000,4.000000,4.000000,4.000000,4.000000,4.000000,100.000000,,,,,,,,,,,,,,,,,,,,,,,,,,,,,,,,,,,,,,,,,,,,,,,,,,,,,,,,,,,,,,,,,,,,,,,,,,,,,,,,,,,,,,,,,,,,,,,,,,,,,,,,,,,,,,,,,,,,,,,,,,,,,,,,,
1739354269.862468,1739354269.863092,63.000000,0.000000,4313.974121,4301.666504,4331.025879,4358.974121,4307.051270,4276.410156,4257.307617,4282.179688,4274.358887,4286.666504,4478.846191,4526.538574,4410.384766,4493.589844,0.000000,1.000000,18.000000,,,,0.000000,4.000000,4.000000,4.000000,4.000000,4.000000,4.000000,4.000000,4.000000,4.000000,4.000000,4.000000,4.000000,4.000000,4.000000,100.000000,,,,,,,,,,,,,,,,,,,,,,,,,,,,,,,,,,,,,,,,,,,,,,,,,,,,,,,,,,,,,,,,,,,,,,,,,,,,,,,,,,,,,,,,,,,,,,,,,,,,,,,,,,,,,,,,,,,,,,,,,,,,,,,,,
1739354269.870276,1739354269.870900,64.000000,0.000000,4322.436035,4312.563965,4340.128418,4376.410156,4311.666504,4282.307617,4263.461426,4285.000000,4279.487305,4295.512695,4472.051270,4537.436035,4417.692383,4505.128418,5088.000000,1.000000,18.000000,,,,0.000000,4.000000,4.000000,4.000000,4.000000,4.000000,4.000000,4.000000,4.000000,4.000000,4.000000,4.000000,4.000000,4.000000,4.000000,100.000000,,,,,,,,,,,,,,,,,16.000000,0.000000,0.200804,0.593140,-0.355225,0.694031,0.979612,-0.248565,0.056159,-39.874756,-27.528625,45.087151,,,,,,,,,,,,,,,,,,,,,,,,,,,,,,,,,,,,,,,,,,,,,,,,,,,,,,,,,,,,,,,,,,,,,,,,,,,,,,,,,,,,,,,,,,,,,,,,,,,,,
1739354269.878085,1739354269.878609,65.000000,0.000000,4334.487305,4324.230957,4345.512695,4390.256348,4307.820313,4279.743652,4267.692383,4285.512695,4278.846191,4304.230957,4468.461426,4546.153809,4428.717773,4514.743652,5442.000000,1.000000,18.000000,,,,0.000000,4.000000,4.000000,4.000000,4.000000,4.000000,4.000000,4.000000,4.000000,4.000000,4.000000,4.000000,4.000000,4.000000,4.000000,100.000000,,,,,,,,,,,,,,,,,,,,,,,,,,,,,,,,,,,,,,,,,,,,,,,,,,,,,,,,,,,,,,,,,,,,,,,,,,,,,,,,,,,,,,,,,,,,,,,,,,,,,,,,,,,,,,,,,,,,,,,,,,,,,,,,,
1739354269.885893,1739354269.886416,66.000000,0.000000,4343.461426,4335.256348,4349.102539,4397.307617,4307.820313,4281.538574,4277.051270,4288.717773,4284.615234,4307.051270,4454.358887,4552.179688,4430.384766,4518.846191,5459.000000,1.000000,18.000000,,,,0.000000,4.000000,4.000000,4.000000,4.000000,4.000000,4.000000,4.000000,4.000000,4.000000,4.000000,4.000000,4.000000,4.000000,4.000000,100.000000,,,,,,,,,,,,,,,,,,,,,,,,,,,,,,,,,,,,,,,,,,,,,,,,,,,,,,,,,,,,,,,,,,,,,,,,,,,,,,,,,,,,,,,,,,,,,,,,,,,,,,,,,,,,,,,,,,,,,,,,,,,,,,,,,
1739354269.893700,1739354269.894125,67.000000,0.000000,4344.743652,4340.128418,4354.615234,4406.794922,4316.794922,4289.230957,4283.333496,4296.025879,4292.051270,4306.025879,4434.871582,4562.307617,4430.641113,4520.000000,5354.000000,1.000000,18.000000,,,,0.000000,4.000000,4.000000,4.000000,4.000000,4.000000,4.000000,4.000000,4.000000,4.000000,4.000000,4.000000,4.000000,4.000000,4.000000,100.000000,,,,,,,,,,,,,,,,,,,,,,,,,,,,,,,,,,,,,,,,,,,,,,,,,,,,,,,,,,,,,,,,,,,,,,,,,,,,,,,,,,,,,,,,,,,,,,,,,,,,,,,,,,,,,,,,,,,,,,,,,,,,,,,,,
1739354269.901509,1739354269.901933,68.000000,0.000000,4344.102539,4337.051270,4355.897461,4409.743652,4321.025879,4291.410156,4280.000000,4298.717773,4295.128418,4310.512695,4431.794922,4566.025879,4436.922852,4516.538574,5322.000000,1.000000,18.000000,,,,0.000000,4.000000,4.000000,4.000000,4.000000,4.000000,4.000000,4.000000,4.000000,4.000000,4.000000,4.000000,4.000000,4.000000,4.000000,100.000000,,,,,,,,,,,,,,,,,17.000000,0.000000,0.201323,0.592896,-0.354980,0.694214,0.965450,-0.251496,0.051764,-39.887280,-27.475763,45.111767,,,,,,,,,,,,,,,,,,,,,,,,,,,,,,,,,,,,,,,,,,,,,,,,,,,,,,,,,,,,,,,,,,,,,,,,,,,,,,,,,,,,,,,,,,,,,,,,,,,,,
1739354269.909317,1739354269.909641,69.000000,0.000000,4357.179688,4344.871582,4364.487305,4414.743652,4325.256348,4294.102539,4286.282227,4298.974121,4307.307617,4328.205078,4448.461426,4573.077148,4448.333496,4520.256348,5360.000000,1.000000,18.000000,,,,0.000000,4.000000,4.000000,4.000000,4.000000,4.000000,4.000000,4.000000,4.000000,4.000000,4.000000,4.000000,4.000000,4.000000,4.000000,100.000000,,,,,,,,,,,,,,,,,,,,,,,,,,,,,,,,,,,,,,,,,,,,,,,,,,,,,,,,,,,,,,,,,,,,,,,,,,,,,,,,,,,,,,,,,,,,,,,,,,,,,,,,,,,,,,,,,,,,,,,,,,,,,,,,,
1739354269.917125,1739354269.917449,70.000000,0.000000,4368.333496,4353.461426,4376.153809,4421.538574,4330.641113,4298.974121,4293.846191,4299.487305,4315.000000,4331.666504,4448.589844,4582.051270,4445.897461,4526.153809,5323.000000,1.000000,18.000000,,,,0.000000,4.000000,4.000000,4.000000,4.000000,4.000000,4.000000,4.000000,4.000000,4.000000,4.000000,4.000000,4.000000,4.000000,4.000000,100.000000,,,,,,,,,,,,,,,,,,,,,,,,,,,,,,,,,,,,,,,,,,,,,,,,,,,,,,,,,,,,,,,,,,,,,,,,,,,,,,,,,,,,,,,,,,,,,,,,,,,,,,,,,,,,,,,,,,,,,,,,,,,,,,,,,
1739354269.924933,1739354269.925157,71.000000,0.000000,4365.897461,4355.000000,4377.820313,4418.974121,4332.948730,4300.000000,4293.589844,4299.358887,4305.769043,4321.666504,4437.692383,4583.461426,4435.384766,4528.589844,3365.000000,1.000000,18.000000,,,,0.000000,4.000000,4.000000,4.000000,4.000000,4.000000,4.000000,4.000000,4.000000,4.000000,4.000000,4.000000,4.000000,4.000000,4.000000,100.000000,,,,,,,,,,,,,,,,,,,,,,,,,,,,,,,,,,,,,,,,,,,,,,,,,,,,,,,,,,,,,,,,,,,,,,,,,,,,,,,,,,,,,,,,,,,,,,,,,,,,,,,,,,,,,,,,,,,,,,,,,,,,,,,,,
1739354269.932741,1739354269.932965,72.000000,0.000000,4359.230957,4351.025879,4370.641113,4409.871582,4327.820313,4298.846191,4291.794922,4296.153809,4295.128418,4324.743652,4440.512695,4576.538574,4435.897461,4527.948730,5103.000000,1.000000,18.000000,,,,0.000000,4.000000,4.000000,4.000000,4.000000,4.000000,4.000000,4.000000,4.000000,4.000000,4.000000,4.000000,4.000000,4.000000,4.000000,100.000000,,,,,,,,,,,,,,,,,18.000000,0.000000,0.201329,0.592712,-0.355164,0.694275,0.985472,-0.250519,0.051276,-39.831886,-27.394854,44.950592,,,,,,,,,,,,,,,,,,,,,,,,,,,,,,,,,,,,,,,,,,,,,,,,,,,,,,,,,,,,,,,,,,,,,,,,,,,,,,,,,,,,,,,,,,,,,,,,,,,,,
1739354269.940549,1739354269.940673,73.000000,0.000000,4359.102539,4344.615234,4366.153809,4403.461426,4325.897461,4297.307617,4289.230957,4293.846191,4293.077148,4328.205078,4441.666504,4569.358887,4434.871582,4524.743652,5440.000000,1.000000,18.000000,,,,0.000000,4.000000,4.000000,4.000000,4.000000,4.000000,4.000000,4.000000,4.000000,4.000000,4.000000,4.000000,4.000000,4.000000,4.000000,100.000000,,,,,,,,,,,,,,,,,,,,,,,,,,,,,,,,,,,,,,,,,,,,,,,,,,,,,,,,,,,,,,,,,,,,,,,,,,,,,,,,,,,,,,,,,,,,,,,,,,,,,,,,,,,,,,,,,,,,,,,,,,,,,,,,,
1739354269.948357,1739354269.948481,74.000000,0.000000,4366.794922,4345.512695,4374.743652,4405.512695,4337.436035,4297.436035,4291.153809,4296.922852,4297.307617,4318.205078,4444.615234,4575.256348,4431.538574,4525.512695,4983.000000,1.000000,18.000000,,,,0.000000,4.000000,4.000000,4.000000,4.000000,4.000000,4.000000,4.000000,4.000000,4.000000,4.000000,4.000000,4.000000,4.000000,4.000000,100.000000,1.000000,91.666664,4.000000,4.000000,4.000000,4.000000,4.000000,4.000000,4.000000,4.000000,4.000000,4.000000,3.000000,4.000000,4.000000,4.000000,,,,,,,,,,,,,,,,,,,,,,,,,,,,,,,,,,,,,,,,,,,,1.963243,1.603616,1.217091,0.564570,0.264633,2.237198,1.521681,0.845568,0.512329,0.319932,0.613548,1.232351,1.155445,0.441396,0.270559,0.723861,1.241676,1.475581,0.368611,0.315084,2.439418,0.551575,0.676268,0.625010,0.579153,1.609782,0.738814,0.401502,0.272200,0.363221,1.347540,0.796529,0.569181,0.314519,0.437088,3.936663,1.462199,1.465315,0.327625,0.170452,2.037936,1.424538,1.612179,0.507414,0.346370,1.528793,1.703248,2.529936,0.755664,0.613891,8.328890,6.453594,2.928676,0.682233,0.428311,1.881468,2.139732,2.199518,0.773157,0.351595,2.345478,1.226503,1.374115,0.391258,0.305993,3.769507,2.031194,1.609759,0.557846,0.253398
1739354269.956165,1739354269.956189,75.000000,0.000000,4364.871582,4349.615234,4377.563965,4405.256348,4341.282227,4297.820313,4292.307617,4296.794922,4295.128418,4308.717773,4454.102539,4575.897461,4431.794922,4521.025879,5399.000000,1.000000,18.000000,,,,0.000000,4.000000,4.000000,4.000000,4.000000,4.000000,4.000000,4.000000,4.000000,4.000000,4.000000,4.000000,4.000000,4.000000,4.000000,100.000000,,,,,,,,,,,,,,,,,,,,,,,,,,,,,,,,,,,,,,,,,,,,,,,,,,,,,,,,,,,,,,,,,,,,,,,,,,,,,,,,,,,,,,,,,,,,,,,,,,,,,,,,,,,,,,,,,,,,,,,,,,,,,,,,,
1739354269.963973,1739354269.964097,76.000000,0.000000,4348.846191,4339.743652,4362.563965,4392.692383,4323.974121,4292.563965,4282.948730,4290.512695,4284.743652,4304.615234,4456.794922,4560.769043,4426.282227,4507.051270,5637.000000,1.000000,18.000000,,,,0.000000,4.000000,4.000000,4.000000,4.000000,4.000000,4.000000,4.000000,4.000000,4.000000,4.000000,4.000000,4.000000,4.000000,4.000000,100.000000,,,,,,,,,,,,,,,,,19.000000,0.000000,0.201473,0.592590,-0.355286,0.694275,0.957636,-0.242705,0.057624,-39.732033,-27.405369,44.972198,,,,,,,,,,,,,,,,,,,,,,,,,,,,,,,,,,,,,,,,,,,,,,,,,,,,,,,,,,,,,,,,,,,,,,,,,,,,,,,,,,,,,,,,,,,,,,,,,,,,,
1739354269.971781,1739354269.971905,77.000000,0.000000,4346.025879,4330.641113,4355.256348,4383.717773,4309.615234,4289.487305,4279.871582,4287.948730,4286.025879,4300.769043,4458.205078,4554.615234,4418.974121,4503.974121,6758.000000,1.000000,18.000000,,,,0.000000,4.000000,4.000000,4.000000,4.000000,4.000000,4.000000,4.000000,4.000000,4.000000,4.000000,4.000000,4.000000,4.000000,4.000000,100.000000,,,,,,,,,,,,,,,,,,,,,,,,,,,,,,,,,,,,,,,,,,,,,,,,,,,,,,,,,,,,,,,,,,,,,,,,,,,,,,,,,,,,,,,,,,,,,,,,,,,,,,,,,,,,,,,,,,,,,,,,,,,,,,,,,
1739354269.979589,1739354269.979813,78.000000,0.000000,4359.102539,4339.743652,4365.384766,4391.153809,4317.051270,4297.820313,4296.410156,4292.692383,4295.384766,4303.077148,4473.077148,4565.000000,4424.358887,4516.153809,4983.000000,1.000000,18.000000,,,,0.000000,4.000000,4.000000,4.000000,4.000000,4.000000,4.000000,4.000000,4.000000,4.000000,4.000000,4.000000,4.000000,4.000000,4.000000,100.000000,,,,,,,,,,,,,,,,,,,,,,,,,,,,,,,,,,,,,,,,,,,,,,,,,,,,,,,,,,,,,,,,,,,,,,,,,,,,,,,,,,,,,,,,,,,,,,,,,,,,,,,,,,,,,,,,,,,,,,,,,,,,,,,,,
1739354269.987398,1739354269.987621,79.000000,0.000000,4363.974121,4347.820313,4371.025879,4399.743652,4334.743652,4304.487305,4307.948730,4297.051270,4297.051270,4307.051270,4489.743652,4571.153809,4434.615234,4517.692383,5399.000000,1.000000,18.000000,,,,0.000000,4.000000,4.000000,4.000000,4.000000,4.000000,4.000000,4.000000,4.000000,4.000000,4.000000,4.000000,4.000000,4.000000,4.000000,100.000000,,,,,,,,,,,,,,,,,,,,,,,,,,,,,,,,,,,,,,,,,,,,,,,,,,,,,,,,,,,,,,,,,,,,,,,,,,,,,,,,,,,,,,,,,,,,,,,,,,,,,,,,,,,,,,,,,,,,,,,,,,,,,,,,,
1739354269.995206,1739354269.995529,80.000000,0.000000,4356.410156,4342.948730,4365.000000,4392.436035,4336.153809,4301.410156,4302.563965,4297.179688,4295.384766,4300.769043,4492.436035,4563.205078,4427.692383,4505.512695,5637.000000,1.000000,18.000000,,,,0.000000,4.000000,4.000000,4.000000,4.000000,4.000000,4.000000,4.000000,4.000000,4.000000,4.000000,4.000000,4.000000,4.000000,4.000000,100.000000,,,,,,,,,,,,,,,,,20.000000,0.000000,0.201544,0.592529,-0.355347,0.694275,0.961055,-0.253937,0.052252,-39.725494,-27.464832,45.024979,,,,,,,,,,,,,,,,,,,,,,,,,,,,,,,,,,,,,,,,,,,,,,,,,,,,,,,,,,,,,,,,,,,,,,,,,,,,,,,,,,,,,,,,,,,,,,,,,,,,,
1739354270.003014,1739354270.003337,81.000000,0.000000,4347.179688,4329.743652,4355.384766,4376.922852,4316.538574,4294.871582,4294.487305,4295.641113,4292.051270,4289.487305,4488.461426,4549.230957,4413.461426,4495.256348,6758.000000,1.000000,18.000000,,,,0.000000,4.000000,4.000000,4.000000,4.000000,4.000000,4.000000,4.000000,4.000000,4.000000,4.000000,4.000000,4.000000,4.000000,4.000000,100.000000,,,,,,,,,,,,,,,,,,,,,,,,,,,,,,,,,,,,,,,,,,,,,,,,,,,,,,,,,,,,,,,,,,,,,,,,,,,,,,,,,,,,,,,,,,,,,,,,,,,,,,,,,,,,,,,,,,,,,,,,,,,,,,,,,
1739354270.010822,1739354270.011245,82.000000,0.000000,4336.794922,4314.871582,4346.666504,4366.282227,4303.846191,4290.256348,4291.666504,4289.743652,4278.461426,4279.487305,4484.487305,4536.666504,4405.384766,4486.410156,4983.000000,1.000000,18.000000,,,,0.000000,4.000000,4.000000,4.000000,4.000000,4.000000,4.000000,4.000000,4.000000,4.000000,4.000000,4.000000,4.000000,4.000000,4.000000,100.000000,,,,,,,,,,,,,,,,,,,,,,,,,,,,,,,,,,,,,,,,,,,,,,,,,,,,,,,,,,,,,,,,,,,,,,,,,,,,,,,,,,,,,,,,,,,,,,,,,,,,,,,,,,,,,,,,,,,,,,,,,,,,,,,,,
1739354270.018630,1739354270.019053,83.000000,0.000000,4335.000000,4313.846191,4349.615234,4372.563965,4315.128418,4300.769043,4304.230957,4289.358887,4274.871582,4278.974121,4490.897461,4540.897461,4409.358887,4484.487305,5399.000000,1.000000,18.000000,,,,0.000000,4.000000,4.000000,4.000000,4.000000,4.000000,4.000000,4.000000,4.000000,4.000000,4.000000,4.000000,4.000000,4.000000,4.000000,100.000000,,,,,,,,,,,,,,,,,,,,,,,,,,,,,,,,,,,,,,,,,,,,,,,,,,,,,,,,,,,,,,,,,,,,,,,,,,,,,,,,,,,,,,,,,,,,,,,,,,,,,,,,,,,,,,,,,,,,,,,,,,,,,,,,,
1739354270.026438,1739354270.026761,84.000000,0.000000,4356.666504,4337.051270,4373.717773,4401.025879,4339.230957,4328.974121,4336.922852,4308.974121,4302.563965,4306.922852,4515.000000,4570.256348,4434.102539,4503.846191,5637.000000,1.000000,18.000000,,,,0.000000,4.000000,4.000000,4.000000,4.000000,4.000000,4.000000,4.000000,4.000000,4.000000,4.000000,4.000000,4.000000,4.000000,4.000000,100.000000,,,,,,,,,,,,,,,,,21.000000,0.000000,0.201406,0.592468,-0.355408,0.694336,0.970822,-0.264681,0.042974,-39.786278,-27.535015,44.889149,,,,,,,,,,,,,,,,,,,,,,,,,,,,,,,,,,,,,,,,,,,,,,,,,,,,,,,,,,,,,,,,,,,,,,,,,,,,,,,,,,,,,,,,,,,,,,,,,,,,,
1739354270.034246,1739354270.034569,85.000000,0.000000,4372.307617,4353.077148,4386.153809,4414.487305,4347.948730,4337.820313,4355.256348,4321.153809,4318.846191,4325.512695,4530.256348,4584.230957,4447.948730,4520.512695,6758.000000,1.000000,18.000000,,,,0.000000,4.000000,4.000000,4.000000,4.000000,4.000000,4.000000,4.000000,4.000000,4.000000,4.000000,4.000000,4.000000,4.000000,4.000000,100.000000,,,,,,,,,,,,,,,,,,,,,,,,,,,,,,,,,,,,,,,,,,,,,,,,,,,,,,,,,,,,,,,,,,,,,,,,,,,,,,,,,,,,,,,,,,,,,,,,,,,,,,,,,,,,,,,,,,,,,,,,,,,,,,,,,
1739354270.042054,1739354270.042277,86.000000,0.000000,4358.077148,4336.794922,4368.974121,4395.128418,4327.948730,4318.077148,4341.538574,4307.179688,4296.410156,4300.256348,4511.410156,4561.922852,4426.282227,4510.512695,4983.000000,1.000000,18.000000,,,,0.000000,4.000000,4.000000,4.000000,4.000000,4.000000,4.000000,4.000000,4.000000,4.000000,4.000000,4.000000,4.000000,4.000000,4.000000,100.000000,,,,,,,,,,,,,,,,,,,,,,,,,,,,,,,,,,,,,,,,,,,,,,,,,,,,,,,,,,,,,,,,,,,,,,,,,,,,,,,,,,,,,,,,,,,,,,,,,,,,,,,,,,,,,,,,,,,,,,,,,,,,,,,,,
1739354270.049862,1739354270.050085,87.000000,0.000000,4347.948730,4326.153809,4358.333496,4384.871582,4320.641113,4313.974121,4333.846191,4299.102539,4280.128418,4279.358887,4485.000000,4549.743652,4411.794922,4501.922852,5399.000000,1.000000,18.000000,,,,0.000000,4.000000,4.000000,4.000000,4.000000,4.000000,4.000000,4.000000,4.000000,4.000000,4.000000,4.000000,4.000000,4.000000,4.000000,100.000000,,,,,,,,,,,,,,,,,,,,,,,,,,,,,,,,,,,,,,,,,,,,,,,,,,,,,,,,,,,,,,,,,,,,,,,,,,,,,,,,,,,,,,,,,,,,,,,,,,,,,,,,,,,,,,,,,,,,,,,,,,,,,,,,,
1739354270.057670,1739354270.057793,88.000000,0.000000,4368.589844,4346.922852,4377.692383,4407.436035,4346.666504,4332.307617,4352.051270,4309.358887,4294.358887,4301.666504,4498.461426,4572.948730,4434.487305,4517.436035,5637.000000,1.000000,18.000000,,,,0.000000,4.000000,4.000000,4.000000,4.000000,4.000000,4.000000,4.000000,4.000000,4.000000,4.000000,4.000000,4.000000,4.000000,4.000000,100.000000,,,,,,,,,,,,,,,,,22.000000,0.000000,0.201483,0.592407,-0.355347,0.694397,0.977658,-0.257844,0.042974,-39.740986,-27.531513,44.833565,,,,,,,,,,,,,,,,,,,,,,,,,,,,,,,,,,,,,,,,,,,,,,,,,,,,,,,,,,,,,,,,,,,,,,,,,,,,,,,,,,,,,,,,,,,,,,,,,,,,,
1739354270.065478,1739354270.065601,89.000000,0.000000,4390.897461,4366.282227,4398.589844,4427.820313,4360.897461,4340.897461,4367.179688,4319.358887,4315.769043,4331.538574,4529.230957,4597.948730,4454.358887,4533.589844,6758.000000,1.000000,18.000000,,,,0.000000,4.000000,4.000000,4.000000,4.000000,4.000000,4.000000,4.000000,4.000000,4.000000,4.000000,4.000000,4.000000,4.000000,4.000000,100.000000,,,,,,,,,,,,,,,,,,,,,,,,,,,,,,,,,,,,,,,,,,,,,,,,,,,,,,,,,,,,,,,,,,,,,,,,,,,,,,,,,,,,,,,,,,,,,,,,,,,,,,,,,,,,,,,,,,,,,,,,,,,,,,,,,
1739354270.073286,1739354270.073309,90.000000,0.000000,4387.563965,4358.717773,4394.871582,4420.256348,4347.179688,4338.077148,4367.948730,4321.282227,4324.102539,4332.820313,4531.922852,4596.538574,4449.743652,4530.128418,4983.000000,1.000000,18.000000,,,,0.000000,4.000000,4.000000,4.000000,4.000000,4.000000,4.000000,4.000000,4.000000,4.000000,4.000000,4.000000,4.000000,4.000000,4.000000,100.000000,,,,,,,,,,,,,,,,,,,,,,,,,,,,,,,,,,,,,,,,,,,,,,,,,,,,,,,,,,,,1.798431,1.773817,0.868810,0.542867,0.243958,1.848049,1.550434,0.606421,0.438555,0.322347,0.786911,1.278618,0.912787,0.392435,0.237891,0.779353,1.173591,1.067987,0.331131,0.307789,2.235949,0.488405,0.549952,0.556540,0.535024,1.329939,0.648684,0.450313,0.258267,0.321631,1.237771,0.855546,0.538930,0.287542,0.396254,5.477341,2.089535,1.878831,0.448378,0.178969,2.079322,1.440122,1.521156,0.545758,0.331581,1.186203,1.702773,2.230509,0.832323,0.564737,6.527068,6.323903,3.406644,0.779059,0.396839,1.799507,2.081411,1.861052,0.790187,0.329368,2.407275,1.309984,1.253891,0.392107,0.255837,4.105991,2.130358,1.390950,0.539058,0.240029
1739354270.081094,1739354270.081117,91.000000,0.000000,4390.641113,4357.563965,4393.974121,4420.384766,4346.922852,4341.410156,4377.051270,4325.000000,4330.641113,4335.512695,4535.897461,4598.974121,4457.436035,4533.717773,5399.000000,1.000000,18.000000,,,,0.000000,4.000000,4.000000,4.000000,4.000000,4.000000,4.000000,4.000000,4.000000,4.000000,4.000000,4.000000,4.000000,4.000000,4.000000,100.000000,,,,,,,,,,,,,,,,,,,,,,,,,,,,,,,,,,,,,,,,,,,,,,,,,,,,,,,,,,,,,,,,,,,,,,,,,,,,,,,,,,,,,,,,,,,,,,,,,,,,,,,,,,,,,,,,,,,,,,,,,,,,,,,,,
1739354270.088903,1739354270.088825,92.000000,0.000000,4410.769043,4376.025879,4406.538574,4441.666504,4359.743652,4347.051270,4390.897461,4332.307617,4352.948730,4366.025879,4560.128418,4619.615234,4473.461426,4552.436035,5637.000000,1.000000,18.000000,,,,0.000000,4.000000,4.000000,4.000000,4.000000,4.000000,4.000000,4.000000,4.000000,4.000000,4.000000,4.000000,4.000000,4.000000,4.000000,100.000000,,,,,,,,,,,,,,,,,23.000000,0.000000,0.202087,0.592346,-0.355225,0.694336,0.963985,-0.267122,0.035649,-39.733551,-27.411695,44.816875,,,,,,,,,,,,,,,,,,,,,,,,,,,,,,,,,,,,,,,,,,,,,,,,,,,,,,,,,,,,,,,,,,,,,,,,,,,,,,,,,,,,,,,,,,,,,,,,,,,,,
1739354270.096711,1739354270.096633,93.000000,0.000000,4403.461426,4375.000000,4400.000000,4440.641113,4351.410156,4346.538574,4383.461426,4325.641113,4348.333496,4366.282227,4554.230957,4610.000000,4457.563965,4544.358887,6758.000000,1.000000,18.000000,,,,0.000000,4.000000,4.000000,4.000000,4.000000,4.000000,4.000000,4.000000,4.000000,4.000000,4.000000,4.000000,4.000000,4.000000,4.000000,100.000000,,,,,,,,,,,,,,,,,,,,,,,,,,,,,,,,,,,,,,,,,,,,,,,,,,,,,,,,,,,,,,,,,,,,,,,,,,,,,,,,,,,,,,,,,,,,,,,,,,,,,,,,,,,,,,,,,,,,,,,,,,,,,,,,,
1739354270.104519,1739354270.104341,94.000000,0.000000,4401.410156,4377.820313,4402.051270,4442.692383,4359.230957,4360.512695,4391.025879,4318.974121,4321.282227,4339.487305,4548.846191,4601.922852,4456.410156,4540.769043,4983.000000,1.000000,18.000000,,,,0.000000,4.000000,4.000000,4.000000,4.000000,4.000000,4.000000,4.000000,4.000000,4.000000,4.000000,4.000000,4.000000,4.000000,4.000000,100.000000,,,,,,,,,,,,,,,,,,,,,,,,,,,,,,,,,,,,,,,,,,,,,,,,,,,,,,,,,,,,,,,,,,,,,,,,,,,,,,,,,,,,,,,,,,,,,,,,,,,,,,,,,,,,,,,,,,,,,,,,,,,,,,,,,
1739354270.112327,1739354270.112249,95.000000,0.000000,4447.436035,4414.615234,4438.205078,4484.487305,4398.461426,4384.230957,4430.128418,4333.205078,4339.102539,4359.102539,4590.000000,4642.948730,4498.205078,4577.307617,5399.000000,1.000000,18.000000,,,,0.000000,4.000000,4.000000,4.000000,4.000000,4.000000,4.000000,4.000000,4.000000,4.000000,4.000000,4.000000,4.000000,4.000000,4.000000,100.000000,,,,,,,,,,,,,,,,,,,,,,,,,,,,,,,,,,,,,,,,,,,,,,,,,,,,,,,,,,,,,,,,,,,,,,,,,,,,,,,,,,,,,,,,,,,,,,,,,,,,,,,,,,,,,,,,,,,,,,,,,,,,,,,,,
1739354270.120135,1739354270.120058,96.000000,0.000000,4458.461426,4414.871582,4432.179688,4487.051270,4385.897461,4367.948730,4423.846191,4330.128418,4367.179688,4382.307617,4592.051270,4641.922852,4497.179688,4576.666504,5637.000000,1.000000,18.000000,,,,0.000000,4.000000,4.000000,4.000000,4.000000,4.000000,4.000000,4.000000,4.000000,4.000000,4.000000,4.000000,4.000000,4.000000,4.000000,100.000000,,,,,,,,,,,,,,,,,24.000000,0.000000,0.203361,0.592163,-0.355042,0.694214,0.957636,-0.287633,0.039556,-39.776863,-27.337193,44.768520,,,,,,,,,,,,,,,,,,,,,,,,,,,,,,,,,,,,,,,,,,,,,,,,,,,,,,,,,,,,,,,,,,,,,,,,,,,,,,,,,,,,,,,,,,,,,,,,,,,,,
1739354270.127943,1739354270.127966,97.000000,0.000000,4434.358887,4389.102539,4398.589844,4455.769043,4349.487305,4345.256348,4396.538574,4312.820313,4349.743652,4364.358887,4560.128418,4604.358887,4468.974121,4547.692383,6758.000000,1.000000,18.000000,,,,0.000000,4.000000,4.000000,4.000000,4.000000,4.000000,4.000000,4.000000,4.000000,4.000000,4.000000,4.000000,4.000000,4.000000,4.000000,100.000000,,,,,,,,,,,,,,,,,,,,,,,,,,,,,,,,,,,,,,,,,,,,,,,,,,,,,,,,,,,,,,,,,,,,,,,,,,,,,,,,,,,,,,,,,,,,,,,,,,,,,,,,,,,,,,,,,,,,,,,,,,,,,,,,,
1739354270.135751,1739354270.135774,98.000000,0.000000,4455.641113,4406.153809,4420.641113,4475.897461,4372.051270,4370.000000,4423.717773,4329.102539,4341.025879,4363.846191,4576.410156,4627.436035,4487.051270,4568.205078,4983.000000,1.000000,18.000000,,,,0.000000,4.000000,4.000000,4.000000,4.000000,4.000000,4.000000,4.000000,4.000000,4.000000,4.000000,4.000000,4.000000,4.000000,4.000000,100.000000,,,,,,,,,,,,,,,,,,,,,,,,,,,,,,,,,,,,,,,,,,,,,,,,,,,,,,,,,,,,,,,,,,,,,,,,,,,,,,,,,,,,,,,,,,,,,,,,,,,,,,,,,,,,,,,,,,,,,,,,,,,,,,,,,
1739354270.143559,1739354270.143682,99.000000,0.000000,4485.384766,4424.871582,4447.820313,4503.846191,4397.436035,4396.282227,4458.974121,4349.358887,4362.179688,4384.102539,4598.461426,4655.256348,4504.615234,4589.487305,5399.000000,1.000000,18.000000,,,,0.000000,4.000000,4.000000,4.000000,4.000000,4.000000,4.000000,4.000000,4.000000,4.000000,4.000000,4.000000,4.000000,4.000000,4.000000,100.000000,,,,,,,,,,,,,,,,,,,,,,,,,,,,,,,,,,,,,,,,,,,,,,,,,,,,,,,,,,,,,,,,,,,,,,,,,,,,,,,,,,,,,,,,,,,,,,,,,,,,,,,,,,,,,,,,,,,,,,,,,,,,,,,,,
1739354270.151367,1739354270.151490,100.000000,0.000000,4486.538574,4422.307617,4440.769043,4500.897461,4385.128418,4390.256348,4460.128418,4347.436035,4369.102539,4388.461426,4593.589844,4645.769043,4495.641113,4581.794922,5637.000000,1.000000,18.000000,,,,0.000000,4.000000,4.000000,4.000000,4.000000,4.000000,4.000000,4.000000,4.000000,4.000000,4.000000,4.000000,4.000000,4.000000,4.000000,100.000000,,,,,,,,,,,,,,,,,25.000000,0.000000,0.203999,0.591980,-0.354980,0.694214,0.957148,-0.278843,0.048834,-39.682510,-27.270140,44.725002,,,,,,,,,,,,,,,,,,,,,,,,,,,,,,,,,,,,,,,,,,,,,,,,,,,,,,,,,,,,,,,,,,,,,,,,,,,,,,,,,,,,,,,,,,,,,,,,,,,,,
1739354270.159175,1739354270.159398,101.000000,0.000000,4509.102539,4442.051270,4456.666504,4520.256348,4393.461426,4391.410156,4467.436035,4354.743652,4379.615234,4402.436035,4601.410156,4669.487305,4514.487305,4602.436035,6758.000000,1.000000,18.000000,,,,0.000000,4.000000,4.000000,4.000000,4.000000,4.000000,4.000000,4.000000,4.000000,4.000000,4.000000,4.000000,4.000000,4.000000,4.000000,100.000000,,,,,,,,,,,,,,,,,,,,,,,,,,,,,,,,,,,,,,,,,,,,,,,,,,,,,,,,,,,,,,,,,,,,,,,,,,,,,,,,,,,,,,,,,,,,,,,,,,,,,,,,,,,,,,,,,,,,,,,,,,,,,,,,,
1739354270.166983,1739354270.167207,102.000000,0.000000,4546.794922,4469.230957,4487.307617,4550.897461,4421.794922,4415.000000,4493.077148,4373.077148,4410.128418,4437.820313,4608.205078,4714.743652,4548.461426,4637.436035,4983.000000,1.000000,18.000000,,,,0.000000,4.000000,4.000000,4.000000,4.000000,4.000000,4.000000,4.000000,4.000000,4.000000,4.000000,4.000000,4.000000,4.000000,4.000000,100.000000,,,,,,,,,,,,,,,,,,,,,,,,,,,,,,,,,,,,,,,,,,,,,,,,,,,,,,,,,,,,,,,,,,,,,,,,,,,,,,,,,,,,,,,,,,,,,,,,,,,,,,,,,,,,,,,,,,,,,,,,,,,,,,,,,
1739354270.174791,1739354270.175115,103.000000,0.000000,4558.846191,4472.307617,4490.769043,4556.410156,4427.563965,4427.948730,4507.179688,4373.974121,4420.897461,4448.846191,4586.538574,4722.820313,4552.820313,4646.153809,5399.000000,1.000000,18.000000,,,,0.000000,4.000000,4.000000,4.000000,4.000000,4.000000,4.000000,4.000000,4.000000,4.000000,4.000000,4.000000,4.000000,4.000000,4.000000,100.000000,,,,,,,,,,,,,,,,,,,,,,,,,,,,,,,,,,,,,,,,,,,,,,,,,,,,,,,,,,,,,,,,,,,,,,,,,,,,,,,,,,,,,,,,,,,,,,,,,,,,,,,,,,,,,,,,,,,,,,,,,,,,,,,,,
1739354270.182599,1739354270.182923,104.000000,0.000000,4556.025879,4475.000000,4487.948730,4561.666504,4423.077148,4425.641113,4508.846191,4366.153809,4410.384766,4430.128418,4561.922852,4716.410156,4544.871582,4646.538574,5637.000000,1.000000,18.000000,,,,0.000000,4.000000,4.000000,4.000000,4.000000,4.000000,4.000000,4.000000,4.000000,4.000000,4.000000,4.000000,4.000000,4.000000,4.000000,100.000000,,,,,,,,,,,,,,,,,26.000000,0.000000,0.205551,0.591553,-0.354797,0.694214,0.951776,-0.250031,0.049811,-39.680927,-27.259792,44.635838,,,,,,,,,,,,,,,,,,,,,,,,,,,,,,,,,,,,,,,,,,,,,,,,,,,,,,,,,,,,,,,,,,,,,,,,,,,,,,,,,,,,,,,,,,,,,,,,,,,,,
1739354270.190407,1739354270.190831,105.000000,0.000000,4567.948730,4486.282227,4497.179688,4580.128418,4432.948730,4436.922852,4518.974121,4376.538574,4421.538574,4430.641113,4561.025879,4730.769043,4556.282227,4657.051270,6758.000000,1.000000,18.000000,,,,0.000000,4.000000,4.000000,4.000000,4.000000,4.000000,4.000000,4.000000,4.000000,4.000000,4.000000,4.000000,4.000000,4.000000,4.000000,100.000000,,,,,,,,,,,,,,,,,,,,,,,,,,,,,,,,,,,,,,,,,,,,,,,,,,,,,,,,,,,,,,,,,,,,,,,,,,,,,,,,,,,,,,,,,,,,,,,,,,,,,,,,,,,,,,,,,,,,,,,,,,,,,,,,,
1739354270.198216,1739354270.198639,106.000000,0.000000,4605.897461,4501.794922,4508.461426,4598.589844,4451.538574,4459.358887,4542.563965,4391.538574,4446.025879,4452.179688,4567.948730,4754.358887,4579.615234,4673.589844,4983.000000,1.000000,18.000000,,,,0.000000,4.000000,4.000000,4.000000,4.000000,4.000000,4.000000,4.000000,4.000000,4.000000,4.000000,4.000000,4.000000,4.000000,4.000000,100.000000,,,,,,,,,,,,,,,,,,,,,,,,,,,,,,,,,,,,,,,,,,,,,,,,,,,,,,,,,,,,2.248921,1.909890,0.696074,0.528212,0.255935,2.112495,1.622775,0.496456,0.367239,0.338487,1.296386,1.328313,0.795196,0.347117,0.232033,1.282177,1.142153,0.800075,0.305657,0.324907,2.343307,0.491969,0.482145,0.501007,0.488437,1.273602,0.653431,0.476483,0.250519,0.278028,1.239344,1.036520,0.515174,0.269539,0.352986,6.879718,2.854756,2.337278,0.619967,0.204573,2.228672,1.440515,1.349394,0.586396,0.328700,1.385989,1.639216,1.903984,0.918682,0.523161,5.363445,5.677754,3.719228,0.887445,0.419848,2.312308,2.012930,1.644456,0.816639,0.359433,2.537391,1.428724,1.156241,0.406125,0.233467,4.266710,2.080154,1.269865,0.548165,0.268127
1739354270.206024,1739354270.206547,107.000000,0.000000,4633.846191,4512.051270,4510.384766,4607.692383,4459.358887,4467.307617,4554.230957,4389.487305,4441.025879,4451.282227,4555.000000,4755.512695,4583.974121,4681.794922,5399.000000,1.000000,18.000000,,,,0.000000,4.000000,4.000000,4.000000,4.000000,4.000000,4.000000,4.000000,4.000000,4.000000,4.000000,4.000000,4.000000,4.000000,4.000000,100.000000,,,,,,,,,,,,,,,,,,,,,,,,,,,,,,,,,,,,,,,,,,,,,,,,,,,,,,,,,,,,,,,,,,,,,,,,,,,,,,,,,,,,,,,,,,,,,,,,,,,,,,,,,,,,,,,,,,,,,,,,,,,,,,,,,
1739354270.213832,1739354270.214355,108.000000,0.000000,4629.487305,4507.948730,4504.743652,4607.692383,4455.384766,4470.769043,4552.563965,4386.666504,4432.307617,4438.461426,4538.846191,4742.307617,4575.641113,4679.102539,5637.000000,1.000000,18.000000,,,,0.000000,4.000000,4.000000,4.000000,4.000000,4.000000,4.000000,4.000000,4.000000,4.000000,4.000000,4.000000,4.000000,4.000000,4.000000,100.000000,,,,,,,,,,,,,,,,,27.000000,0.000000,0.206912,0.591187,-0.354736,0.694153,0.966427,-0.239775,0.052741,-39.579502,-27.133814,44.705585,,,,,,,,,,,,,,,,,,,,,,,,,,,,,,,,,,,,,,,,,,,,,,,,,,,,,,,,,,,,,,,,,,,,,,,,,,,,,,,,,,,,,,,,,,,,,,,,,,,,,
