title:Yousef Rihani1739354487554, start timestamp:1739354488.941580, stop timestamp:1739354551.866886, headset type:EPOCX, headset serial:E50208A5, headset firmware:720, channels:168, sampling rate:eeg_128;mot_32;pm_0.1;pow_8, samples:8060      , version:2.2, 
Timestamp,OriginalTimestamp,EEG.Counter,EEG.Interpolated,EEG.AF3,EEG.F7,EEG.F3,EEG.FC5,EEG.T7,EEG.P7,EEG.O1,EEG.O2,EEG.P8,EEG.T8,EEG.FC6,EEG.F4,EEG.F8,EEG.AF4,EEG.RawCq,EEG.Battery,EEG.BatteryPercent,MarkerIndex,MarkerType,MarkerValueInt,EEG.MarkerHardware,CQ.AF3,CQ.F7,CQ.F3,CQ.FC5,CQ.T7,CQ.P7,CQ.O1,CQ.O2,CQ.P8,CQ.T8,CQ.FC6,CQ.F4,CQ.F8,CQ.AF4,CQ.Overall,EQ.SampleRateQuality,EQ.OVERALL,EQ.AF3,EQ.F7,EQ.F3,EQ.FC5,EQ.T7,EQ.P7,EQ.O1,EQ.O2,EQ.P8,EQ.T8,EQ.FC6,EQ.F4,EQ.F8,EQ.AF4,MOT.CounterMems,MOT.InterpolatedMems,MOT.Q0,MOT.Q1,MOT.Q2,MOT.Q3,MOT.AccX,MOT.AccY,MOT.AccZ,MOT.MagX,MOT.MagY,MOT.MagZ,PM.Attention.IsActive,PM.Attention.Scaled,PM.Attention.Raw,PM.Attention.Min,PM.Attention.Max,PM.Engagement.IsActive,PM.Engagement.Scaled,PM.Engagement.Raw,PM.Engagement.Min,PM.Engagement.Max,PM.Excitement.IsActive,PM.Excitement.Scaled,PM.Excitement.Raw,PM.Excitement.Min,PM.Excitement.Max,PM.LongTermExcitement,PM.Stress.IsActive,PM.Stress.Scaled,PM.Stress.Raw,PM.Stress.Min,PM.Stress.Max,PM.Relaxation.IsActive,PM.Relaxation.Scaled,PM.Relaxation.Raw,PM.Relaxation.Min,PM.Relaxation.Max,PM.Interest.IsActive,PM.Interest.Scaled,PM.Interest.Raw,PM.Interest.Min,PM.Interest.Max,POW.AF3.Theta,POW.AF3.Alpha,POW.AF3.BetaL,POW.AF3.BetaH,POW.AF3.Gamma,POW.F7.Theta,POW.F7.Alpha,POW.F7.BetaL,POW.F7.BetaH,POW.F7.Gamma,POW.F3.Theta,POW.F3.Alpha,POW.F3.BetaL,POW.F3.BetaH,POW.F3.Gamma,POW.FC5.Theta,POW.FC5.Alpha,POW.FC5.BetaL,POW.FC5.BetaH,POW.FC5.Gamma,POW.T7.Theta,POW.T7.Alpha,POW.T7.BetaL,POW.T7.BetaH,POW.T7.Gamma,POW.P7.Theta,POW.P7.Alpha,POW.P7.BetaL,POW.P7.BetaH,POW.P7.Gamma,POW.O1.Theta,POW.O1.Alpha,POW.O1.BetaL,POW.O1.BetaH,POW.O1.Gamma,POW.O2.Theta,POW.O2.Alpha,POW.O2.BetaL,POW.O2.BetaH,POW.O2.Gamma,POW.P8.Theta,POW.P8.Alpha,POW.P8.BetaL,POW.P8.BetaH,POW.P8.Gamma,POW.T8.Theta,POW.T8.Alpha,POW.T8.BetaL,POW.T8.BetaH,POW.T8.Gamma,POW.FC6.Theta,POW.FC6.Alpha,POW.FC6.BetaL,POW.FC6.BetaH,POW.FC6.Gamma,POW.F4.Theta,POW.F4.Alpha,POW.F4.BetaL,POW.F4.BetaH,POW.F4.Gamma,POW.F8.Theta,POW.F8.Alpha,POW.F8.BetaL,POW.F8.BetaH,POW.F8.Gamma,POW.AF4.Theta,POW.AF4.Alpha,POW.AF4.BetaL,POW.AF4.BetaH,POW.AF4.Gamma
1739354488.941580,1739354488.941780,89.000000,0.000000,4512.692383,4540.384766,4594.230957,4583.077148,4540.128418,4607.179688,4524.487305,4427.948730,4496.794922,4493.333496,4293.974121,4806.153809,4632.563965,4600.769043,6412.000000,1.000000,17.000000,,,,0.000000,4.000000,4.000000,4.000000,4.000000,4.000000,4.000000,4.000000,4.000000,4.000000,4.000000,4.000000,4.000000,4.000000,4.000000,100.000000,,,,,,,,,,,,,,,,,,,,,,,,,,,,,,,,,,,,,,,,,,,,,,,,,,,,,,,,,,,,,,,,,,,,,,,,,,,,,,,,,,,,,,,,,,,,,,,,,,,,,,,,,,,,,,,,,,,,,,,,,,,,,,,,,
1739354488.949388,1739354488.949688,90.000000,0.000000,4480.256348,4507.692383,4568.333496,4552.692383,4519.487305,4588.461426,4508.205078,4423.205078,4471.025879,4466.410156,4270.641113,4774.102539,4609.743652,4579.102539,4884.000000,1.000000,17.000000,,,,0.000000,4.000000,4.000000,4.000000,4.000000,4.000000,4.000000,4.000000,4.000000,4.000000,4.000000,4.000000,4.000000,4.000000,4.000000,100.000000,,,,,,,,,,,,,,,,,,,,,,,,,,,,,,,,,,,,,,,,,,,,,,,,,,,,,,,,,,,,73.887344,14.497668,1.901136,1.481371,2.450856,69.224800,11.395902,1.492575,1.161291,2.161930,53.135986,9.921865,1.463914,1.275629,2.270252,166.931381,13.978994,1.698282,1.463550,2.597284,63.029171,11.498173,1.532846,1.087964,1.878488,67.394524,12.841801,1.711347,1.003721,2.168723,64.734222,12.457848,2.158019,1.132592,2.419156,9.596784,2.076436,0.480394,0.319620,0.694150,52.753899,9.800494,1.144664,1.057322,2.378225,70.131058,12.058427,1.629092,1.055570,3.188939,243.413971,27.754253,6.261971,2.131977,2.845134,81.432411,14.814592,2.199757,1.831280,3.667717,39.670010,9.570787,1.614688,0.894815,2.311687,46.197884,10.925106,1.521305,1.089913,2.404784
1739354488.957196,1739354488.957496,91.000000,0.000000,4452.563965,4481.538574,4542.307617,4525.256348,4499.102539,4567.692383,4489.358887,4425.641113,4455.128418,4445.769043,4258.717773,4748.461426,4594.487305,4561.282227,5327.000000,1.000000,17.000000,,,,0.000000,4.000000,4.000000,4.000000,4.000000,4.000000,4.000000,4.000000,4.000000,4.000000,4.000000,4.000000,4.000000,4.000000,4.000000,100.000000,,,,,,,,,,,,,,,,,,,,,,,,,,,,,,,,,,,,,,,,,,,,,,,,,,,,,,,,,,,,,,,,,,,,,,,,,,,,,,,,,,,,,,,,,,,,,,,,,,,,,,,,,,,,,,,,,,,,,,,,,,,,,,,,,
1739354488.965004,1739354488.965404,92.000000,0.000000,4445.641113,4476.538574,4534.487305,4516.922852,4489.743652,4554.743652,4478.333496,4430.512695,4457.820313,4444.487305,4265.769043,4743.461426,4596.282227,4556.922852,5495.000000,1.000000,17.000000,,,,0.000000,4.000000,4.000000,4.000000,4.000000,4.000000,4.000000,4.000000,4.000000,4.000000,4.000000,4.000000,4.000000,4.000000,4.000000,100.000000,,,,,,,,,,,,,,,,,23.000000,0.000000,0.330504,0.479004,-0.511963,0.631836,0.949823,-0.350140,0.011720,-38.381184,-31.143045,43.100529,,,,,,,,,,,,,,,,,,,,,,,,,,,,,,,,,,,,,,,,,,,,,,,,,,,,,,,,,,,,,,,,,,,,,,,,,,,,,,,,,,,,,,,,,,,,,,,,,,,,,
1739354488.972812,1739354488.973212,93.000000,0.000000,4436.410156,4469.230957,4523.077148,4506.922852,4478.461426,4549.230957,4472.948730,4429.230957,4448.974121,4433.974121,4258.077148,4734.743652,4591.025879,4551.410156,6412.000000,1.000000,17.000000,,,,0.000000,4.000000,4.000000,4.000000,4.000000,4.000000,4.000000,4.000000,4.000000,4.000000,4.000000,4.000000,4.000000,4.000000,4.000000,100.000000,,,,,,,,,,,,,,,,,,,,,,,,,,,,,,,,,,,,,,,,,,,,,,,,,,,,,,,,,,,,,,,,,,,,,,,,,,,,,,,,,,,,,,,,,,,,,,,,,,,,,,,,,,,,,,,,,,,,,,,,,,,,,,,,,
1739354488.980620,1739354488.981120,94.000000,0.000000,4401.538574,4430.384766,4491.666504,4470.897461,4445.384766,4525.384766,4447.563965,4417.179688,4416.538574,4397.436035,4228.589844,4695.512695,4556.538574,4520.000000,4884.000000,1.000000,17.000000,,,,0.000000,4.000000,4.000000,4.000000,4.000000,4.000000,4.000000,4.000000,4.000000,4.000000,4.000000,4.000000,4.000000,4.000000,4.000000,100.000000,,,,,,,,,,,,,,,,,,,,,,,,,,,,,,,,,,,,,,,,,,,,,,,,,,,,,,,,,,,,,,,,,,,,,,,,,,,,,,,,,,,,,,,,,,,,,,,,,,,,,,,,,,,,,,,,,,,,,,,,,,,,,,,,,
1739354488.988428,1739354488.988928,95.000000,0.000000,4381.282227,4407.563965,4479.230957,4452.179688,4423.846191,4499.743652,4423.589844,4412.692383,4403.205078,4381.922852,4222.436035,4673.846191,4542.307617,4503.717773,5327.000000,1.000000,17.000000,,,,0.000000,4.000000,4.000000,4.000000,4.000000,4.000000,4.000000,4.000000,4.000000,4.000000,4.000000,4.000000,4.000000,4.000000,4.000000,100.000000,,,,,,,,,,,,,,,,,,,,,,,,,,,,,,,,,,,,,,,,,,,,,,,,,,,,,,,,,,,,,,,,,,,,,,,,,,,,,,,,,,,,,,,,,,,,,,,,,,,,,,,,,,,,,,,,,,,,,,,,,,,,,,,,,
1739354488.996236,1739354488.996836,96.000000,0.000000,4395.256348,4425.641113,4491.153809,4468.077148,4431.922852,4499.230957,4427.948730,4416.922852,4416.538574,4396.922852,4241.410156,4691.025879,4559.102539,4519.871582,5495.000000,1.000000,17.000000,,,,0.000000,4.000000,4.000000,4.000000,4.000000,4.000000,4.000000,4.000000,4.000000,4.000000,4.000000,4.000000,4.000000,4.000000,4.000000,100.000000,,,,,,,,,,,,,,,,,24.000000,0.000000,0.330318,0.479553,-0.511719,0.631714,0.930289,-0.341350,0.025394,-38.409733,-31.178741,42.990475,,,,,,,,,,,,,,,,,,,,,,,,,,,,,,,,,,,,,,,,,,,,,,,,,,,,,,,,,,,,,,,,,,,,,,,,,,,,,,,,,,,,,,,,,,,,,,,,,,,,,
1739354489.004044,1739354489.004644,97.000000,0.000000,4379.230957,4418.846191,4469.871582,4454.871582,4417.948730,4481.025879,4408.333496,4399.358887,4393.589844,4366.922852,4221.025879,4665.384766,4536.922852,4499.871582,6412.000000,1.000000,17.000000,,,,0.000000,4.000000,4.000000,4.000000,4.000000,4.000000,4.000000,4.000000,4.000000,4.000000,4.000000,4.000000,4.000000,4.000000,4.000000,100.000000,,,,,,,,,,,,,,,,,,,,,,,,,,,,,,,,,,,,,,,,,,,,,,,,,,,,,,,,,,,,,,,,,,,,,,,,,,,,,,,,,,,,,,,,,,,,,,,,,,,,,,,,,,,,,,,,,,,,,,,,,,,,,,,,,
1739354489.011853,1739354489.012552,98.000000,0.000000,4343.974121,4390.256348,4444.230957,4428.717773,4390.256348,4450.769043,4373.077148,4387.179688,4359.230957,4322.179688,4192.563965,4625.384766,4502.820313,4467.307617,4884.000000,1.000000,17.000000,,,,0.000000,4.000000,4.000000,4.000000,4.000000,4.000000,4.000000,4.000000,4.000000,4.000000,4.000000,4.000000,4.000000,4.000000,4.000000,100.000000,,,,,,,,,,,,,,,,,,,,,,,,,,,,,,,,,,,,,,,,,,,,,,,,,,,,,,,,,,,,,,,,,,,,,,,,,,,,,,,,,,,,,,,,,,,,,,,,,,,,,,,,,,,,,,,,,,,,,,,,,,,,,,,,,
1739354489.019661,1739354489.020360,99.000000,0.000000,4350.641113,4391.922852,4457.179688,4438.461426,4395.256348,4455.897461,4380.512695,4402.436035,4367.179688,4332.051270,4208.589844,4640.769043,4512.307617,4480.641113,5327.000000,1.000000,17.000000,,,,0.000000,4.000000,4.000000,4.000000,4.000000,4.000000,4.000000,4.000000,4.000000,4.000000,4.000000,4.000000,4.000000,4.000000,4.000000,100.000000,,,,,,,,,,,,,,,,,,,,,,,,,,,,,,,,,,,,,,,,,,,,,,,,,,,,,,,,,,,,,,,,,,,,,,,,,,,,,,,,,,,,,,,,,,,,,,,,,,,,,,,,,,,,,,,,,,,,,,,,,,,,,,,,,
1739354489.027469,1739354489.028068,100.000000,0.000000,4361.153809,4397.179688,4461.794922,4445.000000,4405.897461,4466.666504,4394.102539,4406.410156,4375.897461,4342.307617,4219.615234,4652.692383,4520.128418,4491.922852,5495.000000,1.000000,17.000000,,,,0.000000,4.000000,4.000000,4.000000,4.000000,4.000000,4.000000,4.000000,4.000000,4.000000,4.000000,4.000000,4.000000,4.000000,4.000000,100.000000,,,,,,,,,,,,,,,,,25.000000,0.000000,0.330466,0.480164,-0.511353,0.631470,0.941521,-0.334025,0.019045,-38.385426,-31.044201,43.024761,,,,,,,,,,,,,,,,,,,,,,,,,,,,,,,,,,,,,,,,,,,,,,,,,,,,,,,,,,,,,,,,,,,,,,,,,,,,,,,,,,,,,,,,,,,,,,,,,,,,,
1739354489.035277,1739354489.035876,101.000000,0.000000,4325.000000,4365.384766,4426.153809,4411.153809,4376.922852,4435.512695,4360.128418,4389.230957,4340.000000,4301.410156,4189.743652,4608.717773,4490.000000,4457.948730,6412.000000,1.000000,17.000000,,,,0.000000,4.000000,4.000000,4.000000,4.000000,4.000000,4.000000,4.000000,4.000000,4.000000,4.000000,4.000000,4.000000,4.000000,4.000000,100.000000,,,,,,,,,,,,,,,,,,,,,,,,,,,,,,,,,,,,,,,,,,,,,,,,,,,,,,,,,,,,,,,,,,,,,,,,,,,,,,,,,,,,,,,,,,,,,,,,,,,,,,,,,,,,,,,,,,,,,,,,,,,,,,,,,
1739354489.043085,1739354489.043584,102.000000,0.000000,4286.922852,4330.512695,4393.846191,4377.051270,4340.256348,4401.666504,4325.256348,4380.256348,4305.897461,4263.717773,4166.282227,4567.436035,4464.230957,4427.692383,4884.000000,1.000000,17.000000,,,,0.000000,4.000000,4.000000,4.000000,4.000000,4.000000,4.000000,4.000000,4.000000,4.000000,4.000000,4.000000,4.000000,4.000000,4.000000,100.000000,,,,,,,,,,,,,,,,,,,,,,,,,,,,,,,,,,,,,,,,,,,,,,,,,,,,,,,,,,,,,,,,,,,,,,,,,,,,,,,,,,,,,,,,,,,,,,,,,,,,,,,,,,,,,,,,,,,,,,,,,,,,,,,,,
1739354489.050893,1739354489.051492,103.000000,0.000000,4284.102539,4321.538574,4392.692383,4373.205078,4338.461426,4404.743652,4334.487305,4392.179688,4316.153809,4268.205078,4174.615234,4573.077148,4464.487305,4430.256348,5327.000000,1.000000,17.000000,,,,0.000000,4.000000,4.000000,4.000000,4.000000,4.000000,4.000000,4.000000,4.000000,4.000000,4.000000,4.000000,4.000000,4.000000,4.000000,100.000000,,,,,,,,,,,,,,,,,,,,,,,,,,,,,,,,,,,,,,,,,,,,,,,,,,,,,,,,,,,,,,,,,,,,,,,,,,,,,,,,,,,,,,,,,,,,,,,,,,,,,,,,,,,,,,,,,,,,,,,,,,,,,,,,,
1739354489.058701,1739354489.059300,104.000000,0.000000,4273.333496,4307.307617,4380.769043,4362.948730,4330.256348,4393.974121,4329.230957,4391.153809,4315.128418,4261.153809,4167.948730,4563.077148,4457.820313,4423.205078,5495.000000,1.000000,17.000000,,,,0.000000,4.000000,4.000000,4.000000,4.000000,4.000000,4.000000,4.000000,4.000000,4.000000,4.000000,4.000000,4.000000,4.000000,4.000000,100.000000,,,,,,,,,,,,,,,,,26.000000,0.000000,0.330577,0.480408,-0.511353,0.631226,0.947381,-0.334025,0.016604,-38.396885,-30.939779,42.822285,,,,,,,,,,,,,,,,,,,,,,,,,,,,,,,,,,,,,,,,,,,,,,,,,,,,,,,,,,,,,,,,,,,,,,,,,,,,,,,,,,,,,,,,,,,,,,,,,,,,,
1739354489.066509,1739354489.067208,105.000000,0.000000,4255.512695,4293.205078,4364.230957,4349.487305,4307.179688,4367.820313,4300.641113,4370.512695,4290.897461,4237.179688,4150.897461,4537.948730,4441.794922,4405.256348,6412.000000,1.000000,17.000000,,,,0.000000,4.000000,4.000000,4.000000,4.000000,4.000000,4.000000,4.000000,4.000000,4.000000,4.000000,4.000000,4.000000,4.000000,4.000000,100.000000,,,,,,,,,,,,,,,,,,,,,,,,,,,,,,,,,,,,,,,,,,,,,,,,,,,,,,,,,,,,,,,,,,,,,,,,,,,,,,,,,,,,,,,,,,,,,,,,,,,,,,,,,,,,,,,,,,,,,,,,,,,,,,,,,
1739354489.074317,1739354489.075017,106.000000,0.000000,4272.436035,4310.769043,4382.051270,4366.025879,4315.256348,4373.333496,4305.256348,4365.512695,4299.230957,4251.282227,4168.333496,4555.512695,4452.307617,4416.025879,4884.000000,1.000000,17.000000,,,,0.000000,4.000000,4.000000,4.000000,4.000000,4.000000,4.000000,4.000000,4.000000,4.000000,4.000000,4.000000,4.000000,4.000000,4.000000,100.000000,,,,,,,,,,,,,,,,,,,,,,,,,,,,,,,,,,,,,,,,,,,,,,,,,,,,,,,,,,,,36.083035,7.574215,1.288020,1.422505,2.741696,35.832851,6.562234,1.302777,1.206376,2.454197,25.570906,5.466798,1.006464,1.260912,2.470077,77.501419,7.310412,1.042055,1.457548,2.827563,30.569416,6.095240,1.157715,1.048940,2.091721,32.901730,6.987362,1.264758,0.924198,2.338735,32.168514,7.129899,1.450890,1.104132,2.593183,4.732634,1.121862,0.430921,0.307645,0.740267,24.567677,4.904238,0.999214,1.048265,2.563097,32.519745,6.266095,1.494881,1.103116,3.404434,136.152283,16.752872,4.535744,1.970225,2.842305,39.456554,7.635727,1.585670,1.793912,3.959296,18.725647,4.998036,1.231703,0.858903,2.533335,22.306396,5.820069,1.054347,1.075958,2.635041
1739354489.082125,1739354489.082925,107.000000,0.000000,4302.820313,4331.922852,4404.615234,4389.230957,4336.538574,4387.820313,4322.820313,4379.743652,4325.256348,4283.846191,4201.794922,4590.897461,4475.000000,4439.871582,5327.000000,1.000000,17.000000,,,,0.000000,4.000000,4.000000,4.000000,4.000000,4.000000,4.000000,4.000000,4.000000,4.000000,4.000000,4.000000,4.000000,4.000000,4.000000,100.000000,,,,,,,,,,,,,,,,,,,,,,,,,,,,,,,,,,,,,,,,,,,,,,,,,,,,,,,,,,,,,,,,,,,,,,,,,,,,,,,,,,,,,,,,,,,,,,,,,,,,,,,,,,,,,,,,,,,,,,,,,,,,,,,,,
1739354489.089933,1739354489.090733,108.000000,0.000000,4295.256348,4316.282227,4396.025879,4383.974121,4328.974121,4376.538574,4314.743652,4388.846191,4320.512695,4278.846191,4209.102539,4590.641113,4470.769043,4442.179688,5495.000000,1.000000,17.000000,,,,0.000000,4.000000,4.000000,4.000000,4.000000,4.000000,4.000000,4.000000,4.000000,4.000000,4.000000,4.000000,4.000000,4.000000,4.000000,100.000000,,,,,,,,,,,,,,,,,27.000000,0.000000,0.330627,0.480469,-0.511414,0.631104,0.951288,-0.334025,0.021975,-38.507195,-30.879135,42.790058,,,,,,,,,,,,,,,,,,,,,,,,,,,,,,,,,,,,,,,,,,,,,,,,,,,,,,,,,,,,,,,,,,,,,,,,,,,,,,,,,,,,,,,,,,,,,,,,,,,,,
1739354489.097741,1739354489.098541,109.000000,0.000000,4279.743652,4299.871582,4386.538574,4376.153809,4319.615234,4371.410156,4310.897461,4390.128418,4302.820313,4255.128418,4206.153809,4580.128418,4460.000000,4435.256348,6412.000000,1.000000,17.000000,,,,0.000000,4.000000,4.000000,4.000000,4.000000,4.000000,4.000000,4.000000,4.000000,4.000000,4.000000,4.000000,4.000000,4.000000,4.000000,100.000000,,,,,,,,,,,,,,,,,,,,,,,,,,,,,,,,,,,,,,,,,,,,,,,,,,,,,,,,,,,,,,,,,,,,,,,,,,,,,,,,,,,,,,,,,,,,,,,,,,,,,,,,,,,,,,,,,,,,,,,,,,,,,,,,,
1739354489.105549,1739354489.106249,110.000000,0.000000,4289.743652,4307.948730,4396.794922,4384.487305,4329.743652,4385.769043,4325.256348,4396.410156,4306.282227,4261.282227,4220.769043,4588.717773,4464.871582,4436.282227,4884.000000,1.000000,17.000000,,,,0.000000,4.000000,4.000000,4.000000,4.000000,4.000000,4.000000,4.000000,4.000000,4.000000,4.000000,4.000000,4.000000,4.000000,4.000000,100.000000,,,,,,,,,,,,,,,,,,,,,,,,,,,,,,,,,,,,,,,,,,,,,,,,,,,,,,,,,,,,,,,,,,,,,,,,,,,,,,,,,,,,,,,,,,,,,,,,,,,,,,,,,,,,,,,,,,,,,,,,,,,,,,,,,
1739354489.113358,1739354489.114057,111.000000,0.000000,4288.461426,4306.922852,4397.307617,4381.538574,4331.410156,4387.563965,4326.922852,4400.641113,4311.025879,4273.846191,4230.769043,4587.820313,4469.102539,4434.102539,5327.000000,1.000000,17.000000,,,,0.000000,4.000000,4.000000,4.000000,4.000000,4.000000,4.000000,4.000000,4.000000,4.000000,4.000000,4.000000,4.000000,4.000000,4.000000,100.000000,,,,,,,,,,,,,,,,,,,,,,,,,,,,,,,,,,,,,,,,,,,,,,,,,,,,,,,,,,,,,,,,,,,,,,,,,,,,,,,,,,,,,,,,,,,,,,,,,,,,,,,,,,,,,,,,,,,,,,,,,,,,,,,,,
1739354489.121166,1739354489.121765,112.000000,0.000000,4283.974121,4306.410156,4397.179688,4384.230957,4331.025879,4387.820313,4328.717773,4401.025879,4316.282227,4279.358887,4237.692383,4590.897461,4475.641113,4441.410156,5495.000000,1.000000,17.000000,,,,0.000000,4.000000,4.000000,4.000000,4.000000,4.000000,4.000000,4.000000,4.000000,4.000000,4.000000,4.000000,4.000000,4.000000,4.000000,100.000000,,,,,,,,,,,,,,,,,28.000000,0.000000,0.330599,0.480469,-0.511658,0.630920,0.926383,-0.343792,0.009278,-38.589809,-31.007889,42.861050,,,,,,,,,,,,,,,,,,,,,,,,,,,,,,,,,,,,,,,,,,,,,,,,,,,,,,,,,,,,,,,,,,,,,,,,,,,,,,,,,,,,,,,,,,,,,,,,,,,,,
1739354489.128974,1739354489.129673,113.000000,0.000000,4276.282227,4297.563965,4387.820313,4380.000000,4320.769043,4381.153809,4320.641113,4393.717773,4307.051270,4266.538574,4231.666504,4579.358887,4465.256348,4435.641113,6412.000000,1.000000,17.000000,,,,0.000000,4.000000,4.000000,4.000000,4.000000,4.000000,4.000000,4.000000,4.000000,4.000000,4.000000,4.000000,4.000000,4.000000,4.000000,100.000000,,,,,,,,,,,,,,,,,,,,,,,,,,,,,,,,,,,,,,,,,,,,,,,,,,,,,,,,,,,,,,,,,,,,,,,,,,,,,,,,,,,,,,,,,,,,,,,,,,,,,,,,,,,,,,,,,,,,,,,,,,,,,,,,,
1739354489.136782,1739354489.137481,114.000000,0.000000,4257.948730,4276.666504,4364.871582,4359.358887,4301.410156,4359.743652,4296.282227,4384.230957,4283.717773,4243.846191,4216.025879,4548.846191,4444.102539,4412.307617,4884.000000,1.000000,17.000000,,,,0.000000,4.000000,4.000000,4.000000,4.000000,4.000000,4.000000,4.000000,4.000000,4.000000,4.000000,4.000000,4.000000,4.000000,4.000000,100.000000,,,,,,,,,,,,,,,,,,,,,,,,,,,,,,,,,,,,,,,,,,,,,,,,,,,,,,,,,,,,,,,,,,,,,,,,,,,,,,,,,,,,,,,,,,,,,,,,,,,,,,,,,,,,,,,,,,,,,,,,,,,,,,,,,
1739354489.144590,1739354489.145390,115.000000,0.000000,4265.897461,4287.179688,4370.384766,4366.025879,4309.615234,4364.102539,4305.512695,4390.769043,4293.589844,4260.897461,4232.307617,4560.128418,4456.538574,4420.000000,5327.000000,1.000000,17.000000,,,,0.000000,4.000000,4.000000,4.000000,4.000000,4.000000,4.000000,4.000000,4.000000,4.000000,4.000000,4.000000,4.000000,4.000000,4.000000,100.000000,,,,,,,,,,,,,,,,,,,,,,,,,,,,,,,,,,,,,,,,,,,,,,,,,,,,,,,,,,,,,,,,,,,,,,,,,,,,,,,,,,,,,,,,,,,,,,,,,,,,,,,,,,,,,,,,,,,,,,,,,,,,,,,,,
1739354489.152398,1739354489.153198,116.000000,0.000000,4288.333496,4308.846191,4394.358887,4390.512695,4328.974121,4385.384766,4330.769043,4399.615234,4316.538574,4287.820313,4257.948730,4585.769043,4474.615234,4441.282227,5495.000000,1.000000,17.000000,,,,0.000000,4.000000,4.000000,4.000000,4.000000,4.000000,4.000000,4.000000,4.000000,4.000000,4.000000,4.000000,4.000000,4.000000,4.000000,100.000000,,,,,,,,,,,,,,,,,29.000000,0.000000,0.330570,0.480774,-0.511841,0.630554,0.944940,-0.329630,0.004883,-38.330830,-30.973766,43.074947,,,,,,,,,,,,,,,,,,,,,,,,,,,,,,,,,,,,,,,,,,,,,,,,,,,,,,,,,,,,,,,,,,,,,,,,,,,,,,,,,,,,,,,,,,,,,,,,,,,,,
1739354489.160206,1739354489.161106,117.000000,0.000000,4285.512695,4302.692383,4392.820313,4390.897461,4325.897461,4381.794922,4322.307617,4392.051270,4306.153809,4275.256348,4252.307617,4574.358887,4458.974121,4435.897461,6412.000000,1.000000,17.000000,,,,0.000000,4.000000,4.000000,4.000000,4.000000,4.000000,4.000000,4.000000,4.000000,4.000000,4.000000,4.000000,4.000000,4.000000,4.000000,100.000000,,,,,,,,,,,,,,,,,,,,,,,,,,,,,,,,,,,,,,,,,,,,,,,,,,,,,,,,,,,,,,,,,,,,,,,,,,,,,,,,,,,,,,,,,,,,,,,,,,,,,,,,,,,,,,,,,,,,,,,,,,,,,,,,,
1739354489.168014,1739354489.168914,118.000000,0.000000,4272.436035,4289.358887,4379.743652,4378.333496,4312.307617,4362.051270,4304.102539,4383.717773,4288.846191,4257.051270,4242.179688,4560.256348,4444.487305,4422.436035,4884.000000,1.000000,17.000000,,,,0.000000,4.000000,4.000000,4.000000,4.000000,4.000000,4.000000,4.000000,4.000000,4.000000,4.000000,4.000000,4.000000,4.000000,4.000000,100.000000,,,,,,,,,,,,,,,,,,,,,,,,,,,,,,,,,,,,,,,,,,,,,,,,,,,,,,,,,,,,,,,,,,,,,,,,,,,,,,,,,,,,,,,,,,,,,,,,,,,,,,,,,,,,,,,,,,,,,,,,,,,,,,,,,
1739354489.175822,1739354489.176822,119.000000,0.000000,4277.948730,4292.692383,4381.153809,4380.384766,4309.358887,4357.948730,4307.307617,4388.205078,4294.871582,4264.102539,4254.102539,4570.769043,4451.794922,4423.589844,5327.000000,1.000000,17.000000,,,,0.000000,4.000000,4.000000,4.000000,4.000000,4.000000,4.000000,4.000000,4.000000,4.000000,4.000000,4.000000,4.000000,4.000000,4.000000,100.000000,,,,,,,,,,,,,,,,,,,,,,,,,,,,,,,,,,,,,,,,,,,,,,,,,,,,,,,,,,,,,,,,,,,,,,,,,,,,,,,,,,,,,,,,,,,,,,,,,,,,,,,,,,,,,,,,,,,,,,,,,,,,,,,,,
1739354489.183630,1739354489.184629,120.000000,0.000000,4279.358887,4292.948730,4384.487305,4384.102539,4310.512695,4360.641113,4310.641113,4390.384766,4300.769043,4269.871582,4262.563965,4571.666504,4455.641113,4424.871582,5495.000000,1.000000,17.000000,,,,0.000000,4.000000,4.000000,4.000000,4.000000,4.000000,4.000000,4.000000,4.000000,4.000000,4.000000,4.000000,4.000000,4.000000,4.000000,100.000000,,,,,,,,,,,,,,,,,30.000000,0.000000,0.330192,0.481079,-0.512024,0.630371,0.942986,-0.330607,0.016604,-38.414413,-31.026390,43.134117,,,,,,,,,,,,,,,,,,,,,,,,,,,,,,,,,,,,,,,,,,,,,,,,,,,,,,,,,,,,,,,,,,,,,,,,,,,,,,,,,,,,,,,,,,,,,,,,,,,,,
1739354489.191438,1739354489.192338,121.000000,0.000000,4271.666504,4284.230957,4383.717773,4382.051270,4308.717773,4358.846191,4309.102539,4390.000000,4297.179688,4265.384766,4261.282227,4568.717773,4448.974121,4421.794922,6412.000000,1.000000,17.000000,,,,0.000000,4.000000,4.000000,4.000000,4.000000,4.000000,4.000000,4.000000,4.000000,4.000000,4.000000,4.000000,4.000000,4.000000,4.000000,100.000000,,,,,,,,,,,,,,,,,,,,,,,,,,,,,,,,,,,,,,,,,,,,,,,,,,,,,,,,,,,,,,,,,,,,,,,,,,,,,,,,,,,,,,,,,,,,,,,,,,,,,,,,,,,,,,,,,,,,,,,,,,,,,,,,,
1739354489.199247,1739354489.200146,122.000000,0.000000,4263.717773,4277.307617,4377.051270,4377.948730,4305.384766,4357.307617,4309.230957,4387.820313,4287.307617,4256.794922,4257.563965,4568.077148,4440.128418,4416.025879,4884.000000,1.000000,17.000000,,,,0.000000,4.000000,4.000000,4.000000,4.000000,4.000000,4.000000,4.000000,4.000000,4.000000,4.000000,4.000000,4.000000,4.000000,4.000000,100.000000,,,,,,,,,,,,,,,,,,,,,,,,,,,,,,,,,,,,,,,,,,,,,,,,,,,,,,,,,,,,14.752313,3.484367,1.005946,1.418138,3.018655,17.059174,3.777474,1.252958,1.234420,2.740186,10.201396,2.796698,0.774510,1.280941,2.661557,29.522739,3.614522,0.705813,1.431230,3.051130,12.562638,2.699102,0.975252,1.022729,2.306336,13.662380,3.230218,1.075217,0.885098,2.481836,13.769794,3.719846,1.101889,1.091411,2.745932,2.446906,0.549426,0.444963,0.315329,0.782441,9.213153,1.964697,0.933462,1.085232,2.755136,11.977563,2.729596,1.438016,1.216391,3.562240,81.867813,11.013546,4.190210,2.057260,2.837345,16.228956,3.406080,1.254092,1.860325,4.236091,7.468731,2.253182,1.022524,0.891639,2.716056,8.975602,2.707379,0.809246,1.127783,2.849889
1739354489.207055,1739354489.207854,123.000000,0.000000,4262.307617,4277.051270,4371.282227,4377.948730,4304.743652,4360.512695,4309.743652,4382.692383,4277.820313,4246.410156,4257.051270,4558.461426,4440.512695,4411.025879,5327.000000,1.000000,17.000000,,,,0.000000,4.000000,4.000000,4.000000,4.000000,4.000000,4.000000,4.000000,4.000000,4.000000,4.000000,4.000000,4.000000,4.000000,4.000000,100.000000,,,,,,,,,,,,,,,,,,,,,,,,,,,,,,,,,,,,,,,,,,,,,,,,,,,,,,,,,,,,,,,,,,,,,,,,,,,,,,,,,,,,,,,,,,,,,,,,,,,,,,,,,,,,,,,,,,,,,,,,,,,,,,,,,
1739354489.214863,1739354489.215662,124.000000,0.000000,4273.589844,4285.128418,4378.717773,4386.666504,4307.948730,4366.538574,4318.205078,4385.256348,4287.179688,4254.871582,4269.358887,4563.205078,4448.717773,4417.820313,5495.000000,1.000000,17.000000,,,,0.000000,4.000000,4.000000,4.000000,4.000000,4.000000,4.000000,4.000000,4.000000,4.000000,4.000000,4.000000,4.000000,4.000000,4.000000,100.000000,,,,,,,,,,,,,,,,,31.000000,0.000000,0.329127,0.481079,-0.512634,0.630432,0.936638,-0.341350,0.015139,-38.372971,-31.023750,43.170708,,,,,,,,,,,,,,,,,,,,,,,,,,,,,,,,,,,,,,,,,,,,,,,,,,,,,,,,,,,,,,,,,,,,,,,,,,,,,,,,,,,,,,,,,,,,,,,,,,,,,
1739354489.222671,1739354489.223370,125.000000,0.000000,4255.641113,4265.128418,4362.436035,4367.563965,4288.974121,4343.461426,4298.205078,4378.589844,4272.692383,4245.769043,4257.179688,4546.794922,4431.153809,4400.641113,6412.000000,1.000000,17.000000,,,,0.000000,4.000000,4.000000,4.000000,4.000000,4.000000,4.000000,4.000000,4.000000,4.000000,4.000000,4.000000,4.000000,4.000000,4.000000,100.000000,,,,,,,,,,,,,,,,,,,,,,,,,,,,,,,,,,,,,,,,,,,,,,,,,,,,,,,,,,,,,,,,,,,,,,,,,,,,,,,,,,,,,,,,,,,,,,,,,,,,,,,,,,,,,,,,,,,,,,,,,,,,,,,,,
1739354489.230479,1739354489.231178,126.000000,0.000000,4229.102539,4240.897461,4338.077148,4344.230957,4268.461426,4315.641113,4265.897461,4368.589844,4242.692383,4221.282227,4244.871582,4523.974121,4417.179688,4381.025879,4884.000000,1.000000,17.000000,,,,0.000000,4.000000,4.000000,4.000000,4.000000,4.000000,4.000000,4.000000,4.000000,4.000000,4.000000,4.000000,4.000000,4.000000,4.000000,100.000000,,,,,,,,,,,,,,,,,,,,,,,,,,,,,,,,,,,,,,,,,,,,,,,,,,,,,,,,,,,,,,,,,,,,,,,,,,,,,,,,,,,,,,,,,,,,,,,,,,,,,,,,,,,,,,,,,,,,,,,,,,,,,,,,,
1739354489.238287,1739354489.238886,127.000000,0.000000,4253.589844,4264.743652,4361.410156,4366.922852,4286.922852,4331.153809,4281.025879,4377.179688,4263.974121,4236.794922,4279.615234,4553.717773,4442.948730,4405.769043,17.000000,1.000000,17.000000,,,,0.000000,4.000000,4.000000,4.000000,4.000000,4.000000,4.000000,4.000000,4.000000,4.000000,4.000000,4.000000,4.000000,4.000000,4.000000,100.000000,,,,,,,,,,,,,,,,,,,,,,,,,,,,,,,,,,,,,,,,,,,,,,,,,,,,,,,,,,,,,,,,,,,,,,,,,,,,,,,,,,,,,,,,,,,,,,,,,,,,,,,,,,,,,,,,,,,,,,,,,,,,,,,,,
1739354489.246095,1739354489.246694,0.000000,0.000000,4285.128418,4294.102539,4386.666504,4394.743652,4306.666504,4349.487305,4302.563965,4384.102539,4291.153809,4263.205078,4307.307617,4581.538574,4457.179688,4425.512695,5061.000000,1.000000,17.000000,,,,0.000000,4.000000,4.000000,4.000000,4.000000,4.000000,4.000000,4.000000,4.000000,4.000000,4.000000,4.000000,4.000000,4.000000,4.000000,100.000000,,,,,,,,,,,,,,,,,0.000000,0.000000,0.327556,0.480469,-0.513611,0.630920,0.926383,-0.334025,-0.001465,-38.485672,-31.121376,43.103638,,,,,,,,,,,,,,,,,,,,,,,,,,,,,,,,,,,,,,,,,,,,,,,,,,,,,,,,,,,,,,,,,,,,,,,,,,,,,,,,,,,,,,,,,,,,,,,,,,,,,
1739354489.253903,1739354489.254402,1.000000,0.000000,4264.871582,4279.487305,4365.641113,4379.358887,4288.846191,4331.538574,4283.077148,4375.000000,4269.230957,4247.563965,4290.897461,4558.333496,4433.717773,4405.897461,5434.000000,1.000000,17.000000,,,,0.000000,4.000000,4.000000,4.000000,4.000000,4.000000,4.000000,4.000000,4.000000,4.000000,4.000000,4.000000,4.000000,4.000000,4.000000,100.000000,,,,,,,,,,,,,,,,,,,,,,,,,,,,,,,,,,,,,,,,,,,,,,,,,,,,,,,,,,,,,,,,,,,,,,,,,,,,,,,,,,,,,,,,,,,,,,,,,,,,,,,,,,,,,,,,,,,,,,,,,,,,,,,,,
1739354489.261711,1739354489.262210,2.000000,0.000000,4242.820313,4260.128418,4348.589844,4362.051270,4272.563965,4314.615234,4262.179688,4371.153809,4253.589844,4228.717773,4282.307617,4539.487305,4424.743652,4393.717773,5460.000000,1.000000,17.000000,,,,0.000000,4.000000,4.000000,4.000000,4.000000,4.000000,4.000000,4.000000,4.000000,4.000000,4.000000,4.000000,4.000000,4.000000,4.000000,100.000000,,,,,,,,,,,,,,,,,,,,,,,,,,,,,,,,,,,,,,,,,,,,,,,,,,,,,,,,,,,,,,,,,,,,,,,,,,,,,,,,,,,,,,,,,,,,,,,,,,,,,,,,,,,,,,,,,,,,,,,,,,,,,,,,,
1739354489.269519,1739354489.269918,3.000000,0.000000,4255.512695,4268.589844,4353.846191,4370.769043,4276.666504,4317.692383,4264.615234,4372.563965,4264.871582,4233.974121,4295.256348,4545.641113,4434.487305,4398.974121,5355.000000,1.000000,17.000000,,,,0.000000,4.000000,4.000000,4.000000,4.000000,4.000000,4.000000,4.000000,4.000000,4.000000,4.000000,4.000000,4.000000,4.000000,4.000000,100.000000,,,,,,,,,,,,,,,,,,,,,,,,,,,,,,,,,,,,,,,,,,,,,,,,,,,,,,,,,,,,,,,,,,,,,,,,,,,,,,,,,,,,,,,,,,,,,,,,,,,,,,,,,,,,,,,,,,,,,,,,,,,,,,,,,
1739354489.277327,1739354489.277726,4.000000,0.000000,4260.512695,4276.794922,4355.384766,4377.051270,4279.743652,4320.128418,4270.512695,4372.179688,4265.897461,4236.794922,4301.538574,4545.769043,4435.384766,4397.436035,5322.000000,1.000000,17.000000,,,,0.000000,4.000000,4.000000,4.000000,4.000000,4.000000,4.000000,4.000000,4.000000,4.000000,4.000000,4.000000,4.000000,4.000000,4.000000,100.000000,,,,,,,,,,,,,,,,,1.000000,0.000000,0.326524,0.480103,-0.514160,0.631287,0.935661,-0.350140,-0.001465,-38.453773,-31.125904,42.993271,,,,,,,,,,,,,,,,,,,,,,,,,,,,,,,,,,,,,,,,,,,,,,,,,,,,,,,,,,,,,,,,,,,,,,,,,,,,,,,,,,,,,,,,,,,,,,,,,,,,,
1739354489.285135,1739354489.285434,5.000000,0.000000,4257.179688,4277.436035,4358.974121,4380.641113,4284.230957,4325.384766,4280.512695,4376.922852,4265.769043,4239.358887,4308.589844,4551.666504,4443.333496,4403.077148,5347.000000,1.000000,17.000000,,,,0.000000,4.000000,4.000000,4.000000,4.000000,4.000000,4.000000,4.000000,4.000000,4.000000,4.000000,4.000000,4.000000,4.000000,4.000000,100.000000,,,,,,,,,,,,,,,,,,,,,,,,,,,,,,,,,,,,,,,,,,,,,,,,,,,,,,,,,,,,,,,,,,,,,,,,,,,,,,,,,,,,,,,,,,,,,,,,,,,,,,,,,,,,,,,,,,,,,,,,,,,,,,,,,
1739354489.292943,1739354489.293242,6.000000,0.000000,4261.410156,4277.692383,4360.769043,4384.487305,4291.410156,4329.743652,4283.717773,4375.384766,4266.666504,4238.205078,4315.512695,4556.794922,4448.846191,4407.563965,5315.000000,1.000000,17.000000,,,,0.000000,4.000000,4.000000,4.000000,4.000000,4.000000,4.000000,4.000000,4.000000,4.000000,4.000000,4.000000,4.000000,4.000000,4.000000,100.000000,,,,,,,,,,,,,,,,,,,,,,,,,,,,,,,,,,,,,,,,,,,,,,,,,,,,,,,,,,,,,,,,,,,,,,,,,,,,,,,,,,,,,,,,,,,,,,,,,,,,,,,,,,,,,,,,,,,,,,,,,,,,,,,,,
1739354489.300752,1739354489.300950,7.000000,0.000000,4264.871582,4280.769043,4361.025879,4388.974121,4295.897461,4328.461426,4278.974121,4371.666504,4262.179688,4232.820313,4319.230957,4551.666504,4442.692383,4406.282227,2680.000000,1.000000,17.000000,,,,0.000000,4.000000,4.000000,4.000000,4.000000,4.000000,4.000000,4.000000,4.000000,4.000000,4.000000,4.000000,4.000000,4.000000,4.000000,100.000000,,,,,,,,,,,,,,,,,,,,,,,,,,,,,,,,,,,,,,,,,,,,,,,,,,,,,,,,,,,,,,,,,,,,,,,,,,,,,,,,,,,,,,,,,,,,,,,,,,,,,,,,,,,,,,,,,,,,,,,,,,,,,,,,,
1739354489.308560,1739354489.308758,8.000000,0.000000,4266.922852,4285.000000,4370.384766,4390.000000,4294.358887,4326.794922,4280.769043,4378.205078,4270.512695,4241.666504,4330.000000,4556.794922,4446.538574,4414.230957,5150.000000,1.000000,17.000000,,,,0.000000,4.000000,4.000000,4.000000,4.000000,4.000000,4.000000,4.000000,4.000000,4.000000,4.000000,4.000000,4.000000,4.000000,4.000000,100.000000,,,,,,,,,,,,,,,,,2.000000,0.000000,0.326253,0.479980,-0.514221,0.631470,0.948846,-0.337932,0.020999,-38.475063,-30.996647,43.060612,,,,,,,,,,,,,,,,,,,,,,,,,,,,,,,,,,,,,,,,,,,,,,,,,,,,,,,,,,,,,,,,,,,,,,,,,,,,,,,,,,,,,,,,,,,,,,,,,,,,,
1739354489.316368,1739354489.316466,9.000000,0.000000,4265.256348,4276.025879,4368.974121,4377.692383,4282.692383,4317.820313,4275.000000,4379.358887,4276.282227,4244.487305,4334.358887,4556.025879,4451.794922,4413.974121,5500.000000,1.000000,17.000000,,,,0.000000,4.000000,4.000000,4.000000,4.000000,4.000000,4.000000,4.000000,4.000000,4.000000,4.000000,4.000000,4.000000,4.000000,4.000000,100.000000,,,,,,,,,,,,,,,,,,,,,,,,,,,,,,,,,,,,,,,,,,,,,,,,,,,,,,,,,,,,,,,,,,,,,,,,,,,,,,,,,,,,,,,,,,,,,,,,,,,,,,,,,,,,,,,,,,,,,,,,,,,,,,,,,
1739354489.324176,1739354489.324374,10.000000,0.000000,4265.897461,4272.179688,4361.922852,4375.769043,4280.641113,4313.846191,4271.410156,4375.897461,4275.384766,4239.871582,4336.025879,4552.051270,4450.897461,4408.717773,4944.000000,1.000000,17.000000,,,,0.000000,4.000000,4.000000,4.000000,4.000000,4.000000,4.000000,4.000000,4.000000,4.000000,4.000000,4.000000,4.000000,4.000000,4.000000,100.000000,1.000000,0.000000,0.000000,0.000000,0.000000,0.000000,0.000000,0.000000,0.000000,1.000000,0.000000,0.000000,0.000000,0.000000,0.000000,0.000000,,,,,,,,,,,,,,,,,,,,,,,,,,,,,,,,,,,,,,,,,,,,5.945365,1.914823,0.999955,1.453051,3.253760,8.360586,2.728746,1.278448,1.223305,2.978118,3.672348,1.751938,0.736346,1.324239,2.832294,7.720827,2.301280,0.647869,1.374151,3.246496,4.914924,1.203893,0.919617,1.003283,2.490759,5.366328,1.481754,1.025863,0.888662,2.584978,5.664489,2.128725,0.996656,1.098684,2.870584,1.800051,0.331414,0.508337,0.341098,0.822051,3.208740,0.801359,0.899438,1.149047,2.939774,4.092646,1.346627,1.410961,1.367501,3.672616,66.227470,9.633263,4.679311,2.266959,2.864006,6.396426,1.828701,1.173310,1.996137,4.494814,2.891774,1.194893,0.948969,0.983633,2.849329,3.853732,1.432471,0.758627,1.228662,3.034033
1739354489.331984,1739354489.332182,11.000000,0.000000,4247.051270,4258.717773,4343.205078,4365.897461,4270.256348,4301.666504,4260.000000,4368.461426,4258.077148,4222.179688,4319.743652,4530.128418,4429.230957,4387.692383,5385.000000,1.000000,17.000000,,,,0.000000,4.000000,4.000000,4.000000,4.000000,4.000000,4.000000,4.000000,4.000000,4.000000,4.000000,4.000000,4.000000,4.000000,4.000000,100.000000,,,,,,,,,,,,,,,,,,,,,,,,,,,,,,,,,,,,,,,,,,,,,,,,,,,,,,,,,,,,,,,,,,,,,,,,,,,,,,,,,,,,,,,,,,,,,,,,,,,,,,,,,,,,,,,,,,,,,,,,,,,,,,,,,
1739354489.339792,1739354489.340090,12.000000,0.000000,4219.487305,4237.179688,4318.974121,4339.487305,4244.743652,4279.871582,4241.410156,4358.974121,4233.589844,4197.436035,4297.051270,4497.051270,4403.974121,4361.282227,5529.000000,1.000000,17.000000,,,,0.000000,4.000000,4.000000,4.000000,4.000000,4.000000,4.000000,4.000000,4.000000,4.000000,4.000000,4.000000,4.000000,4.000000,4.000000,100.000000,,,,,,,,,,,,,,,,,3.000000,0.000000,0.325932,0.479797,-0.514221,0.631775,0.925894,-0.345257,0.015139,-38.444221,-30.963650,43.204552,,,,,,,,,,,,,,,,,,,,,,,,,,,,,,,,,,,,,,,,,,,,,,,,,,,,,,,,,,,,,,,,,,,,,,,,,,,,,,,,,,,,,,,,,,,,,,,,,,,,,
1739354489.347600,1739354489.347898,13.000000,0.000000,4228.333496,4245.512695,4330.641113,4344.615234,4252.051270,4289.230957,4252.307617,4363.846191,4243.846191,4199.615234,4315.384766,4505.641113,4415.384766,4373.205078,6534.000000,1.000000,17.000000,,,,0.000000,4.000000,4.000000,4.000000,4.000000,4.000000,4.000000,4.000000,4.000000,4.000000,4.000000,4.000000,4.000000,4.000000,4.000000,100.000000,,,,,,,,,,,,,,,,,,,,,,,,,,,,,,,,,,,,,,,,,,,,,,,,,,,,,,,,,,,,,,,,,,,,,,,,,,,,,,,,,,,,,,,,,,,,,,,,,,,,,,,,,,,,,,,,,,,,,,,,,,,,,,,,,
1739354489.355408,1739354489.355806,14.000000,0.000000,4252.563965,4261.794922,4355.641113,4369.871582,4279.102539,4312.563965,4277.179688,4374.743652,4265.512695,4215.128418,4347.563965,4536.538574,4431.153809,4395.256348,4944.000000,1.000000,17.000000,,,,0.000000,4.000000,4.000000,4.000000,4.000000,4.000000,4.000000,4.000000,4.000000,4.000000,4.000000,4.000000,4.000000,4.000000,4.000000,100.000000,,,,,,,,,,,,,,,,,,,,,,,,,,,,,,,,,,,,,,,,,,,,,,,,,,,,,,,,,,,,,,,,,,,,,,,,,,,,,,,,,,,,,,,,,,,,,,,,,,,,,,,,,,,,,,,,,,,,,,,,,,,,,,,,,
1739354489.363216,1739354489.363614,15.000000,0.000000,4248.589844,4252.948730,4343.461426,4365.000000,4272.692383,4305.512695,4275.641113,4369.743652,4257.948730,4206.922852,4347.307617,4530.641113,4421.153809,4385.128418,5385.000000,1.000000,17.000000,,,,0.000000,4.000000,4.000000,4.000000,4.000000,4.000000,4.000000,4.000000,4.000000,4.000000,4.000000,4.000000,4.000000,4.000000,4.000000,100.000000,,,,,,,,,,,,,,,,,,,,,,,,,,,,,,,,,,,,,,,,,,,,,,,,,,,,,,,,,,,,,,,,,,,,,,,,,,,,,,,,,,,,,,,,,,,,,,,,,,,,,,,,,,,,,,,,,,,,,,,,,,,,,,,,,
1739354489.371024,1739354489.371522,16.000000,0.000000,4232.307617,4239.743652,4323.077148,4346.538574,4254.743652,4289.102539,4258.205078,4357.948730,4239.743652,4194.358887,4343.974121,4506.410156,4419.615234,4374.743652,0.000000,1.000000,17.000000,,,,0.000000,4.000000,4.000000,4.000000,4.000000,4.000000,4.000000,4.000000,4.000000,4.000000,4.000000,4.000000,4.000000,4.000000,4.000000,100.000000,,,,,,,,,,,,,,,,,4.000000,0.000000,0.325901,0.479919,-0.513977,0.631897,0.941521,-0.349164,0.001953,-38.416466,-30.933950,43.050762,,,,,,,,,,,,,,,,,,,,,,,,,,,,,,,,,,,,,,,,,,,,,,,,,,,,,,,,,,,,,,,,,,,,,,,,,,,,,,,,,,,,,,,,,,,,,,,,,,,,,
1739354489.378832,1739354489.379330,17.000000,0.000000,4237.051270,4242.179688,4327.692383,4349.743652,4258.846191,4293.589844,4258.333496,4358.205078,4238.461426,4200.256348,4358.077148,4506.666504,4432.563965,4385.384766,0.000000,1.000000,17.000000,,,,0.000000,4.000000,4.000000,4.000000,4.000000,4.000000,4.000000,4.000000,4.000000,4.000000,4.000000,4.000000,4.000000,4.000000,4.000000,100.000000,,,,,,,,,,,,,,,,,,,,,,,,,,,,,,,,,,,,,,,,,,,,,,,,,,,,,,,,,,,,,,,,,,,,,,,,,,,,,,,,,,,,,,,,,,,,,,,,,,,,,,,,,,,,,,,,,,,,,,,,,,,,,,,,,
1739354489.386640,1739354489.387138,18.000000,0.000000,4234.230957,4234.743652,4320.384766,4345.769043,4257.307617,4287.436035,4252.948730,4358.333496,4234.615234,4198.333496,4356.794922,4505.000000,4421.538574,4380.512695,0.000000,1.000000,17.000000,,,,0.000000,4.000000,4.000000,4.000000,4.000000,4.000000,4.000000,4.000000,4.000000,4.000000,4.000000,4.000000,4.000000,4.000000,4.000000,100.000000,,,,,,,,,,,,,,,,,,,,,,,,,,,,,,,,,,,,,,,,,,,,,,,,,,,,,,,,,,,,,,,,,,,,,,,,,,,,,,,,,,,,,,,,,,,,,,,,,,,,,,,,,,,,,,,,,,,,,,,,,,,,,,,,,
1739354489.394448,1739354489.394946,19.000000,0.000000,4206.410156,4213.589844,4293.461426,4320.897461,4232.307617,4257.563965,4220.128418,4348.077148,4217.179688,4178.461426,4339.743652,4479.102539,4397.051270,4357.820313,0.000000,1.000000,17.000000,,,,0.000000,4.000000,4.000000,4.000000,4.000000,4.000000,4.000000,4.000000,4.000000,4.000000,4.000000,4.000000,4.000000,4.000000,4.000000,100.000000,,,,,,,,,,,,,,,,,,,,,,,,,,,,,,,,,,,,,,,,,,,,,,,,,,,,,,,,,,,,,,,,,,,,,,,,,,,,,,,,,,,,,,,,,,,,,,,,,,,,,,,,,,,,,,,,,,,,,,,,,,,,,,,,,
1739354489.402257,1739354489.402654,20.000000,0.000000,4200.512695,4209.230957,4292.820313,4317.436035,4221.025879,4245.512695,4202.436035,4346.666504,4215.641113,4177.436035,4347.051270,4475.512695,4399.358887,4358.846191,0.000000,1.000000,17.000000,,,,0.000000,4.000000,4.000000,4.000000,4.000000,4.000000,4.000000,4.000000,4.000000,4.000000,4.000000,4.000000,4.000000,4.000000,4.000000,100.000000,,,,,,,,,,,,,,,,,5.000000,0.000000,0.326116,0.479858,-0.513672,0.632080,0.928824,-0.342327,0.018069,-38.374821,-30.890556,43.095684,,,,,,,,,,,,,,,,,,,,,,,,,,,,,,,,,,,,,,,,,,,,,,,,,,,,,,,,,,,,,,,,,,,,,,,,,,,,,,,,,,,,,,,,,,,,,,,,,,,,,
1739354489.410065,1739354489.410462,21.000000,0.000000,4229.871582,4229.871582,4322.179688,4343.589844,4238.589844,4263.461426,4220.897461,4359.615234,4237.820313,4205.384766,4381.025879,4511.538574,4424.102539,4388.717773,0.000000,1.000000,17.000000,,,,0.000000,4.000000,4.000000,4.000000,4.000000,4.000000,4.000000,4.000000,4.000000,4.000000,4.000000,4.000000,4.000000,4.000000,4.000000,100.000000,,,,,,,,,,,,,,,,,,,,,,,,,,,,,,,,,,,,,,,,,,,,,,,,,,,,,,,,,,,,,,,,,,,,,,,,,,,,,,,,,,,,,,,,,,,,,,,,,,,,,,,,,,,,,,,,,,,,,,,,,,,,,,,,,
1739354489.417873,1739354489.418170,22.000000,0.000000,4245.384766,4243.974121,4335.256348,4352.563965,4245.384766,4266.922852,4228.205078,4359.615234,4249.230957,4218.205078,4397.307617,4533.333496,4435.000000,4406.410156,0.000000,1.000000,17.000000,,,,0.000000,4.000000,4.000000,4.000000,4.000000,4.000000,4.000000,4.000000,4.000000,4.000000,4.000000,4.000000,4.000000,4.000000,4.000000,100.000000,,,,,,,,,,,,,,,,,,,,,,,,,,,,,,,,,,,,,,,,,,,,,,,,,,,,,,,,,,,,,,,,,,,,,,,,,,,,,,,,,,,,,,,,,,,,,,,,,,,,,,,,,,,,,,,,,,,,,,,,,,,,,,,,,
1739354489.425681,1739354489.425978,23.000000,0.000000,4228.333496,4226.922852,4318.333496,4334.230957,4228.333496,4245.000000,4203.589844,4342.563965,4227.179688,4188.974121,4381.153809,4512.436035,4416.538574,4389.743652,0.000000,1.000000,17.000000,,,,0.000000,4.000000,4.000000,4.000000,4.000000,4.000000,4.000000,4.000000,4.000000,4.000000,4.000000,4.000000,4.000000,4.000000,4.000000,100.000000,,,,,,,,,,,,,,,,,,,,,,,,,,,,,,,,,,,,,,,,,,,,,,,,,,,,,,,,,,,,,,,,,,,,,,,,,,,,,,,,,,,,,,,,,,,,,,,,,,,,,,,,,,,,,,,,,,,,,,,,,,,,,,,,,
1739354489.433489,1739354489.433686,24.000000,0.000000,4226.538574,4222.436035,4315.384766,4337.563965,4229.358887,4244.615234,4202.563965,4344.102539,4216.025879,4170.897461,4379.487305,4503.333496,4405.897461,4383.205078,0.000000,1.000000,17.000000,,,,0.000000,4.000000,4.000000,4.000000,4.000000,4.000000,4.000000,4.000000,4.000000,4.000000,4.000000,4.000000,4.000000,4.000000,4.000000,100.000000,,,,,,,,,,,,,,,,,6.000000,0.000000,0.325877,0.479553,-0.513733,0.632385,0.950311,-0.351605,0.013185,-38.354004,-30.918167,43.069450,,,,,,,,,,,,,,,,,,,,,,,,,,,,,,,,,,,,,,,,,,,,,,,,,,,,,,,,,,,,,,,,,,,,,,,,,,,,,,,,,,,,,,,,,,,,,,,,,,,,,
1739354489.441297,1739354489.441494,25.000000,0.000000,4228.717773,4226.282227,4318.974121,4345.128418,4236.410156,4253.461426,4215.641113,4351.410156,4218.461426,4169.230957,4387.051270,4506.794922,4404.743652,4387.436035,0.000000,1.000000,17.000000,,,,0.000000,4.000000,4.000000,4.000000,4.000000,4.000000,4.000000,4.000000,4.000000,4.000000,4.000000,4.000000,4.000000,4.000000,4.000000,100.000000,,,,,,,,,,,,,,,,,,,,,,,,,,,,,,,,,,,,,,,,,,,,,,,,,,,,,,,,,,,,,,,,,,,,,,,,,,,,,,,,,,,,,,,,,,,,,,,,,,,,,,,,,,,,,,,,,,,,,,,,,,,,,,,,,
1739354489.449105,1739354489.449202,26.000000,0.000000,4222.051270,4220.128418,4317.179688,4337.307617,4229.871582,4253.333496,4219.487305,4347.820313,4214.743652,4161.153809,4387.436035,4506.410156,4403.589844,4383.974121,0.000000,1.000000,17.000000,,,,0.000000,4.000000,4.000000,4.000000,4.000000,4.000000,4.000000,4.000000,4.000000,4.000000,4.000000,4.000000,4.000000,4.000000,4.000000,100.000000,,,,,,,,,,,,,,,,,,,,,,,,,,,,,,,,,,,,,,,,,,,,,,,,,,,,,,,,,,,,4.265494,1.707114,1.131419,1.491780,3.395647,6.353189,2.510280,1.308901,1.165291,3.110434,2.517171,1.614804,0.802068,1.365912,2.942813,3.981421,2.086917,0.738072,1.284816,3.361508,3.685447,0.818280,0.899739,0.979320,2.597629,3.864618,0.931487,0.967781,0.923737,2.619188,4.050398,1.611524,0.946829,1.118079,2.939822,2.320091,0.329982,0.584131,0.375602,0.852251,2.745041,0.642193,0.826874,1.207873,3.078424,3.333893,1.246298,1.348536,1.514776,3.727494,69.956581,10.008933,5.154644,2.428454,2.912524,4.769935,1.738620,1.218349,2.133843,4.680084,2.430184,1.102770,0.906399,1.096672,2.911495,3.209788,1.192082,0.806433,1.335201,3.147536
1739354489.456913,1739354489.457010,27.000000,0.000000,4230.897461,4223.077148,4326.282227,4346.025879,4238.589844,4266.794922,4238.846191,4354.358887,4226.025879,4173.205078,4402.436035,4519.102539,4412.307617,4389.615234,0.000000,1.000000,17.000000,,,,0.000000,4.000000,4.000000,4.000000,4.000000,4.000000,4.000000,4.000000,4.000000,4.000000,4.000000,4.000000,4.000000,4.000000,4.000000,100.000000,,,,,,,,,,,,,,,,,,,,,,,,,,,,,,,,,,,,,,,,,,,,,,,,,,,,,,,,,,,,,,,,,,,,,,,,,,,,,,,,,,,,,,,,,,,,,,,,,,,,,,,,,,,,,,,,,,,,,,,,,,,,,,,,,
1739354489.464721,1739354489.464718,28.000000,0.000000,4231.538574,4221.794922,4326.538574,4351.025879,4244.487305,4272.948730,4250.641113,4360.384766,4235.641113,4185.512695,4410.384766,4519.358887,4406.794922,4388.717773,0.000000,1.000000,17.000000,,,,0.000000,4.000000,4.000000,4.000000,4.000000,4.000000,4.000000,4.000000,4.000000,4.000000,4.000000,4.000000,4.000000,4.000000,4.000000,100.000000,,,,,,,,,,,,,,,,,7.000000,0.000000,0.325779,0.479187,-0.513611,0.632813,0.927848,-0.351605,0.017580,-38.401939,-30.926350,43.062504,,,,,,,,,,,,,,,,,,,,,,,,,,,,,,,,,,,,,,,,,,,,,,,,,,,,,,,,,,,,,,,,,,,,,,,,,,,,,,,,,,,,,,,,,,,,,,,,,,,,,
1739354489.472529,1739354489.472526,29.000000,0.000000,4216.794922,4213.205078,4313.589844,4342.948730,4237.436035,4268.077148,4243.461426,4355.384766,4227.692383,4179.615234,4404.487305,4504.487305,4395.641113,4376.410156,0.000000,1.000000,17.000000,,,,0.000000,4.000000,4.000000,4.000000,4.000000,4.000000,4.000000,4.000000,4.000000,4.000000,4.000000,4.000000,4.000000,4.000000,4.000000,100.000000,,,,,,,,,,,,,,,,,,,,,,,,,,,,,,,,,,,,,,,,,,,,,,,,,,,,,,,,,,,,,,,,,,,,,,,,,,,,,,,,,,,,,,,,,,,,,,,,,,,,,,,,,,,,,,,,,,,,,,,,,,,,,,,,,
1739354489.480337,1739354489.480234,30.000000,0.000000,4204.487305,4206.794922,4302.307617,4336.153809,4235.256348,4264.358887,4230.256348,4347.563965,4218.333496,4172.692383,4402.436035,4491.666504,4394.743652,4366.666504,0.000000,1.000000,17.000000,,,,0.000000,4.000000,4.000000,4.000000,4.000000,4.000000,4.000000,4.000000,4.000000,4.000000,4.000000,4.000000,4.000000,4.000000,4.000000,100.000000,,,,,,,,,,,,,,,,,,,,,,,,,,,,,,,,,,,,,,,,,,,,,,,,,,,,,,,,,,,,,,,,,,,,,,,,,,,,,,,,,,,,,,,,,,,,,,,,,,,,,,,,,,,,,,,,,,,,,,,,,,,,,,,,,
1739354489.488145,1739354489.488142,31.000000,0.000000,4196.410156,4199.743652,4293.333496,4327.820313,4232.179688,4252.051270,4215.256348,4343.461426,4211.410156,4160.256348,4395.641113,4476.794922,4385.769043,4356.666504,0.000000,1.000000,17.000000,,,,0.000000,4.000000,4.000000,4.000000,4.000000,4.000000,4.000000,4.000000,4.000000,4.000000,4.000000,4.000000,4.000000,4.000000,4.000000,100.000000,,,,,,,,,,,,,,,,,,,,,,,,,,,,,,,,,,,,,,,,,,,,,,,,,,,,,,,,,,,,,,,,,,,,,,,,,,,,,,,,,,,,,,,,,,,,,,,,,,,,,,,,,,,,,,,,,,,,,,,,,,,,,,,,,
1739354489.495953,1739354489.495950,32.000000,0.000000,4204.358887,4209.230957,4302.563965,4338.974121,4236.794922,4249.358887,4215.769043,4348.974121,4218.846191,4160.641113,4403.333496,4484.871582,4388.461426,4365.128418,0.000000,1.000000,17.000000,,,,0.000000,4.000000,4.000000,4.000000,4.000000,4.000000,4.000000,4.000000,4.000000,4.000000,4.000000,4.000000,4.000000,4.000000,4.000000,100.000000,,,,,,,,,,,,,,,,,8.000000,0.000000,0.325843,0.478760,-0.513367,0.633301,0.932731,-0.344769,0.015627,-38.578411,-30.967049,43.056255,,,,,,,,,,,,,,,,,,,,,,,,,,,,,,,,,,,,,,,,,,,,,,,,,,,,,,,,,,,,,,,,,,,,,,,,,,,,,,,,,,,,,,,,,,,,,,,,,,,,,
1739354489.503762,1739354489.503858,33.000000,0.000000,4228.077148,4233.461426,4326.538574,4367.948730,4252.307617,4266.153809,4233.077148,4358.461426,4243.717773,4190.512695,4436.666504,4514.743652,4414.615234,4392.948730,0.000000,1.000000,17.000000,,,,0.000000,4.000000,4.000000,4.000000,4.000000,4.000000,4.000000,4.000000,4.000000,4.000000,4.000000,4.000000,4.000000,4.000000,4.000000,100.000000,,,,,,,,,,,,,,,,,,,,,,,,,,,,,,,,,,,,,,,,,,,,,,,,,,,,,,,,,,,,,,,,,,,,,,,,,,,,,,,,,,,,,,,,,,,,,,,,,,,,,,,,,,,,,,,,,,,,,,,,,,,,,,,,,
1739354489.511570,1739354489.511667,34.000000,0.000000,4232.307617,4236.666504,4322.692383,4366.282227,4249.743652,4267.307617,4231.666504,4355.000000,4250.641113,4201.922852,4445.384766,4513.717773,4420.128418,4396.282227,0.000000,1.000000,17.000000,,,,0.000000,4.000000,4.000000,4.000000,4.000000,4.000000,4.000000,4.000000,4.000000,4.000000,4.000000,4.000000,4.000000,4.000000,4.000000,100.000000,,,,,,,,,,,,,,,,,,,,,,,,,,,,,,,,,,,,,,,,,,,,,,,,,,,,,,,,,,,,,,,,,,,,,,,,,,,,,,,,,,,,,,,,,,,,,,,,,,,,,,,,,,,,,,,,,,,,,,,,,,,,,,,,,
1739354489.519378,1739354489.519575,35.000000,0.000000,4231.025879,4238.205078,4315.000000,4355.769043,4247.307617,4261.794922,4227.948730,4354.871582,4246.410156,4188.717773,4438.333496,4507.051270,4415.256348,4390.128418,0.000000,1.000000,17.000000,,,,0.000000,4.000000,4.000000,4.000000,4.000000,4.000000,4.000000,4.000000,4.000000,4.000000,4.000000,4.000000,4.000000,4.000000,4.000000,100.000000,,,,,,,,,,,,,,,,,,,,,,,,,,,,,,,,,,,,,,,,,,,,,,,,,,,,,,,,,,,,,,,,,,,,,,,,,,,,,,,,,,,,,,,,,,,,,,,,,,,,,,,,,,,,,,,,,,,,,,,,,,,,,,,,,
1739354489.527186,1739354489.527383,36.000000,0.000000,4238.077148,4248.846191,4325.384766,4364.615234,4258.717773,4269.487305,4240.000000,4363.205078,4250.512695,4187.179688,4449.358887,4519.871582,4422.563965,4396.410156,0.000000,1.000000,17.000000,,,,0.000000,4.000000,4.000000,4.000000,4.000000,4.000000,4.000000,4.000000,4.000000,4.000000,4.000000,4.000000,4.000000,4.000000,4.000000,100.000000,,,,,,,,,,,,,,,,,9.000000,0.000000,0.325763,0.478638,-0.513306,0.633484,0.943963,-0.346234,0.017580,-38.537235,-31.103678,43.083961,,,,,,,,,,,,,,,,,,,,,,,,,,,,,,,,,,,,,,,,,,,,,,,,,,,,,,,,,,,,,,,,,,,,,,,,,,,,,,,,,,,,,,,,,,,,,,,,,,,,,
1739354489.534994,1739354489.535291,37.000000,0.000000,4230.256348,4235.641113,4318.846191,4356.025879,4251.410156,4263.717773,4234.102539,4356.025879,4238.717773,4177.307617,4448.589844,4511.666504,4413.205078,4386.410156,0.000000,1.000000,17.000000,,,,0.000000,4.000000,4.000000,4.000000,4.000000,4.000000,4.000000,4.000000,4.000000,4.000000,4.000000,4.000000,4.000000,4.000000,4.000000,100.000000,,,,,,,,,,,,,,,,,,,,,,,,,,,,,,,,,,,,,,,,,,,,,,,,,,,,,,,,,,,,,,,,,,,,,,,,,,,,,,,,,,,,,,,,,,,,,,,,,,,,,,,,,,,,,,,,,,,,,,,,,,,,,,,,,
1739354489.542802,1739354489.543099,38.000000,0.000000,4231.794922,4231.794922,4318.205078,4355.897461,4250.641113,4266.025879,4235.897461,4355.769043,4236.794922,4175.641113,4449.358887,4514.230957,4406.666504,4385.641113,0.000000,1.000000,17.000000,,,,0.000000,4.000000,4.000000,4.000000,4.000000,4.000000,4.000000,4.000000,4.000000,4.000000,4.000000,4.000000,4.000000,4.000000,4.000000,100.000000,,,,,,,,,,,,,,,,,,,,,,,,,,,,,,,,,,,,,,,,,,,,,,,,,,,,,,,,,,,,,,,,,,,,,,,,,,,,,,,,,,,,,,,,,,,,,,,,,,,,,,,,,,,,,,,,,,,,,,,,,,,,,,,,,
1739354489.550610,1739354489.551007,39.000000,0.000000,4244.487305,4249.358887,4336.282227,4379.615234,4269.615234,4285.384766,4258.589844,4369.358887,4258.717773,4198.205078,4468.846191,4536.666504,4417.179688,4400.897461,0.000000,1.000000,17.000000,,,,0.000000,4.000000,4.000000,4.000000,4.000000,4.000000,4.000000,4.000000,4.000000,4.000000,4.000000,4.000000,4.000000,4.000000,4.000000,100.000000,,,,,,,,,,,,,,,,,,,,,,,,,,,,,,,,,,,,,,,,,,,,,,,,,,,,,,,,,,,,,,,,,,,,,,,,,,,,,,,,,,,,,,,,,,,,,,,,,,,,,,,,,,,,,,,,,,,,,,,,,,,,,,,,,
1739354489.558418,1739354489.558815,40.000000,0.000000,4242.051270,4248.717773,4338.205078,4384.487305,4268.846191,4285.897461,4262.692383,4365.256348,4259.615234,4204.102539,4476.282227,4530.384766,4416.282227,4397.820313,0.000000,1.000000,17.000000,,,,0.000000,4.000000,4.000000,4.000000,4.000000,4.000000,4.000000,4.000000,4.000000,4.000000,4.000000,4.000000,4.000000,4.000000,4.000000,100.000000,,,,,,,,,,,,,,,,,10.000000,0.000000,0.326140,0.478516,-0.512878,0.633728,0.928824,-0.346722,0.014650,-38.333511,-30.943310,43.025566,,,,,,,,,,,,,,,,,,,,,,,,,,,,,,,,,,,,,,,,,,,,,,,,,,,,,,,,,,,,,,,,,,,,,,,,,,,,,,,,,,,,,,,,,,,,,,,,,,,,,
1739354489.566226,1739354489.566722,41.000000,0.000000,4242.692383,4246.794922,4334.102539,4384.358887,4264.487305,4283.205078,4258.717773,4356.153809,4248.717773,4200.641113,4478.846191,4523.205078,4414.615234,4396.794922,0.000000,1.000000,17.000000,,,,0.000000,4.000000,4.000000,4.000000,4.000000,4.000000,4.000000,4.000000,4.000000,4.000000,4.000000,4.000000,4.000000,4.000000,4.000000,100.000000,,,,,,,,,,,,,,,,,,,,,,,,,,,,,,,,,,,,,,,,,,,,,,,,,,,,,,,,,,,,,,,,,,,,,,,,,,,,,,,,,,,,,,,,,,,,,,,,,,,,,,,,,,,,,,,,,,,,,,,,,,,,,,,,,
1739354489.574034,1739354489.574530,42.000000,0.000000,4237.563965,4243.205078,4327.436035,4380.769043,4263.461426,4278.461426,4254.102539,4356.025879,4243.589844,4196.410156,4476.922852,4521.153809,4412.436035,4392.307617,0.000000,1.000000,17.000000,,,,0.000000,4.000000,4.000000,4.000000,4.000000,4.000000,4.000000,4.000000,4.000000,4.000000,4.000000,4.000000,4.000000,4.000000,4.000000,100.000000,,,,,,,,,,,,,,,,,,,,,,,,,,,,,,,,,,,,,,,,,,,,,,,,,,,,,,,,,,,,4.231808,1.856820,1.354268,1.504901,3.386914,5.853181,2.413474,1.362076,1.081431,3.084011,2.624125,1.756708,0.951374,1.388409,2.938706,3.758728,2.042912,0.933464,1.182610,3.329322,3.967318,0.803537,0.896053,0.948907,2.578060,4.033601,0.825069,0.847370,0.972306,2.548830,4.145884,1.485736,0.866429,1.136288,2.909590,3.041764,0.415740,0.643702,0.404971,0.858562,3.417470,0.807092,0.717285,1.235505,3.115265,4.169775,1.596794,1.265872,1.616971,3.690215,72.265862,9.927172,5.089197,2.417962,2.931442,5.013801,2.135154,1.368215,2.216071,4.699239,2.879477,1.332554,0.864774,1.185909,2.870795,3.517415,1.265818,0.917102,1.405134,3.136422
1739354489.581842,1739354489.582238,43.000000,0.000000,4222.692383,4232.436035,4315.897461,4366.410156,4256.794922,4270.769043,4248.846191,4358.461426,4241.922852,4184.230957,4475.000000,4507.692383,4408.077148,4379.102539,0.000000,1.000000,17.000000,,,,0.000000,4.000000,4.000000,4.000000,4.000000,4.000000,4.000000,4.000000,4.000000,4.000000,4.000000,4.000000,4.000000,4.000000,4.000000,100.000000,,,,,,,,,,,,,,,,,,,,,,,,,,,,,,,,,,,,,,,,,,,,,,,,,,,,,,,,,,,,,,,,,,,,,,,,,,,,,,,,,,,,,,,,,,,,,,,,,,,,,,,,,,,,,,,,,,,,,,,,,,,,,,,,,
1739354489.589651,1739354489.590046,44.000000,0.000000,4238.461426,4248.461426,4326.538574,4379.230957,4267.692383,4283.461426,4258.717773,4363.589844,4258.589844,4196.025879,4497.948730,4520.769043,4428.461426,4398.589844,0.000000,1.000000,17.000000,,,,0.000000,4.000000,4.000000,4.000000,4.000000,4.000000,4.000000,4.000000,4.000000,4.000000,4.000000,4.000000,4.000000,4.000000,4.000000,100.000000,,,,,,,,,,,,,,,,,11.000000,0.000000,0.326624,0.478516,-0.512268,0.633972,0.947870,-0.358442,0.029300,-38.366829,-30.965645,43.056343,,,,,,,,,,,,,,,,,,,,,,,,,,,,,,,,,,,,,,,,,,,,,,,,,,,,,,,,,,,,,,,,,,,,,,,,,,,,,,,,,,,,,,,,,,,,,,,,,,,,,
1739354489.597458,1739354489.597755,45.000000,0.000000,4267.051270,4273.846191,4346.538574,4406.538574,4285.000000,4294.487305,4270.000000,4368.333496,4275.641113,4225.256348,4520.384766,4547.179688,4448.205078,4426.794922,0.000000,1.000000,17.000000,,,,0.000000,4.000000,4.000000,4.000000,4.000000,4.000000,4.000000,4.000000,4.000000,4.000000,4.000000,4.000000,4.000000,4.000000,4.000000,100.000000,,,,,,,,,,,,,,,,,,,,,,,,,,,,,,,,,,,,,,,,,,,,,,,,,,,,,,,,,,,,,,,,,,,,,,,,,,,,,,,,,,,,,,,,,,,,,,,,,,,,,,,,,,,,,,,,,,,,,,,,,,,,,,,,,
1739354489.605266,1739354489.605562,46.000000,0.000000,4263.974121,4269.230957,4339.358887,4401.282227,4279.358887,4282.307617,4263.974121,4365.769043,4265.769043,4220.384766,4511.794922,4538.717773,4433.589844,4416.922852,0.000000,1.000000,17.000000,,,,0.000000,4.000000,4.000000,4.000000,4.000000,4.000000,4.000000,4.000000,4.000000,4.000000,4.000000,4.000000,4.000000,4.000000,4.000000,100.000000,,,,,,,,,,,,,,,,,,,,,,,,,,,,,,,,,,,,,,,,,,,,,,,,,,,,,,,,,,,,,,,,,,,,,,,,,,,,,,,,,,,,,,,,,,,,,,,,,,,,,,,,,,,,,,,,,,,,,,,,,,,,,,,,,
1739354489.613075,1739354489.613271,47.000000,0.000000,4253.846191,4260.256348,4325.512695,4387.436035,4272.051270,4279.102539,4258.846191,4361.410156,4255.256348,4198.333496,4502.948730,4525.000000,4418.333496,4402.051270,0.000000,1.000000,17.000000,,,,0.000000,4.000000,4.000000,4.000000,4.000000,4.000000,4.000000,4.000000,4.000000,4.000000,4.000000,4.000000,4.000000,4.000000,4.000000,100.000000,,,,,,,,,,,,,,,,,,,,,,,,,,,,,,,,,,,,,,,,,,,,,,,,,,,,,,,,,,,,,,,,,,,,,,,,,,,,,,,,,,,,,,,,,,,,,,,,,,,,,,,,,,,,,,,,,,,,,,,,,,,,,,,,,
1739354489.620883,1739354489.621079,48.000000,0.000000,4263.461426,4269.358887,4333.589844,4398.077148,4281.153809,4296.025879,4270.769043,4362.307617,4261.666504,4197.692383,4515.128418,4537.692383,4426.153809,4412.307617,0.000000,1.000000,17.000000,,,,0.000000,4.000000,4.000000,4.000000,4.000000,4.000000,4.000000,4.000000,4.000000,4.000000,4.000000,4.000000,4.000000,4.000000,4.000000,100.000000,,,,,,,,,,,,,,,,,12.000000,0.000000,0.326814,0.478455,-0.511902,0.634216,0.943963,-0.356000,0.022464,-38.346813,-30.902414,43.117374,,,,,,,,,,,,,,,,,,,,,,,,,,,,,,,,,,,,,,,,,,,,,,,,,,,,,,,,,,,,,,,,,,,,,,,,,,,,,,,,,,,,,,,,,,,,,,,,,,,,,
1739354489.628691,1739354489.628787,49.000000,0.000000,4268.077148,4272.179688,4343.717773,4405.897461,4286.153809,4299.487305,4279.230957,4363.717773,4262.051270,4203.077148,4517.563965,4545.769043,4426.025879,4417.436035,0.000000,1.000000,17.000000,,,,0.000000,4.000000,4.000000,4.000000,4.000000,4.000000,4.000000,4.000000,4.000000,4.000000,4.000000,4.000000,4.000000,4.000000,4.000000,100.000000,,,,,,,,,,,,,,,,,,,,,,,,,,,,,,,,,,,,,,,,,,,,,,,,,,,,,,,,,,,,,,,,,,,,,,,,,,,,,,,,,,,,,,,,,,,,,,,,,,,,,,,,,,,,,,,,,,,,,,,,,,,,,,,,,
1739354489.636499,1739354489.636695,50.000000,0.000000,4251.410156,4257.820313,4331.666504,4387.820313,4277.307617,4283.333496,4265.897461,4359.358887,4247.307617,4192.948730,4502.051270,4529.102539,4405.769043,4400.897461,0.000000,1.000000,17.000000,,,,0.000000,4.000000,4.000000,4.000000,4.000000,4.000000,4.000000,4.000000,4.000000,4.000000,4.000000,4.000000,4.000000,4.000000,4.000000,100.000000,,,,,,,,,,,,,,,,,,,,,,,,,,,,,,,,,,,,,,,,,,,,,,,,,,,,,,,,,,,,,,,,,,,,,,,,,,,,,,,,,,,,,,,,,,,,,,,,,,,,,,,,,,,,,,,,,,,,,,,,,,,,,,,,,
1739354489.644307,1739354489.644503,51.000000,0.000000,4252.820313,4258.205078,4331.410156,4388.846191,4280.512695,4284.743652,4266.538574,4362.307617,4252.179688,4198.589844,4512.948730,4530.384766,4408.717773,4399.743652,0.000000,1.000000,17.000000,,,,0.000000,4.000000,4.000000,4.000000,4.000000,4.000000,4.000000,4.000000,4.000000,4.000000,4.000000,4.000000,4.000000,4.000000,4.000000,100.000000,,,,,,,,,,,,,,,,,,,,,,,,,,,,,,,,,,,,,,,,,,,,,,,,,,,,,,,,,,,,,,,,,,,,,,,,,,,,,,,,,,,,,,,,,,,,,,,,,,,,,,,,,,,,,,,,,,,,,,,,,,,,,,,,,
1739354489.652115,1739354489.652411,52.000000,0.000000,4277.820313,4280.256348,4355.769043,4420.256348,4300.897461,4308.333496,4294.743652,4376.666504,4286.666504,4231.282227,4548.205078,4560.000000,4436.282227,4425.641113,0.000000,1.000000,17.000000,,,,0.000000,4.000000,4.000000,4.000000,4.000000,4.000000,4.000000,4.000000,4.000000,4.000000,4.000000,4.000000,4.000000,4.000000,4.000000,100.000000,,,,,,,,,,,,,,,,,13.000000,0.000000,0.326930,0.478394,-0.511658,0.634399,0.933219,-0.346234,0.023440,-38.228798,-30.862173,43.272305,,,,,,,,,,,,,,,,,,,,,,,,,,,,,,,,,,,,,,,,,,,,,,,,,,,,,,,,,,,,,,,,,,,,,,,,,,,,,,,,,,,,,,,,,,,,,,,,,,,,,
1739354489.659923,1739354489.660219,53.000000,0.000000,4276.282227,4285.769043,4356.794922,4424.102539,4304.615234,4313.077148,4299.871582,4377.948730,4302.436035,4245.769043,4551.410156,4562.051270,4439.230957,4428.974121,0.000000,1.000000,17.000000,,,,0.000000,4.000000,4.000000,4.000000,4.000000,4.000000,4.000000,4.000000,4.000000,4.000000,4.000000,4.000000,4.000000,4.000000,4.000000,100.000000,,,,,,,,,,,,,,,,,,,,,,,,,,,,,,,,,,,,,,,,,,,,,,,,,,,,,,,,,,,,,,,,,,,,,,,,,,,,,,,,,,,,,,,,,,,,,,,,,,,,,,,,,,,,,,,,,,,,,,,,,,,,,,,,,
1739354489.667731,1739354489.668027,54.000000,0.000000,4252.436035,4271.282227,4334.102539,4400.641113,4289.487305,4297.436035,4281.922852,4365.641113,4286.410156,4230.256348,4533.717773,4537.179688,4422.563965,4406.025879,0.000000,1.000000,17.000000,,,,0.000000,4.000000,4.000000,4.000000,4.000000,4.000000,4.000000,4.000000,4.000000,4.000000,4.000000,4.000000,4.000000,4.000000,4.000000,100.000000,,,,,,,,,,,,,,,,,,,,,,,,,,,,,,,,,,,,,,,,,,,,,,,,,,,,,,,,,,,,,,,,,,,,,,,,,,,,,,,,,,,,,,,,,,,,,,,,,,,,,,,,,,,,,,,,,,,,,,,,,,,,,,,,,
1739354489.675539,1739354489.675736,55.000000,0.000000,4255.000000,4271.282227,4337.179688,4404.358887,4289.358887,4299.358887,4284.871582,4366.153809,4285.128418,4231.153809,4549.487305,4540.128418,4428.461426,4408.717773,0.000000,1.000000,17.000000,,,,0.000000,4.000000,4.000000,4.000000,4.000000,4.000000,4.000000,4.000000,4.000000,4.000000,4.000000,4.000000,4.000000,4.000000,4.000000,100.000000,,,,,,,,,,,,,,,,,,,,,,,,,,,,,,,,,,,,,,,,,,,,,,,,,,,,,,,,,,,,,,,,,,,,,,,,,,,,,,,,,,,,,,,,,,,,,,,,,,,,,,,,,,,,,,,,,,,,,,,,,,,,,,,,,
1739354489.683347,1739354489.683644,56.000000,0.000000,4278.461426,4286.410156,4356.025879,4427.692383,4303.846191,4313.589844,4297.563965,4377.307617,4305.384766,4253.717773,4577.307617,4564.102539,4446.922852,4431.282227,0.000000,1.000000,17.000000,,,,0.000000,4.000000,4.000000,4.000000,4.000000,4.000000,4.000000,4.000000,4.000000,4.000000,4.000000,4.000000,4.000000,4.000000,4.000000,100.000000,,,,,,,,,,,,,,,,,14.000000,0.000000,0.327376,0.478577,-0.511353,0.634277,0.947381,-0.347699,0.022952,-38.339252,-30.742622,43.411739,,,,,,,,,,,,,,,,,,,,,,,,,,,,,,,,,,,,,,,,,,,,,,,,,,,,,,,,,,,,,,,,,,,,,,,,,,,,,,,,,,,,,,,,,,,,,,,,,,,,,
1739354489.691156,1739354489.691452,57.000000,0.000000,4278.717773,4286.025879,4351.025879,4426.025879,4305.128418,4308.461426,4290.128418,4372.692383,4303.717773,4248.717773,4568.077148,4560.897461,4441.282227,4428.205078,0.000000,1.000000,17.000000,,,,0.000000,4.000000,4.000000,4.000000,4.000000,4.000000,4.000000,4.000000,4.000000,4.000000,4.000000,4.000000,4.000000,4.000000,4.000000,100.000000,,,,,,,,,,,,,,,,,,,,,,,,,,,,,,,,,,,,,,,,,,,,,,,,,,,,,,,,,,,,,,,,,,,,,,,,,,,,,,,,,,,,,,,,,,,,,,,,,,,,,,,,,,,,,,,,,,,,,,,,,,,,,,,,,
1739354489.698964,1739354489.699360,58.000000,0.000000,4261.794922,4271.666504,4333.717773,4409.230957,4293.846191,4294.487305,4272.436035,4357.307617,4275.128418,4216.282227,4545.128418,4538.205078,4423.077148,4409.615234,0.000000,1.000000,17.000000,,,,0.000000,4.000000,4.000000,4.000000,4.000000,4.000000,4.000000,4.000000,4.000000,4.000000,4.000000,4.000000,4.000000,4.000000,4.000000,100.000000,,,,,,,,,,,,,,,,,,,,,,,,,,,,,,,,,,,,,,,,,,,,,,,,,,,,,,,,,,,,4.007479,2.052787,1.678014,1.490331,3.195617,5.368465,2.317084,1.491162,1.012064,2.877036,2.610229,1.953145,1.192613,1.398854,2.781365,3.510548,2.017462,1.223624,1.102169,3.106689,3.937269,0.878864,0.947956,0.923359,2.407891,4.010108,0.841893,0.732377,1.022078,2.353722,4.106722,1.475953,0.822616,1.150901,2.745233,3.670646,0.506232,0.682268,0.419174,0.826428,3.545310,0.998059,0.610160,1.232321,3.003650,4.578089,1.942514,1.202361,1.661891,3.515271,64.090691,8.539710,4.481023,2.229763,2.856076,5.064240,2.620765,1.639448,2.233090,4.473473,3.130749,1.554429,0.854434,1.226538,2.702607,3.629697,1.383321,1.105071,1.424233,2.961454
1739354489.706771,1739354489.707168,59.000000,0.000000,4268.077148,4276.538574,4337.692383,4412.179688,4296.794922,4299.487305,4272.307617,4356.666504,4265.128418,4206.666504,4553.846191,4539.230957,4425.256348,4416.282227,0.000000,1.000000,17.000000,,,,0.000000,4.000000,4.000000,4.000000,4.000000,4.000000,4.000000,4.000000,4.000000,4.000000,4.000000,4.000000,4.000000,4.000000,4.000000,100.000000,,,,,,,,,,,,,,,,,,,,,,,,,,,,,,,,,,,,,,,,,,,,,,,,,,,,,,,,,,,,,,,,,,,,,,,,,,,,,,,,,,,,,,,,,,,,,,,,,,,,,,,,,,,,,,,,,,,,,,,,,,,,,,,,,
1739354489.714580,1739354489.715076,60.000000,0.000000,4291.922852,4296.666504,4357.692383,4431.538574,4315.512695,4315.641113,4291.794922,4366.025879,4287.436035,4228.205078,4580.897461,4565.641113,4442.436035,4440.256348,0.000000,1.000000,17.000000,,,,0.000000,4.000000,4.000000,4.000000,4.000000,4.000000,4.000000,4.000000,4.000000,4.000000,4.000000,4.000000,4.000000,4.000000,4.000000,100.000000,,,,,,,,,,,,,,,,,15.000000,0.000000,0.327887,0.478699,-0.510986,0.634216,0.940056,-0.351605,0.020999,-38.471992,-30.718359,43.420567,,,,,,,,,,,,,,,,,,,,,,,,,,,,,,,,,,,,,,,,,,,,,,,,,,,,,,,,,,,,,,,,,,,,,,,,,,,,,,,,,,,,,,,,,,,,,,,,,,,,,
1739354489.722388,1739354489.722884,61.000000,0.000000,4294.871582,4296.282227,4362.692383,4435.000000,4317.692383,4317.436035,4299.615234,4368.974121,4299.102539,4248.974121,4592.692383,4575.384766,4446.666504,4446.410156,0.000000,1.000000,17.000000,,,,0.000000,4.000000,4.000000,4.000000,4.000000,4.000000,4.000000,4.000000,4.000000,4.000000,4.000000,4.000000,4.000000,4.000000,4.000000,100.000000,,,,,,,,,,,,,,,,,,,,,,,,,,,,,,,,,,,,,,,,,,,,,,,,,,,,,,,,,,,,,,,,,,,,,,,,,,,,,,,,,,,,,,,,,,,,,,,,,,,,,,,,,,,,,,,,,,,,,,,,,,,,,,,,,
1739354489.730196,1739354489.730792,62.000000,0.000000,4284.743652,4284.230957,4356.794922,4427.436035,4305.256348,4306.922852,4290.000000,4368.589844,4292.179688,4260.128418,4593.461426,4565.641113,4434.615234,4438.077148,0.000000,1.000000,17.000000,,,,0.000000,4.000000,4.000000,4.000000,4.000000,4.000000,4.000000,4.000000,4.000000,4.000000,4.000000,4.000000,4.000000,4.000000,4.000000,100.000000,,,,,,,,,,,,,,,,,,,,,,,,,,,,,,,,,,,,,,,,,,,,,,,,,,,,,,,,,,,,,,,,,,,,,,,,,,,,,,,,,,,,,,,,,,,,,,,,,,,,,,,,,,,,,,,,,,,,,,,,,,,,,,,,,
1739354489.738004,1739354489.738600,63.000000,0.000000,4292.307617,4292.307617,4363.205078,4439.871582,4308.077148,4308.461426,4291.538574,4372.436035,4300.897461,4275.256348,4603.589844,4573.333496,4430.769043,4441.410156,0.000000,1.000000,17.000000,,,,0.000000,4.000000,4.000000,4.000000,4.000000,4.000000,4.000000,4.000000,4.000000,4.000000,4.000000,4.000000,4.000000,4.000000,4.000000,100.000000,,,,,,,,,,,,,,,,,,,,,,,,,,,,,,,,,,,,,,,,,,,,,,,,,,,,,,,,,,,,,,,,,,,,,,,,,,,,,,,,,,,,,,,,,,,,,,,,,,,,,,,,,,,,,,,,,,,,,,,,,,,,,,,,,
1739354489.745812,1739354489.746508,64.000000,0.000000,4300.512695,4302.563965,4372.436035,4453.205078,4317.436035,4319.230957,4303.589844,4378.077148,4317.436035,4289.615234,4615.769043,4591.666504,4438.205078,4449.487305,5095.000000,1.000000,17.000000,,,,0.000000,4.000000,4.000000,4.000000,4.000000,4.000000,4.000000,4.000000,4.000000,4.000000,4.000000,4.000000,4.000000,4.000000,4.000000,100.000000,,,,,,,,,,,,,,,,,16.000000,0.000000,0.328078,0.478699,-0.510864,0.634216,0.953241,-0.345257,0.014650,-38.508125,-30.696524,43.545177,,,,,,,,,,,,,,,,,,,,,,,,,,,,,,,,,,,,,,,,,,,,,,,,,,,,,,,,,,,,,,,,,,,,,,,,,,,,,,,,,,,,,,,,,,,,,,,,,,,,,
1739354489.753620,1739354489.754316,65.000000,0.000000,4287.692383,4287.692383,4363.077148,4438.589844,4311.025879,4313.205078,4299.871582,4374.615234,4310.512695,4284.487305,4612.820313,4582.948730,4433.205078,4437.820313,5467.000000,1.000000,17.000000,,,,0.000000,4.000000,4.000000,4.000000,4.000000,4.000000,4.000000,4.000000,4.000000,4.000000,4.000000,4.000000,4.000000,4.000000,4.000000,100.000000,,,,,,,,,,,,,,,,,,,,,,,,,,,,,,,,,,,,,,,,,,,,,,,,,,,,,,,,,,,,,,,,,,,,,,,,,,,,,,,,,,,,,,,,,,,,,,,,,,,,,,,,,,,,,,,,,,,,,,,,,,,,,,,,,
1739354489.761428,1739354489.762124,66.000000,0.000000,4284.487305,4283.461426,4358.846191,4430.512695,4310.641113,4307.948730,4298.461426,4372.436035,4307.051270,4277.307617,4619.230957,4576.794922,4432.436035,4435.641113,5487.000000,1.000000,17.000000,,,,0.000000,4.000000,4.000000,4.000000,4.000000,4.000000,4.000000,4.000000,4.000000,4.000000,4.000000,4.000000,4.000000,4.000000,4.000000,100.000000,,,,,,,,,,,,,,,,,,,,,,,,,,,,,,,,,,,,,,,,,,,,,,,,,,,,,,,,,,,,,,,,,,,,,,,,,,,,,,,,,,,,,,,,,,,,,,,,,,,,,,,,,,,,,,,,,,,,,,,,,,,,,,,,,
1739354489.769236,1739354489.770032,67.000000,0.000000,4311.025879,4310.256348,4383.461426,4455.512695,4332.820313,4332.051270,4323.333496,4384.230957,4330.256348,4297.179688,4649.871582,4609.102539,4452.820313,4464.358887,5390.000000,1.000000,17.000000,,,,0.000000,4.000000,4.000000,4.000000,4.000000,4.000000,4.000000,4.000000,4.000000,4.000000,4.000000,4.000000,4.000000,4.000000,4.000000,100.000000,,,,,,,,,,,,,,,,,,,,,,,,,,,,,,,,,,,,,,,,,,,,,,,,,,,,,,,,,,,,,,,,,,,,,,,,,,,,,,,,,,,,,,,,,,,,,,,,,,,,,,,,,,,,,,,,,,,,,,,,,,,,,,,,,
1739354489.777044,1739354489.777840,68.000000,0.000000,4327.948730,4325.000000,4399.871582,4471.153809,4348.461426,4355.128418,4343.717773,4392.051270,4342.692383,4315.512695,4668.461426,4630.769043,4466.794922,4478.717773,5365.000000,1.000000,17.000000,,,,0.000000,4.000000,4.000000,4.000000,4.000000,4.000000,4.000000,4.000000,4.000000,4.000000,4.000000,4.000000,4.000000,4.000000,4.000000,100.000000,,,,,,,,,,,,,,,,,17.000000,0.000000,0.328207,0.478821,-0.510742,0.634155,0.924918,-0.339885,0.021487,-38.507313,-30.726871,43.573994,,,,,,,,,,,,,,,,,,,,,,,,,,,,,,,,,,,,,,,,,,,,,,,,,,,,,,,,,,,,,,,,,,,,,,,,,,,,,,,,,,,,,,,,,,,,,,,,,,,,,
1739354489.784852,1739354489.785649,69.000000,0.000000,4309.358887,4308.717773,4380.769043,4454.743652,4338.205078,4341.153809,4328.974121,4381.025879,4323.589844,4296.025879,4657.051270,4605.128418,4456.794922,4457.820313,5392.000000,1.000000,17.000000,,,,0.000000,4.000000,4.000000,4.000000,4.000000,4.000000,4.000000,4.000000,4.000000,4.000000,4.000000,4.000000,4.000000,4.000000,4.000000,100.000000,,,,,,,,,,,,,,,,,,,,,,,,,,,,,,,,,,,,,,,,,,,,,,,,,,,,,,,,,,,,,,,,,,,,,,,,,,,,,,,,,,,,,,,,,,,,,,,,,,,,,,,,,,,,,,,,,,,,,,,,,,,,,,,,,
1739354489.792660,1739354489.793357,70.000000,0.000000,4311.666504,4315.000000,4378.333496,4463.717773,4340.384766,4338.717773,4324.615234,4377.436035,4322.563965,4289.358887,4667.563965,4601.538574,4459.230957,4461.538574,5357.000000,1.000000,17.000000,,,,0.000000,4.000000,4.000000,4.000000,4.000000,4.000000,4.000000,4.000000,4.000000,4.000000,4.000000,4.000000,4.000000,4.000000,4.000000,100.000000,,,,,,,,,,,,,,,,,,,,,,,,,,,,,,,,,,,,,,,,,,,,,,,,,,,,,,,,,,,,,,,,,,,,,,,,,,,,,,,,,,,,,,,,,,,,,,,,,,,,,,,,,,,,,,,,,,,,,,,,,,,,,,,,,
1739354489.800469,1739354489.801165,71.000000,0.000000,4327.692383,4330.769043,4391.410156,4481.538574,4347.051270,4348.461426,4329.743652,4380.897461,4330.641113,4300.384766,4686.282227,4619.358887,4467.563965,4476.025879,2717.000000,1.000000,17.000000,,,,0.000000,4.000000,4.000000,4.000000,4.000000,4.000000,4.000000,4.000000,4.000000,4.000000,4.000000,4.000000,4.000000,4.000000,4.000000,100.000000,,,,,,,,,,,,,,,,,,,,,,,,,,,,,,,,,,,,,,,,,,,,,,,,,,,,,,,,,,,,,,,,,,,,,,,,,,,,,,,,,,,,,,,,,,,,,,,,,,,,,,,,,,,,,,,,,,,,,,,,,,,,,,,,,
1739354489.808277,1739354489.808873,72.000000,0.000000,4311.153809,4314.615234,4377.051270,4460.256348,4328.589844,4327.436035,4310.128418,4373.974121,4309.743652,4281.922852,4670.256348,4600.512695,4455.128418,4456.025879,5166.000000,1.000000,17.000000,,,,0.000000,4.000000,4.000000,4.000000,4.000000,4.000000,4.000000,4.000000,4.000000,4.000000,4.000000,4.000000,4.000000,4.000000,4.000000,100.000000,,,,,,,,,,,,,,,,,18.000000,0.000000,0.328254,0.479309,-0.510254,0.634155,0.934196,-0.318887,0.020022,-38.406582,-30.787518,43.516594,,,,,,,,,,,,,,,,,,,,,,,,,,,,,,,,,,,,,,,,,,,,,,,,,,,,,,,,,,,,,,,,,,,,,,,,,,,,,,,,,,,,,,,,,,,,,,,,,,,,,
1739354489.816085,1739354489.816681,73.000000,0.000000,4315.384766,4323.205078,4381.282227,4464.230957,4330.256348,4327.051270,4315.897461,4379.871582,4313.333496,4282.692383,4674.743652,4604.230957,4461.538574,4461.025879,5502.000000,1.000000,17.000000,,,,0.000000,4.000000,4.000000,4.000000,4.000000,4.000000,4.000000,4.000000,4.000000,4.000000,4.000000,4.000000,4.000000,4.000000,4.000000,100.000000,,,,,,,,,,,,,,,,,,,,,,,,,,,,,,,,,,,,,,,,,,,,,,,,,,,,,,,,,,,,,,,,,,,,,,,,,,,,,,,,,,,,,,,,,,,,,,,,,,,,,,,,,,,,,,,,,,,,,,,,,,,,,,,,,
1739354489.823893,1739354489.824389,74.000000,0.000000,4346.153809,4356.025879,4406.666504,4498.846191,4350.897461,4354.358887,4346.666504,4393.205078,4344.487305,4317.948730,4709.358887,4640.641113,4483.717773,4492.692383,4988.000000,1.000000,17.000000,,,,0.000000,4.000000,4.000000,4.000000,4.000000,4.000000,4.000000,4.000000,4.000000,4.000000,4.000000,4.000000,4.000000,4.000000,4.000000,100.000000,1.000000,0.000000,0.000000,1.000000,0.000000,0.000000,0.000000,0.000000,0.000000,1.000000,0.000000,0.000000,0.000000,0.000000,1.000000,1.000000,,,,,,,,,,,,,,,,,,,,,,,,,,,,,,,,,,,,,,,,,,,,3.718500,2.247974,2.043398,1.462145,2.839104,4.426874,2.258942,1.690382,0.985900,2.517167,2.587705,2.146693,1.482598,1.414572,2.475887,3.281782,2.020342,1.575864,1.072920,2.709116,3.738220,0.996594,1.068401,0.910224,2.107019,3.796874,0.968278,0.680951,1.063560,2.049916,4.057645,1.622630,0.868633,1.164623,2.448990,3.946789,0.566052,0.692453,0.414847,0.751625,3.879982,1.159262,0.543302,1.219465,2.736986,5.258090,2.176584,1.177297,1.673284,3.184008,46.324272,6.363492,3.605454,1.953802,2.642924,4.974161,3.083058,1.984818,2.211212,3.993913,3.466153,1.685920,0.893511,1.219693,2.411114,3.704534,1.512892,1.337816,1.405440,2.627418
1739354489.831701,1739354489.832197,75.000000,0.000000,4341.410156,4347.948730,4396.153809,4491.410156,4345.512695,4349.615234,4342.179688,4388.846191,4339.743652,4314.871582,4710.512695,4628.717773,4478.077148,4488.333496,5417.000000,1.000000,17.000000,,,,0.000000,4.000000,4.000000,4.000000,4.000000,4.000000,4.000000,4.000000,4.000000,4.000000,4.000000,4.000000,4.000000,4.000000,4.000000,100.000000,,,,,,,,,,,,,,,,,,,,,,,,,,,,,,,,,,,,,,,,,,,,,,,,,,,,,,,,,,,,,,,,,,,,,,,,,,,,,,,,,,,,,,,,,,,,,,,,,,,,,,,,,,,,,,,,,,,,,,,,,,,,,,,,,
1739354489.839509,1739354489.839905,76.000000,0.000000,4329.615234,4333.461426,4386.025879,4476.410156,4338.205078,4338.461426,4332.307617,4388.974121,4328.974121,4296.410156,4698.333496,4610.000000,4470.000000,4480.512695,5524.000000,1.000000,17.000000,,,,0.000000,4.000000,4.000000,4.000000,4.000000,4.000000,4.000000,4.000000,4.000000,4.000000,4.000000,4.000000,4.000000,4.000000,4.000000,100.000000,,,,,,,,,,,,,,,,,19.000000,0.000000,0.328641,0.479919,-0.509583,0.634033,0.928336,-0.335490,0.019045,-38.382591,-30.692099,43.498268,,,,,,,,,,,,,,,,,,,,,,,,,,,,,,,,,,,,,,,,,,,,,,,,,,,,,,,,,,,,,,,,,,,,,,,,,,,,,,,,,,,,,,,,,,,,,,,,,,,,,
1739354489.847317,1739354489.847713,77.000000,0.000000,4340.384766,4341.410156,4398.974121,4487.436035,4342.179688,4344.358887,4341.153809,4394.743652,4340.000000,4306.025879,4711.025879,4630.769043,4478.461426,4489.743652,6569.000000,1.000000,17.000000,,,,0.000000,4.000000,4.000000,4.000000,4.000000,4.000000,4.000000,4.000000,4.000000,4.000000,4.000000,4.000000,4.000000,4.000000,4.000000,100.000000,,,,,,,,,,,,,,,,,,,,,,,,,,,,,,,,,,,,,,,,,,,,,,,,,,,,,,,,,,,,,,,,,,,,,,,,,,,,,,,,,,,,,,,,,,,,,,,,,,,,,,,,,,,,,,,,,,,,,,,,,,,,,,,,,
1739354489.855125,1739354489.855421,78.000000,0.000000,4332.436035,4333.846191,4388.846191,4480.256348,4330.256348,4333.077148,4330.641113,4383.974121,4330.384766,4302.179688,4710.769043,4628.461426,4472.051270,4477.436035,4988.000000,1.000000,17.000000,,,,0.000000,4.000000,4.000000,4.000000,4.000000,4.000000,4.000000,4.000000,4.000000,4.000000,4.000000,4.000000,4.000000,4.000000,4.000000,100.000000,,,,,,,,,,,,,,,,,,,,,,,,,,,,,,,,,,,,,,,,,,,,,,,,,,,,,,,,,,,,,,,,,,,,,,,,,,,,,,,,,,,,,,,,,,,,,,,,,,,,,,,,,,,,,,,,,,,,,,,,,,,,,,,,,
1739354489.862933,1739354489.863329,79.000000,0.000000,4324.871582,4328.717773,4383.205078,4473.589844,4329.102539,4331.025879,4325.897461,4381.153809,4322.563965,4292.948730,4706.282227,4618.461426,4464.743652,4473.717773,5417.000000,1.000000,17.000000,,,,0.000000,4.000000,4.000000,4.000000,4.000000,4.000000,4.000000,4.000000,4.000000,4.000000,4.000000,4.000000,4.000000,4.000000,4.000000,100.000000,,,,,,,,,,,,,,,,,,,,,,,,,,,,,,,,,,,,,,,,,,,,,,,,,,,,,,,,,,,,,,,,,,,,,,,,,,,,,,,,,,,,,,,,,,,,,,,,,,,,,,,,,,,,,,,,,,,,,,,,,,,,,,,,,
1739354489.870741,1739354489.871137,80.000000,0.000000,4345.641113,4346.025879,4409.615234,4494.615234,4352.307617,4358.205078,4354.102539,4394.102539,4347.563965,4314.487305,4730.000000,4645.769043,4480.897461,4496.794922,5524.000000,1.000000,17.000000,,,,0.000000,4.000000,4.000000,4.000000,4.000000,4.000000,4.000000,4.000000,4.000000,4.000000,4.000000,4.000000,4.000000,4.000000,4.000000,100.000000,,,,,,,,,,,,,,,,,20.000000,0.000000,0.328841,0.480591,-0.508972,0.633911,0.942986,-0.341839,0.015627,-38.410999,-30.739555,43.565105,,,,,,,,,,,,,,,,,,,,,,,,,,,,,,,,,,,,,,,,,,,,,,,,,,,,,,,,,,,,,,,,,,,,,,,,,,,,,,,,,,,,,,,,,,,,,,,,,,,,,
1739354489.878549,1739354489.879045,81.000000,0.000000,4347.436035,4347.307617,4407.436035,4497.436035,4349.358887,4358.077148,4357.179688,4391.410156,4349.743652,4319.358887,4736.666504,4647.563965,4481.025879,4493.077148,6569.000000,1.000000,17.000000,,,,0.000000,4.000000,4.000000,4.000000,4.000000,4.000000,4.000000,4.000000,4.000000,4.000000,4.000000,4.000000,4.000000,4.000000,4.000000,100.000000,,,,,,,,,,,,,,,,,,,,,,,,,,,,,,,,,,,,,,,,,,,,,,,,,,,,,,,,,,,,,,,,,,,,,,,,,,,,,,,,,,,,,,,,,,,,,,,,,,,,,,,,,,,,,,,,,,,,,,,,,,,,,,,,,
1739354489.886357,1739354489.886854,82.000000,0.000000,4334.358887,4345.384766,4387.563965,4486.922852,4336.922852,4343.589844,4340.000000,4385.769043,4331.666504,4299.871582,4726.538574,4627.692383,4467.563965,4481.922852,4988.000000,1.000000,17.000000,,,,0.000000,4.000000,4.000000,4.000000,4.000000,4.000000,4.000000,4.000000,4.000000,4.000000,4.000000,4.000000,4.000000,4.000000,4.000000,100.000000,,,,,,,,,,,,,,,,,,,,,,,,,,,,,,,,,,,,,,,,,,,,,,,,,,,,,,,,,,,,,,,,,,,,,,,,,,,,,,,,,,,,,,,,,,,,,,,,,,,,,,,,,,,,,,,,,,,,,,,,,,,,,,,,,
1739354489.894165,1739354489.894762,83.000000,0.000000,4345.256348,4360.384766,4400.256348,4496.538574,4347.563965,4353.589844,4348.205078,4393.461426,4341.410156,4308.205078,4738.589844,4645.512695,4478.717773,4501.153809,5417.000000,1.000000,17.000000,,,,0.000000,4.000000,4.000000,4.000000,4.000000,4.000000,4.000000,4.000000,4.000000,4.000000,4.000000,4.000000,4.000000,4.000000,4.000000,100.000000,,,,,,,,,,,,,,,,,,,,,,,,,,,,,,,,,,,,,,,,,,,,,,,,,,,,,,,,,,,,,,,,,,,,,,,,,,,,,,,,,,,,,,,,,,,,,,,,,,,,,,,,,,,,,,,,,,,,,,,,,,,,,,,,,
1739354489.901974,1739354489.902570,84.000000,0.000000,4344.487305,4348.717773,4398.846191,4493.205078,4340.512695,4344.487305,4342.563965,4390.512695,4341.153809,4311.025879,4736.410156,4644.871582,4477.436035,4498.461426,5524.000000,1.000000,17.000000,,,,0.000000,4.000000,4.000000,4.000000,4.000000,4.000000,4.000000,4.000000,4.000000,4.000000,4.000000,4.000000,4.000000,4.000000,4.000000,100.000000,,,,,,,,,,,,,,,,,21.000000,0.000000,0.329273,0.480957,-0.508423,0.633850,0.937126,-0.338909,0.014162,-38.519897,-30.732267,43.658596,,,,,,,,,,,,,,,,,,,,,,,,,,,,,,,,,,,,,,,,,,,,,,,,,,,,,,,,,,,,,,,,,,,,,,,,,,,,,,,,,,,,,,,,,,,,,,,,,,,,,
1739354489.909782,1739354489.910478,85.000000,0.000000,4332.563965,4332.436035,4381.922852,4485.000000,4325.000000,4326.794922,4325.128418,4383.205078,4327.820313,4293.846191,4720.769043,4622.051270,4459.871582,4480.641113,6569.000000,1.000000,17.000000,,,,0.000000,4.000000,4.000000,4.000000,4.000000,4.000000,4.000000,4.000000,4.000000,4.000000,4.000000,4.000000,4.000000,4.000000,4.000000,100.000000,,,,,,,,,,,,,,,,,,,,,,,,,,,,,,,,,,,,,,,,,,,,,,,,,,,,,,,,,,,,,,,,,,,,,,,,,,,,,,,,,,,,,,,,,,,,,,,,,,,,,,,,,,,,,,,,,,,,,,,,,,,,,,,,,
1739354489.917590,1739354489.918286,86.000000,0.000000,4355.128418,4359.871582,4402.820313,4508.974121,4346.922852,4348.717773,4347.051270,4394.102539,4347.820313,4307.820313,4742.820313,4647.436035,4476.410156,4504.230957,4988.000000,1.000000,17.000000,,,,0.000000,4.000000,4.000000,4.000000,4.000000,4.000000,4.000000,4.000000,4.000000,4.000000,4.000000,4.000000,4.000000,4.000000,4.000000,100.000000,,,,,,,,,,,,,,,,,,,,,,,,,,,,,,,,,,,,,,,,,,,,,,,,,,,,,,,,,,,,,,,,,,,,,,,,,,,,,,,,,,,,,,,,,,,,,,,,,,,,,,,,,,,,,,,,,,,,,,,,,,,,,,,,,
1739354489.925398,1739354489.926194,87.000000,0.000000,4363.333496,4370.512695,4416.282227,4518.077148,4359.871582,4359.871582,4361.153809,4398.333496,4356.538574,4318.974121,4756.153809,4662.051270,4489.871582,4517.307617,5417.000000,1.000000,17.000000,,,,0.000000,4.000000,4.000000,4.000000,4.000000,4.000000,4.000000,4.000000,4.000000,4.000000,4.000000,4.000000,4.000000,4.000000,4.000000,100.000000,,,,,,,,,,,,,,,,,,,,,,,,,,,,,,,,,,,,,,,,,,,,,,,,,,,,,,,,,,,,,,,,,,,,,,,,,,,,,,,,,,,,,,,,,,,,,,,,,,,,,,,,,,,,,,,,,,,,,,,,,,,,,,,,,
1739354489.933206,1739354489.934001,88.000000,0.000000,4343.461426,4346.153809,4398.461426,4497.179688,4343.717773,4343.461426,4344.230957,4390.897461,4338.846191,4306.025879,4741.538574,4633.589844,4476.922852,4493.205078,5524.000000,1.000000,17.000000,,,,0.000000,4.000000,4.000000,4.000000,4.000000,4.000000,4.000000,4.000000,4.000000,4.000000,4.000000,4.000000,4.000000,4.000000,4.000000,100.000000,,,,,,,,,,,,,,,,,22.000000,0.000000,0.329796,0.481323,-0.508118,0.633545,0.943475,-0.322793,0.015139,-38.517910,-30.659040,43.676071,,,,,,,,,,,,,,,,,,,,,,,,,,,,,,,,,,,,,,,,,,,,,,,,,,,,,,,,,,,,,,,,,,,,,,,,,,,,,,,,,,,,,,,,,,,,,,,,,,,,,
1739354489.941014,1739354489.941809,89.000000,0.000000,4340.769043,4339.230957,4393.205078,4488.589844,4340.128418,4342.563965,4341.794922,4392.563965,4338.974121,4307.307617,4747.563965,4629.743652,4471.410156,4486.153809,6569.000000,1.000000,17.000000,,,,0.000000,4.000000,4.000000,4.000000,4.000000,4.000000,4.000000,4.000000,4.000000,4.000000,4.000000,4.000000,4.000000,4.000000,4.000000,100.000000,,,,,,,,,,,,,,,,,,,,,,,,,,,,,,,,,,,,,,,,,,,,,,,,,,,,,,,,,,,,,,,,,,,,,,,,,,,,,,,,,,,,,,,,,,,,,,,,,,,,,,,,,,,,,,,,,,,,,,,,,,,,,,,,,
1739354489.948822,1739354489.949617,90.000000,0.000000,4328.589844,4332.563965,4382.307617,4479.615234,4332.307617,4334.230957,4332.179688,4385.128418,4327.307617,4293.589844,4743.461426,4625.256348,4459.358887,4482.820313,4988.000000,1.000000,17.000000,,,,0.000000,4.000000,4.000000,4.000000,4.000000,4.000000,4.000000,4.000000,4.000000,4.000000,4.000000,4.000000,4.000000,4.000000,4.000000,100.000000,,,,,,,,,,,,,,,,,,,,,,,,,,,,,,,,,,,,,,,,,,,,,,,,,,,,,,,,,,,,3.502309,2.385059,2.335751,1.442957,2.388062,3.856509,2.218308,1.887069,1.009149,2.078331,2.576151,2.266017,1.728199,1.450046,2.080336,3.141737,2.002262,1.871287,1.106649,2.218638,3.520436,1.097277,1.217341,0.913049,1.736507,3.587960,1.167778,0.715098,1.095223,1.692812,4.071435,1.929625,1.010760,1.188113,2.069148,3.774854,0.573834,0.669536,0.397593,0.645712,3.941738,1.257890,0.547299,1.233008,2.361729,5.527104,2.267459,1.205805,1.703739,2.729693,31.237303,4.133158,2.754333,1.706669,2.306988,4.791249,3.398887,2.284398,2.195503,3.345985,3.653236,1.679098,0.977107,1.189206,2.040660,3.585559,1.615751,1.549477,1.383322,2.195995
1739354489.956630,1739354489.957326,91.000000,0.000000,4310.384766,4317.692383,4363.717773,4468.205078,4318.461426,4317.051270,4312.820313,4369.743652,4304.871582,4267.820313,4723.974121,4602.563965,4444.615234,4467.307617,5417.000000,1.000000,17.000000,,,,0.000000,4.000000,4.000000,4.000000,4.000000,4.000000,4.000000,4.000000,4.000000,4.000000,4.000000,4.000000,4.000000,4.000000,4.000000,100.000000,,,,,,,,,,,,,,,,,,,,,,,,,,,,,,,,,,,,,,,,,,,,,,,,,,,,,,,,,,,,,,,,,,,,,,,,,,,,,,,,,,,,,,,,,,,,,,,,,,,,,,,,,,,,,,,,,,,,,,,,,,,,,,,,,
1739354489.964438,1739354489.965133,92.000000,0.000000,4336.922852,4340.256348,4384.358887,4492.692383,4339.358887,4338.333496,4334.615234,4381.282227,4328.589844,4294.871582,4747.948730,4627.307617,4464.615234,4484.743652,5524.000000,1.000000,17.000000,,,,0.000000,4.000000,4.000000,4.000000,4.000000,4.000000,4.000000,4.000000,4.000000,4.000000,4.000000,4.000000,4.000000,4.000000,4.000000,100.000000,,,,,,,,,,,,,,,,,23.000000,0.000000,0.330373,0.481506,-0.507874,0.633301,0.936638,-0.331095,0.020999,-38.516117,-30.559803,43.775131,,,,,,,,,,,,,,,,,,,,,,,,,,,,,,,,,,,,,,,,,,,,,,,,,,,,,,,,,,,,,,,,,,,,,,,,,,,,,,,,,,,,,,,,,,,,,,,,,,,,,
1739354489.972246,1739354489.972842,93.000000,0.000000,4365.769043,4369.615234,4412.179688,4519.358887,4363.846191,4363.205078,4364.615234,4398.717773,4359.743652,4330.128418,4780.769043,4661.538574,4490.512695,4512.051270,6569.000000,1.000000,17.000000,,,,0.000000,4.000000,4.000000,4.000000,4.000000,4.000000,4.000000,4.000000,4.000000,4.000000,4.000000,4.000000,4.000000,4.000000,4.000000,100.000000,,,,,,,,,,,,,,,,,,,,,,,,,,,,,,,,,,,,,,,,,,,,,,,,,,,,,,,,,,,,,,,,,,,,,,,,,,,,,,,,,,,,,,,,,,,,,,,,,,,,,,,,,,,,,,,,,,,,,,,,,,,,,,,,,
1739354489.980054,1739354489.980650,94.000000,0.000000,4351.922852,4358.589844,4401.922852,4507.179688,4355.128418,4350.641113,4354.102539,4392.948730,4351.410156,4315.128418,4771.410156,4649.230957,4484.615234,4505.000000,4988.000000,1.000000,17.000000,,,,0.000000,4.000000,4.000000,4.000000,4.000000,4.000000,4.000000,4.000000,4.000000,4.000000,4.000000,4.000000,4.000000,4.000000,4.000000,100.000000,,,,,,,,,,,,,,,,,,,,,,,,,,,,,,,,,,,,,,,,,,,,,,,,,,,,,,,,,,,,,,,,,,,,,,,,,,,,,,,,,,,,,,,,,,,,,,,,,,,,,,,,,,,,,,,,,,,,,,,,,,,,,,,,,
1739354489.987862,1739354489.988358,95.000000,0.000000,4345.769043,4348.461426,4392.820313,4502.820313,4348.589844,4346.025879,4342.948730,4389.358887,4345.769043,4303.077148,4765.897461,4643.461426,4476.666504,4499.230957,5417.000000,1.000000,17.000000,,,,0.000000,4.000000,4.000000,4.000000,4.000000,4.000000,4.000000,4.000000,4.000000,4.000000,4.000000,4.000000,4.000000,4.000000,4.000000,100.000000,,,,,,,,,,,,,,,,,,,,,,,,,,,,,,,,,,,,,,,,,,,,,,,,,,,,,,,,,,,,,,,,,,,,,,,,,,,,,,,,,,,,,,,,,,,,,,,,,,,,,,,,,,,,,,,,,,,,,,,,,,,,,,,,,
1739354489.995670,1739354489.996166,96.000000,0.000000,4361.666504,4364.358887,4406.153809,4520.512695,4362.563965,4362.563965,4356.538574,4397.179688,4356.410156,4316.922852,4783.205078,4662.692383,4476.282227,4513.077148,5524.000000,1.000000,17.000000,,,,0.000000,4.000000,4.000000,4.000000,4.000000,4.000000,4.000000,4.000000,4.000000,4.000000,4.000000,4.000000,4.000000,4.000000,4.000000,100.000000,,,,,,,,,,,,,,,,,24.000000,0.000000,0.330523,0.481628,-0.507813,0.633179,0.942498,-0.324747,0.012697,-38.547840,-30.603823,43.830952,,,,,,,,,,,,,,,,,,,,,,,,,,,,,,,,,,,,,,,,,,,,,,,,,,,,,,,,,,,,,,,,,,,,,,,,,,,,,,,,,,,,,,,,,,,,,,,,,,,,,
1739354490.003479,1739354490.003874,97.000000,0.000000,4362.307617,4364.358887,4406.410156,4517.307617,4362.307617,4356.282227,4356.666504,4393.205078,4350.641113,4317.179688,4782.179688,4657.948730,4467.307617,4511.538574,6569.000000,1.000000,17.000000,,,,0.000000,4.000000,4.000000,4.000000,4.000000,4.000000,4.000000,4.000000,4.000000,4.000000,4.000000,4.000000,4.000000,4.000000,4.000000,100.000000,,,,,,,,,,,,,,,,,,,,,,,,,,,,,,,,,,,,,,,,,,,,,,,,,,,,,,,,,,,,,,,,,,,,,,,,,,,,,,,,,,,,,,,,,,,,,,,,,,,,,,,,,,,,,,,,,,,,,,,,,,,,,,,,,
1739354490.011287,1739354490.011682,98.000000,0.000000,4344.102539,4340.897461,4387.179688,4495.641113,4344.358887,4334.615234,4331.538574,4378.205078,4327.307617,4299.358887,4761.922852,4630.641113,4456.282227,4494.871582,4988.000000,1.000000,17.000000,,,,0.000000,4.000000,4.000000,4.000000,4.000000,4.000000,4.000000,4.000000,4.000000,4.000000,4.000000,4.000000,4.000000,4.000000,4.000000,100.000000,,,,,,,,,,,,,,,,,,,,,,,,,,,,,,,,,,,,,,,,,,,,,,,,,,,,,,,,,,,,,,,,,,,,,,,,,,,,,,,,,,,,,,,,,,,,,,,,,,,,,,,,,,,,,,,,,,,,,,,,,,,,,,,,,
1739354490.019095,1739354490.019390,99.000000,0.000000,4352.436035,4351.794922,4395.128418,4507.948730,4354.871582,4345.256348,4334.871582,4383.077148,4330.256348,4301.794922,4773.205078,4642.051270,4467.307617,4505.641113,5417.000000,1.000000,17.000000,,,,0.000000,4.000000,4.000000,4.000000,4.000000,4.000000,4.000000,4.000000,4.000000,4.000000,4.000000,4.000000,4.000000,4.000000,4.000000,100.000000,,,,,,,,,,,,,,,,,,,,,,,,,,,,,,,,,,,,,,,,,,,,,,,,,,,,,,,,,,,,,,,,,,,,,,,,,,,,,,,,,,,,,,,,,,,,,,,,,,,,,,,,,,,,,,,,,,,,,,,,,,,,,,,,,
1739354490.026903,1739354490.027198,100.000000,0.000000,4390.256348,4391.538574,4429.487305,4543.205078,4384.871582,4376.794922,4375.128418,4401.538574,4362.948730,4333.974121,4812.051270,4685.128418,4493.461426,4540.512695,5524.000000,1.000000,17.000000,,,,0.000000,4.000000,4.000000,4.000000,4.000000,4.000000,4.000000,4.000000,4.000000,4.000000,4.000000,4.000000,4.000000,4.000000,4.000000,100.000000,,,,,,,,,,,,,,,,,25.000000,0.000000,0.331046,0.481750,-0.507813,0.632813,0.957148,-0.331095,0.014162,-38.559723,-30.576775,43.781189,,,,,,,,,,,,,,,,,,,,,,,,,,,,,,,,,,,,,,,,,,,,,,,,,,,,,,,,,,,,,,,,,,,,,,,,,,,,,,,,,,,,,,,,,,,,,,,,,,,,,
1739354490.034711,1739354490.034906,101.000000,0.000000,4402.307617,4398.974121,4437.948730,4549.230957,4384.230957,4378.333496,4385.256348,4400.897461,4371.538574,4352.179688,4822.563965,4693.974121,4500.512695,4552.820313,6569.000000,1.000000,17.000000,,,,0.000000,4.000000,4.000000,4.000000,4.000000,4.000000,4.000000,4.000000,4.000000,4.000000,4.000000,4.000000,4.000000,4.000000,4.000000,100.000000,,,,,,,,,,,,,,,,,,,,,,,,,,,,,,,,,,,,,,,,,,,,,,,,,,,,,,,,,,,,,,,,,,,,,,,,,,,,,,,,,,,,,,,,,,,,,,,,,,,,,,,,,,,,,,,,,,,,,,,,,,,,,,,,,
1739354490.042519,1739354490.042714,102.000000,0.000000,4388.717773,4384.487305,4422.820313,4535.384766,4369.102539,4360.769043,4359.615234,4388.205078,4346.794922,4329.615234,4806.025879,4670.000000,4487.436035,4536.794922,4988.000000,1.000000,17.000000,,,,0.000000,4.000000,4.000000,4.000000,4.000000,4.000000,4.000000,4.000000,4.000000,4.000000,4.000000,4.000000,4.000000,4.000000,4.000000,100.000000,,,,,,,,,,,,,,,,,,,,,,,,,,,,,,,,,,,,,,,,,,,,,,,,,,,,,,,,,,,,,,,,,,,,,,,,,,,,,,,,,,,,,,,,,,,,,,,,,,,,,,,,,,,,,,,,,,,,,,,,,,,,,,,,,
1739354490.050327,1739354490.050422,103.000000,0.000000,4396.922852,4392.948730,4429.615234,4544.230957,4384.743652,4370.256348,4363.589844,4392.307617,4350.128418,4322.179688,4812.563965,4676.794922,4490.897461,4539.102539,5417.000000,1.000000,17.000000,,,,0.000000,4.000000,4.000000,4.000000,4.000000,4.000000,4.000000,4.000000,4.000000,4.000000,4.000000,4.000000,4.000000,4.000000,4.000000,100.000000,,,,,,,,,,,,,,,,,,,,,,,,,,,,,,,,,,,,,,,,,,,,,,,,,,,,,,,,,,,,,,,,,,,,,,,,,,,,,,,,,,,,,,,,,,,,,,,,,,,,,,,,,,,,,,,,,,,,,,,,,,,,,,,,,
1739354490.058135,1739354490.058330,104.000000,0.000000,4400.384766,4392.692383,4436.538574,4550.769043,4393.461426,4382.307617,4376.538574,4398.461426,4366.794922,4337.051270,4823.205078,4688.589844,4498.974121,4547.820313,5524.000000,1.000000,17.000000,,,,0.000000,4.000000,4.000000,4.000000,4.000000,4.000000,4.000000,4.000000,4.000000,4.000000,4.000000,4.000000,4.000000,4.000000,4.000000,100.000000,,,,,,,,,,,,,,,,,26.000000,0.000000,0.331949,0.481995,-0.507751,0.632202,0.937614,-0.333048,0.020510,-38.653751,-30.469097,43.769737,,,,,,,,,,,,,,,,,,,,,,,,,,,,,,,,,,,,,,,,,,,,,,,,,,,,,,,,,,,,,,,,,,,,,,,,,,,,,,,,,,,,,,,,,,,,,,,,,,,,,
1739354490.065943,1739354490.066138,105.000000,0.000000,4386.794922,4382.948730,4430.128418,4546.410156,4383.717773,4378.717773,4372.692383,4397.436035,4362.051270,4341.153809,4818.974121,4679.230957,4493.846191,4541.282227,6569.000000,1.000000,17.000000,,,,0.000000,4.000000,4.000000,4.000000,4.000000,4.000000,4.000000,4.000000,4.000000,4.000000,4.000000,4.000000,4.000000,4.000000,4.000000,100.000000,,,,,,,,,,,,,,,,,,,,,,,,,,,,,,,,,,,,,,,,,,,,,,,,,,,,,,,,,,,,,,,,,,,,,,,,,,,,,,,,,,,,,,,,,,,,,,,,,,,,,,,,,,,,,,,,,,,,,,,,,,,,,,,,,
1739354490.073751,1739354490.074046,106.000000,0.000000,4391.922852,4394.358887,4437.179688,4556.282227,4396.666504,4386.153809,4383.205078,4403.077148,4369.871582,4350.256348,4830.384766,4690.897461,4496.153809,4544.615234,4988.000000,1.000000,17.000000,,,,0.000000,4.000000,4.000000,4.000000,4.000000,4.000000,4.000000,4.000000,4.000000,4.000000,4.000000,4.000000,4.000000,4.000000,4.000000,100.000000,,,,,,,,,,,,,,,,,,,,,,,,,,,,,,,,,,,,,,,,,,,,,,,,,,,,,,,,,,,,3.345725,2.418391,2.457293,1.449473,1.940355,3.488132,2.148891,1.995877,1.066911,1.652606,2.544410,2.259189,1.845174,1.505510,1.682695,3.084454,1.899171,2.026696,1.191377,1.751296,3.270000,1.128091,1.325655,0.927257,1.374189,3.362025,1.379809,0.796374,1.117868,1.357240,4.155602,2.333607,1.181982,1.232778,1.682581,3.293509,0.524427,0.611611,0.378688,0.531070,3.958415,1.305586,0.645628,1.299301,1.958935,5.418845,2.287352,1.307217,1.801884,2.231266,16.274090,2.400841,2.165893,1.575781,1.920499,4.546498,3.488334,2.424258,2.217778,2.676009,3.786637,1.559932,1.090932,1.164754,1.661644,3.449881,1.663048,1.682382,1.392057,1.763909
1739354490.081559,1739354490.081854,107.000000,0.000000,4400.256348,4402.436035,4447.179688,4565.384766,4415.256348,4400.897461,4398.974121,4404.743652,4383.333496,4364.230957,4843.333496,4705.641113,4502.307617,4552.179688,5417.000000,1.000000,17.000000,,,,0.000000,4.000000,4.000000,4.000000,4.000000,4.000000,4.000000,4.000000,4.000000,4.000000,4.000000,4.000000,4.000000,4.000000,4.000000,100.000000,,,,,,,,,,,,,,,,,,,,,,,,,,,,,,,,,,,,,,,,,,,,,,,,,,,,,,,,,,,,,,,,,,,,,,,,,,,,,,,,,,,,,,,,,,,,,,,,,,,,,,,,,,,,,,,,,,,,,,,,,,,,,,,,,
1739354490.089368,1739354490.089762,108.000000,0.000000,4393.589844,4397.692383,4441.153809,4559.487305,4411.282227,4398.717773,4393.846191,4397.307617,4370.897461,4361.153809,4831.666504,4692.563965,4500.128418,4547.179688,5524.000000,1.000000,17.000000,,,,0.000000,4.000000,4.000000,4.000000,4.000000,4.000000,4.000000,4.000000,4.000000,4.000000,4.000000,4.000000,4.000000,4.000000,4.000000,100.000000,,,,,,,,,,,,,,,,,27.000000,0.000000,0.332552,0.481995,-0.507813,0.631836,0.936149,-0.326700,0.020999,-38.655041,-30.405519,43.642761,,,,,,,,,,,,,,,,,,,,,,,,,,,,,,,,,,,,,,,,,,,,,,,,,,,,,,,,,,,,,,,,,,,,,,,,,,,,,,,,,,,,,,,,,,,,,,,,,,,,,
1739354490.097175,1739354490.097571,109.000000,0.000000,4380.641113,4386.538574,4422.820313,4545.384766,4393.077148,4378.205078,4372.948730,4390.512695,4345.769043,4335.769043,4808.717773,4669.102539,4487.692383,4531.794922,6569.000000,1.000000,17.000000,,,,0.000000,4.000000,4.000000,4.000000,4.000000,4.000000,4.000000,4.000000,4.000000,4.000000,4.000000,4.000000,4.000000,4.000000,4.000000,100.000000,,,,,,,,,,,,,,,,,,,,,,,,,,,,,,,,,,,,,,,,,,,,,,,,,,,,,,,,,,,,,,,,,,,,,,,,,,,,,,,,,,,,,,,,,,,,,,,,,,,,,,,,,,,,,,,,,,,,,,,,,,,,,,,,,
1739354490.104984,1739354490.105479,110.000000,0.000000,4375.512695,4377.307617,4418.461426,4538.205078,4387.563965,4374.230957,4368.717773,4389.743652,4344.871582,4324.743652,4806.922852,4668.846191,4482.051270,4529.230957,4988.000000,1.000000,17.000000,,,,0.000000,4.000000,4.000000,4.000000,4.000000,4.000000,4.000000,4.000000,4.000000,4.000000,4.000000,4.000000,4.000000,4.000000,4.000000,100.000000,,,,,,,,,,,,,,,,,,,,,,,,,,,,,,,,,,,,,,,,,,,,,,,,,,,,,,,,,,,,,,,,,,,,,,,,,,,,,,,,,,,,,,,,,,,,,,,,,,,,,,,,,,,,,,,,,,,,,,,,,,,,,,,,,
1739354490.112792,1739354490.113287,111.000000,0.000000,4398.717773,4394.358887,4442.692383,4555.641113,4406.922852,4398.589844,4393.333496,4399.358887,4373.717773,4354.743652,4837.051270,4698.333496,4506.666504,4554.487305,5417.000000,1.000000,17.000000,,,,0.000000,4.000000,4.000000,4.000000,4.000000,4.000000,4.000000,4.000000,4.000000,4.000000,4.000000,4.000000,4.000000,4.000000,4.000000,100.000000,,,,,,,,,,,,,,,,,,,,,,,,,,,,,,,,,,,,,,,,,,,,,,,,,,,,,,,,,,,,,,,,,,,,,,,,,,,,,,,,,,,,,,,,,,,,,,,,,,,,,,,,,,,,,,,,,,,,,,,,,,,,,,,,,
1739354490.120600,1739354490.121194,112.000000,0.000000,4437.563965,4426.025879,4471.410156,4579.487305,4428.205078,4417.948730,4417.692383,4411.794922,4401.922852,4394.358887,4863.461426,4732.307617,4536.538574,4583.974121,5524.000000,1.000000,17.000000,,,,0.000000,4.000000,4.000000,4.000000,4.000000,4.000000,4.000000,4.000000,4.000000,4.000000,4.000000,4.000000,4.000000,4.000000,4.000000,100.000000,,,,,,,,,,,,,,,,,28.000000,0.000000,0.332736,0.481995,-0.507996,0.631592,0.958613,-0.313515,0.019534,-38.606205,-30.348301,43.561821,,,,,,,,,,,,,,,,,,,,,,,,,,,,,,,,,,,,,,,,,,,,,,,,,,,,,,,,,,,,,,,,,,,,,,,,,,,,,,,,,,,,,,,,,,,,,,,,,,,,,
1739354490.128408,1739354490.129002,113.000000,0.000000,4452.436035,4435.256348,4477.692383,4582.563965,4429.230957,4417.563965,4415.512695,4408.974121,4408.717773,4407.436035,4862.948730,4743.461426,4538.589844,4589.102539,6569.000000,1.000000,17.000000,,,,0.000000,4.000000,4.000000,4.000000,4.000000,4.000000,4.000000,4.000000,4.000000,4.000000,4.000000,4.000000,4.000000,4.000000,4.000000,100.000000,,,,,,,,,,,,,,,,,,,,,,,,,,,,,,,,,,,,,,,,,,,,,,,,,,,,,,,,,,,,,,,,,,,,,,,,,,,,,,,,,,,,,,,,,,,,,,,,,,,,,,,,,,,,,,,,,,,,,,,,,,,,,,,,,
1739354490.136216,1739354490.136710,114.000000,0.000000,4430.000000,4416.153809,4457.563965,4565.384766,4412.051270,4407.436035,4392.692383,4392.820313,4388.974121,4385.384766,4841.025879,4716.153809,4518.077148,4568.846191,4988.000000,1.000000,17.000000,,,,0.000000,4.000000,4.000000,4.000000,4.000000,4.000000,4.000000,4.000000,4.000000,4.000000,4.000000,4.000000,4.000000,4.000000,4.000000,100.000000,,,,,,,,,,,,,,,,,,,,,,,,,,,,,,,,,,,,,,,,,,,,,,,,,,,,,,,,,,,,,,,,,,,,,,,,,,,,,,,,,,,,,,,,,,,,,,,,,,,,,,,,,,,,,,,,,,,,,,,,,,,,,,,,,
1739354490.144024,1739354490.144518,115.000000,0.000000,4416.922852,4408.333496,4446.538574,4561.153809,4406.282227,4406.922852,4388.589844,4391.410156,4378.717773,4368.205078,4831.538574,4697.563965,4513.333496,4561.794922,5417.000000,1.000000,17.000000,,,,0.000000,4.000000,4.000000,4.000000,4.000000,4.000000,4.000000,4.000000,4.000000,4.000000,4.000000,4.000000,4.000000,4.000000,4.000000,100.000000,,,,,,,,,,,,,,,,,,,,,,,,,,,,,,,,,,,,,,,,,,,,,,,,,,,,,,,,,,,,,,,,,,,,,,,,,,,,,,,,,,,,,,,,,,,,,,,,,,,,,,,,,,,,,,,,,,,,,,,,,,,,,,,,,
1739354490.151832,1739354490.152226,116.000000,0.000000,4441.538574,4430.769043,4470.769043,4580.769043,4425.256348,4427.179688,4412.179688,4405.128418,4396.666504,4386.153809,4852.179688,4722.948730,4532.820313,4584.743652,5524.000000,1.000000,17.000000,,,,0.000000,4.000000,4.000000,4.000000,4.000000,4.000000,4.000000,4.000000,4.000000,4.000000,4.000000,4.000000,4.000000,4.000000,4.000000,100.000000,,,,,,,,,,,,,,,,,29.000000,0.000000,0.332963,0.481934,-0.508057,0.631470,0.936149,-0.331583,0.025394,-38.562252,-30.380138,43.455639,,,,,,,,,,,,,,,,,,,,,,,,,,,,,,,,,,,,,,,,,,,,,,,,,,,,,,,,,,,,,,,,,,,,,,,,,,,,,,,,,,,,,,,,,,,,,,,,,,,,,
1739354490.159640,1739354490.160034,117.000000,0.000000,4471.794922,4457.179688,4499.487305,4603.333496,4451.153809,4452.692383,4439.102539,4415.769043,4422.563965,4422.179688,4884.230957,4757.307617,4555.641113,4612.307617,6569.000000,1.000000,17.000000,,,,0.000000,4.000000,4.000000,4.000000,4.000000,4.000000,4.000000,4.000000,4.000000,4.000000,4.000000,4.000000,4.000000,4.000000,4.000000,100.000000,,,,,,,,,,,,,,,,,,,,,,,,,,,,,,,,,,,,,,,,,,,,,,,,,,,,,,,,,,,,,,,,,,,,,,,,,,,,,,,,,,,,,,,,,,,,,,,,,,,,,,,,,,,,,,,,,,,,,,,,,,,,,,,,,
1739354490.167448,1739354490.167743,118.000000,0.000000,4456.922852,4441.025879,4485.000000,4588.333496,4444.615234,4443.846191,4427.563965,4405.512695,4415.897461,4416.025879,4876.410156,4741.025879,4548.205078,4601.410156,4988.000000,1.000000,17.000000,,,,0.000000,4.000000,4.000000,4.000000,4.000000,4.000000,4.000000,4.000000,4.000000,4.000000,4.000000,4.000000,4.000000,4.000000,4.000000,100.000000,,,,,,,,,,,,,,,,,,,,,,,,,,,,,,,,,,,,,,,,,,,,,,,,,,,,,,,,,,,,,,,,,,,,,,,,,,,,,,,,,,,,,,,,,,,,,,,,,,,,,,,,,,,,,,,,,,,,,,,,,,,,,,,,,
1739354490.175256,1739354490.175551,119.000000,0.000000,4429.102539,4418.461426,4460.512695,4565.641113,4427.820313,4430.641113,4405.384766,4392.948730,4391.666504,4383.077148,4849.487305,4708.846191,4527.563965,4580.897461,5417.000000,1.000000,17.000000,,,,0.000000,4.000000,4.000000,4.000000,4.000000,4.000000,4.000000,4.000000,4.000000,4.000000,4.000000,4.000000,4.000000,4.000000,4.000000,100.000000,,,,,,,,,,,,,,,,,,,,,,,,,,,,,,,,,,,,,,,,,,,,,,,,,,,,,,,,,,,,,,,,,,,,,,,,,,,,,,,,,,,,,,,,,,,,,,,,,,,,,,,,,,,,,,,,,,,,,,,,,,,,,,,,,
1739354490.183064,1739354490.183259,120.000000,0.000000,4456.666504,4450.769043,4482.948730,4592.436035,4449.615234,4454.743652,4425.384766,4409.102539,4418.589844,4411.538574,4877.436035,4737.820313,4548.846191,4608.846191,5524.000000,1.000000,17.000000,,,,0.000000,4.000000,4.000000,4.000000,4.000000,4.000000,4.000000,4.000000,4.000000,4.000000,4.000000,4.000000,4.000000,4.000000,4.000000,100.000000,,,,,,,,,,,,,,,,,30.000000,0.000000,0.333321,0.481750,-0.507996,0.631470,0.944451,-0.320352,0.020022,-38.489357,-30.458792,43.393406,,,,,,,,,,,,,,,,,,,,,,,,,,,,,,,,,,,,,,,,,,,,,,,,,,,,,,,,,,,,,,,,,,,,,,,,,,,,,,,,,,,,,,,,,,,,,,,,,,,,,
1739354490.190873,1739354490.191067,121.000000,0.000000,4473.077148,4464.358887,4492.051270,4607.179688,4455.512695,4457.051270,4432.563965,4412.948730,4437.051270,4435.641113,4893.589844,4751.794922,4558.717773,4621.025879,6569.000000,1.000000,17.000000,,,,0.000000,4.000000,4.000000,4.000000,4.000000,4.000000,4.000000,4.000000,4.000000,4.000000,4.000000,4.000000,4.000000,4.000000,4.000000,100.000000,,,,,,,,,,,,,,,,,,,,,,,,,,,,,,,,,,,,,,,,,,,,,,,,,,,,,,,,,,,,,,,,,,,,,,,,,,,,,,,,,,,,,,,,,,,,,,,,,,,,,,,,,,,,,,,,,,,,,,,,,,,,,,,,,
1739354490.198681,1739354490.198775,122.000000,0.000000,4448.589844,4435.641113,4470.128418,4584.871582,4433.077148,4437.948730,4412.179688,4396.025879,4406.922852,4402.948730,4865.512695,4721.282227,4538.589844,4596.666504,4988.000000,1.000000,17.000000,,,,0.000000,4.000000,4.000000,4.000000,4.000000,4.000000,4.000000,4.000000,4.000000,4.000000,4.000000,4.000000,4.000000,4.000000,4.000000,100.000000,,,,,,,,,,,,,,,,,,,,,,,,,,,,,,,,,,,,,,,,,,,,,,,,,,,,,,,,,,,,3.189861,2.323167,2.345913,1.484169,1.582632,3.347766,2.016739,1.941817,1.138476,1.319486,2.471220,2.106539,1.773782,1.568670,1.366147,2.977652,1.665342,1.968836,1.303255,1.406716,3.048101,1.069681,1.333791,0.947938,1.086396,3.179876,1.537012,0.866842,1.136872,1.107439,4.230362,2.715115,1.306012,1.308272,1.364413,2.554148,0.441816,0.534191,0.369044,0.431575,3.832291,1.329953,0.830889,1.419687,1.611833,4.983283,2.324005,1.478023,1.982633,1.785557,8.942097,1.396585,1.826546,1.581891,1.577319,4.191457,3.331124,2.325803,2.275386,2.130734,3.700797,1.381666,1.198532,1.167465,1.343252,3.175651,1.638224,1.691051,1.444864,1.424134
1739354490.206489,1739354490.206683,123.000000,0.000000,4456.538574,4445.897461,4482.563965,4594.230957,4441.794922,4453.589844,4420.256348,4399.743652,4412.179688,4406.025879,4873.205078,4729.615234,4549.743652,4607.563965,5417.000000,1.000000,17.000000,,,,0.000000,4.000000,4.000000,4.000000,4.000000,4.000000,4.000000,4.000000,4.000000,4.000000,4.000000,4.000000,4.000000,4.000000,4.000000,100.000000,,,,,,,,,,,,,,,,,,,,,,,,,,,,,,,,,,,,,,,,,,,,,,,,,,,,,,,,,,,,,,,,,,,,,,,,,,,,,,,,,,,,,,,,,,,,,,,,,,,,,,,,,,,,,,,,,,,,,,,,,,,,,,,,,
1739354490.214297,1739354490.214491,124.000000,0.000000,4483.205078,4472.563965,4507.820313,4618.077148,4462.948730,4476.025879,4446.282227,4408.589844,4443.333496,4441.538574,4899.743652,4756.794922,4572.307617,4633.846191,5524.000000,1.000000,17.000000,,,,0.000000,4.000000,4.000000,4.000000,4.000000,4.000000,4.000000,4.000000,4.000000,4.000000,4.000000,4.000000,4.000000,4.000000,4.000000,100.000000,,,,,,,,,,,,,,,,,31.000000,0.000000,0.333502,0.481689,-0.507935,0.631470,0.928336,-0.326700,0.021975,-38.523758,-30.462912,43.354065,,,,,,,,,,,,,,,,,,,,,,,,,,,,,,,,,,,,,,,,,,,,,,,,,,,,,,,,,,,,,,,,,,,,,,,,,,,,,,,,,,,,,,,,,,,,,,,,,,,,,
1739354490.222105,1739354490.222399,125.000000,0.000000,4488.717773,4468.589844,4511.794922,4623.205078,4472.051270,4482.307617,4459.743652,4401.922852,4446.794922,4455.897461,4902.820313,4760.384766,4576.922852,4637.948730,6569.000000,1.000000,17.000000,,,,0.000000,4.000000,4.000000,4.000000,4.000000,4.000000,4.000000,4.000000,4.000000,4.000000,4.000000,4.000000,4.000000,4.000000,4.000000,100.000000,,,,,,,,,,,,,,,,,,,,,,,,,,,,,,,,,,,,,,,,,,,,,,,,,,,,,,,,,,,,,,,,,,,,,,,,,,,,,,,,,,,,,,,,,,,,,,,,,,,,,,,,,,,,,,,,,,,,,,,,,,,,,,,,,
1739354490.229913,1739354490.230207,126.000000,0.000000,4496.922852,4471.282227,4514.487305,4632.948730,4481.282227,4492.692383,4468.717773,4389.487305,4452.948730,4469.871582,4904.230957,4763.846191,4579.871582,4640.769043,4988.000000,1.000000,17.000000,,,,0.000000,4.000000,4.000000,4.000000,4.000000,4.000000,4.000000,4.000000,4.000000,4.000000,4.000000,4.000000,4.000000,4.000000,4.000000,100.000000,,,,,,,,,,,,,,,,,,,,,,,,,,,,,,,,,,,,,,,,,,,,,,,,,,,,,,,,,,,,,,,,,,,,,,,,,,,,,,,,,,,,,,,,,,,,,,,,,,,,,,,,,,,,,,,,,,,,,,,,,,,,,,,,,
1739354490.237721,1739354490.238015,127.000000,0.000000,4521.282227,4496.538574,4532.948730,4656.410156,4495.384766,4513.461426,4485.000000,4391.153809,4485.128418,4494.871582,4920.256348,4784.358887,4592.820313,4658.205078,17.000000,1.000000,17.000000,,,,0.000000,4.000000,4.000000,4.000000,4.000000,4.000000,4.000000,4.000000,4.000000,4.000000,4.000000,4.000000,4.000000,4.000000,4.000000,100.000000,,,,,,,,,,,,,,,,,,,,,,,,,,,,,,,,,,,,,,,,,,,,,,,,,,,,,,,,,,,,,,,,,,,,,,,,,,,,,,,,,,,,,,,,,,,,,,,,,,,,,,,,,,,,,,,,,,,,,,,,,,,,,,,,,
1739354490.245529,1739354490.245724,0.000000,0.000000,4532.692383,4507.948730,4547.051270,4672.179688,4502.563965,4522.563965,4491.410156,4413.461426,4496.410156,4495.769043,4931.153809,4799.230957,4603.717773,4672.820313,5066.000000,1.000000,17.000000,,,,0.000000,4.000000,4.000000,4.000000,4.000000,4.000000,4.000000,4.000000,4.000000,4.000000,4.000000,4.000000,4.000000,4.000000,4.000000,100.000000,,,,,,,,,,,,,,,,,0.000000,0.000000,0.334290,0.481689,-0.507568,0.631348,0.931266,-0.351605,0.016604,-38.404713,-30.399954,43.351994,,,,,,,,,,,,,,,,,,,,,,,,,,,,,,,,,,,,,,,,,,,,,,,,,,,,,,,,,,,,,,,,,,,,,,,,,,,,,,,,,,,,,,,,,,,,,,,,,,,,,
1739354490.253337,1739354490.253532,1.000000,0.000000,4537.820313,4510.512695,4549.230957,4680.384766,4505.512695,4521.153809,4490.897461,4442.948730,4487.307617,4487.307617,4943.205078,4806.153809,4611.666504,4683.846191,5422.000000,1.000000,17.000000,,,,0.000000,4.000000,4.000000,4.000000,4.000000,4.000000,4.000000,4.000000,4.000000,4.000000,4.000000,4.000000,4.000000,4.000000,4.000000,100.000000,,,,,,,,,,,,,,,,,,,,,,,,,,,,,,,,,,,,,,,,,,,,,,,,,,,,,,,,,,,,,,,,,,,,,,,,,,,,,,,,,,,,,,,,,,,,,,,,,,,,,,,,,,,,,,,,,,,,,,,,,,,,,,,,,
1739354490.261145,1739354490.261240,2.000000,0.000000,4557.307617,4529.871582,4561.282227,4699.102539,4515.000000,4534.102539,4504.358887,4458.589844,4495.641113,4497.179688,4969.743652,4824.358887,4625.384766,4705.000000,5444.000000,1.000000,17.000000,,,,0.000000,4.000000,4.000000,4.000000,4.000000,4.000000,4.000000,4.000000,4.000000,4.000000,4.000000,4.000000,4.000000,4.000000,4.000000,100.000000,,,,,,,,,,,,,,,,,,,,,,,,,,,,,,,,,,,,,,,,,,,,,,,,,,,,,,,,,,,,,,,,,,,,,,,,,,,,,,,,,,,,,,,,,,,,,,,,,,,,,,,,,,,,,,,,,,,,,,,,,,,,,,,,,
1739354490.268953,1739354490.269148,3.000000,0.000000,4593.333496,4566.794922,4593.333496,4737.692383,4546.922852,4571.794922,4540.897461,4470.384766,4528.589844,4524.230957,5011.666504,4863.333496,4654.230957,4739.487305,5359.000000,1.000000,17.000000,,,,0.000000,4.000000,4.000000,4.000000,4.000000,4.000000,4.000000,4.000000,4.000000,4.000000,4.000000,4.000000,4.000000,4.000000,4.000000,100.000000,,,,,,,,,,,,,,,,,,,,,,,,,,,,,,,,,,,,,,,,,,,,,,,,,,,,,,,,,,,,,,,,,,,,,,,,,,,,,,,,,,,,,,,,,,,,,,,,,,,,,,,,,,,,,,,,,,,,,,,,,,,,,,,,,
1739354490.276761,1739354490.276956,4.000000,0.000000,4630.128418,4601.666504,4627.436035,4779.871582,4583.589844,4605.769043,4576.025879,4486.153809,4571.410156,4563.333496,5053.333496,4905.769043,4685.897461,4773.974121,5337.000000,1.000000,17.000000,,,,0.000000,4.000000,4.000000,4.000000,4.000000,4.000000,4.000000,4.000000,4.000000,4.000000,4.000000,4.000000,4.000000,4.000000,4.000000,100.000000,,,,,,,,,,,,,,,,,1.000000,0.000000,0.335364,0.481873,-0.507141,0.630981,0.968380,-0.317910,0.028324,-38.297577,-30.393291,43.383461,,,,,,,,,,,,,,,,,,,,,,,,,,,,,,,,,,,,,,,,,,,,,,,,,,,,,,,,,,,,,,,,,,,,,,,,,,,,,,,,,,,,,,,,,,,,,,,,,,,,,
1739354490.284569,1739354490.284864,5.000000,0.000000,4617.948730,4587.179688,4614.615234,4770.384766,4572.051270,4596.666504,4566.410156,4477.051270,4565.512695,4558.205078,5046.922852,4888.589844,4673.717773,4761.025879,5360.000000,1.000000,17.000000,,,,0.000000,4.000000,4.000000,4.000000,4.000000,4.000000,4.000000,4.000000,4.000000,4.000000,4.000000,4.000000,4.000000,4.000000,4.000000,100.000000,,,,,,,,,,,,,,,,,,,,,,,,,,,,,,,,,,,,,,,,,,,,,,,,,,,,,,,,,,,,,,,,,,,,,,,,,,,,,,,,,,,,,,,,,,,,,,,,,,,,,,,,,,,,,,,,,,,,,,,,,,,,,,,,,
1739354490.292378,1739354490.292672,6.000000,0.000000,4609.358887,4573.077148,4602.179688,4760.512695,4563.974121,4595.769043,4558.461426,4473.077148,4549.487305,4543.589844,5045.128418,4872.436035,4666.410156,4750.641113,5320.000000,1.000000,17.000000,,,,0.000000,4.000000,4.000000,4.000000,4.000000,4.000000,4.000000,4.000000,4.000000,4.000000,4.000000,4.000000,4.000000,4.000000,4.000000,100.000000,,,,,,,,,,,,,,,,,,,,,,,,,,,,,,,,,,,,,,,,,,,,,,,,,,,,,,,,,,,,,,,,,,,,,,,,,,,,,,,,,,,,,,,,,,,,,,,,,,,,,,,,,,,,,,,,,,,,,,,,,,,,,,,,,
1739354490.300186,1739354490.300580,7.000000,0.000000,4650.000000,4610.897461,4635.000000,4801.538574,4598.974121,4628.205078,4585.000000,4488.205078,4576.794922,4576.410156,5081.666504,4915.000000,4697.051270,4783.077148,2690.000000,1.000000,17.000000,,,,0.000000,4.000000,4.000000,4.000000,4.000000,4.000000,4.000000,4.000000,4.000000,4.000000,4.000000,4.000000,4.000000,4.000000,4.000000,100.000000,,,,,,,,,,,,,,,,,,,,,,,,,,,,,,,,,,,,,,,,,,,,,,,,,,,,,,,,,,,,,,,,,,,,,,,,,,,,,,,,,,,,,,,,,,,,,,,,,,,,,,,,,,,,,,,,,,,,,,,,,,,,,,,,,
1739354490.307994,1739354490.308388,8.000000,0.000000,4674.230957,4632.051270,4651.538574,4822.051270,4615.769043,4642.948730,4599.487305,4492.436035,4593.846191,4594.871582,5097.436035,4936.153809,4709.487305,4798.589844,5106.000000,1.000000,17.000000,,,,0.000000,4.000000,4.000000,4.000000,4.000000,4.000000,4.000000,4.000000,4.000000,4.000000,4.000000,4.000000,4.000000,4.000000,4.000000,100.000000,,,,,,,,,,,,,,,,,2.000000,0.000000,0.335983,0.482178,-0.506897,0.630615,0.947870,-0.317422,0.014162,-38.384483,-30.503963,43.295116,,,,,,,,,,,,,,,,,,,,,,,,,,,,,,,,,,,,,,,,,,,,,,,,,,,,,,,,,,,,,,,,,,,,,,,,,,,,,,,,,,,,,,,,,,,,,,,,,,,,,
1739354490.315802,1739354490.316295,9.000000,0.000000,4679.102539,4627.948730,4650.512695,4820.512695,4618.205078,4651.922852,4610.000000,4496.282227,4597.307617,4595.641113,5102.307617,4933.717773,4712.563965,4798.589844,5439.000000,1.000000,17.000000,,,,0.000000,4.000000,4.000000,4.000000,4.000000,4.000000,4.000000,4.000000,4.000000,4.000000,4.000000,4.000000,4.000000,4.000000,4.000000,100.000000,,,,,,,,,,,,,,,,,,,,,,,,,,,,,,,,,,,,,,,,,,,,,,,,,,,,,,,,,,,,,,,,,,,,,,,,,,,,,,,,,,,,,,,,,,,,,,,,,,,,,,,,,,,,,,,,,,,,,,,,,,,,,,,,,
1739354490.323610,1739354490.324103,10.000000,0.000000,4694.871582,4638.974121,4661.922852,4837.436035,4636.025879,4677.051270,4634.102539,4506.282227,4614.743652,4614.358887,5097.436035,4948.205078,4722.692383,4806.666504,4938.000000,1.000000,17.000000,,,,0.000000,4.000000,4.000000,4.000000,4.000000,4.000000,4.000000,4.000000,4.000000,4.000000,4.000000,4.000000,4.000000,4.000000,4.000000,100.000000,1.000000,0.000000,1.000000,1.000000,0.000000,0.000000,0.000000,0.000000,0.000000,1.000000,1.000000,0.000000,0.000000,0.000000,1.000000,1.000000,,,,,,,,,,,,,,,,,,,,,,,,,,,,,,,,,,,,,,,,,,,,2.986144,2.143521,2.044730,1.541631,1.357823,3.262770,1.841054,1.733790,1.216668,1.118743,2.307545,1.845688,1.532727,1.629783,1.174862,2.880633,1.340105,1.731267,1.422542,1.225053,2.792662,0.942116,1.223810,0.979295,0.906161,2.918189,1.592207,0.876009,1.166889,0.969996,4.121880,2.940517,1.325724,1.426011,1.159079,1.844274,0.361474,0.457443,0.376123,0.363029,3.479870,1.367484,1.089450,1.579794,1.371884,4.270030,2.440794,1.705637,2.228334,1.465868,5.202034,0.978953,1.651914,1.685814,1.347195,3.727271,2.996588,2.023005,2.350368,1.794077,3.448962,1.217226,1.281350,1.209904,1.121716,2.881450,1.559845,1.590779,1.534725,1.225032
1739354490.331418,1739354490.332011,11.000000,0.000000,4703.846191,4646.538574,4670.641113,4849.615234,4649.487305,4694.230957,4647.692383,4511.922852,4625.897461,4629.615234,5056.025879,4963.333496,4726.538574,4815.384766,5360.000000,1.000000,17.000000,,,,0.000000,4.000000,4.000000,4.000000,4.000000,4.000000,4.000000,4.000000,4.000000,4.000000,4.000000,4.000000,4.000000,4.000000,4.000000,100.000000,,,,,,,,,,,,,,,,,,,,,,,,,,,,,,,,,,,,,,,,,,,,,,,,,,,,,,,,,,,,,,,,,,,,,,,,,,,,,,,,,,,,,,,,,,,,,,,,,,,,,,,,,,,,,,,,,,,,,,,,,,,,,,,,,
1739354490.339226,1739354490.339819,12.000000,0.000000,4708.205078,4644.230957,4675.641113,4851.153809,4651.538574,4696.410156,4651.025879,4515.512695,4624.743652,4633.846191,5026.794922,4971.922852,4735.384766,4826.666504,5454.000000,1.000000,17.000000,,,,0.000000,4.000000,4.000000,4.000000,4.000000,4.000000,4.000000,4.000000,4.000000,4.000000,4.000000,4.000000,4.000000,4.000000,4.000000,100.000000,,,,,,,,,,,,,,,,,3.000000,0.000000,0.336463,0.482483,-0.506592,0.630371,0.951776,-0.317910,0.008302,-38.479370,-30.553566,43.432270,,,,,,,,,,,,,,,,,,,,,,,,,,,,,,,,,,,,,,,,,,,,,,,,,,,,,,,,,,,,,,,,,,,,,,,,,,,,,,,,,,,,,,,,,,,,,,,,,,,,,
1739354490.347034,1739354490.347527,13.000000,0.000000,4721.282227,4648.333496,4687.820313,4858.333496,4652.820313,4700.512695,4655.641113,4516.410156,4625.512695,4639.615234,5033.461426,4983.461426,4746.153809,4838.846191,6494.000000,1.000000,17.000000,,,,0.000000,4.000000,4.000000,4.000000,4.000000,4.000000,4.000000,4.000000,4.000000,4.000000,4.000000,4.000000,4.000000,4.000000,4.000000,100.000000,,,,,,,,,,,,,,,,,,,,,,,,,,,,,,,,,,,,,,,,,,,,,,,,,,,,,,,,,,,,,,,,,,,,,,,,,,,,,,,,,,,,,,,,,,,,,,,,,,,,,,,,,,,,,,,,,,,,,,,,,,,,,,,,,
1739354490.354842,1739354490.355335,14.000000,0.000000,4726.410156,4652.436035,4692.179688,4862.948730,4652.179688,4704.102539,4651.410156,4509.358887,4622.051270,4635.769043,5028.589844,4985.641113,4741.922852,4837.820313,4938.000000,1.000000,17.000000,,,,0.000000,4.000000,4.000000,4.000000,4.000000,4.000000,4.000000,4.000000,4.000000,4.000000,4.000000,4.000000,4.000000,4.000000,4.000000,100.000000,,,,,,,,,,,,,,,,,,,,,,,,,,,,,,,,,,,,,,,,,,,,,,,,,,,,,,,,,,,,,,,,,,,,,,,,,,,,,,,,,,,,,,,,,,,,,,,,,,,,,,,,,,,,,,,,,,,,,,,,,,,,,,,,,
1739354490.362650,1739354490.363043,15.000000,0.000000,4730.128418,4658.205078,4690.384766,4868.077148,4657.307617,4710.256348,4651.794922,4501.410156,4619.487305,4632.051270,5019.358887,4980.641113,4740.641113,4841.153809,5360.000000,1.000000,17.000000,,,,0.000000,4.000000,4.000000,4.000000,4.000000,4.000000,4.000000,4.000000,4.000000,4.000000,4.000000,4.000000,4.000000,4.000000,4.000000,100.000000,,,,,,,,,,,,,,,,,,,,,,,,,,,,,,,,,,,,,,,,,,,,,,,,,,,,,,,,,,,,,,,,,,,,,,,,,,,,,,,,,,,,,,,,,,,,,,,,,,,,,,,,,,,,,,,,,,,,,,,,,,,,,,,,,
1739354490.370458,1739354490.370851,16.000000,0.000000,4736.282227,4663.077148,4693.205078,4874.358887,4662.051270,4714.487305,4658.974121,4501.410156,4625.000000,4639.871582,5028.205078,4981.922852,4746.794922,4850.384766,0.000000,1.000000,17.000000,,,,0.000000,4.000000,4.000000,4.000000,4.000000,4.000000,4.000000,4.000000,4.000000,4.000000,4.000000,4.000000,4.000000,4.000000,4.000000,100.000000,,,,,,,,,,,,,,,,,4.000000,0.000000,0.336853,0.482483,-0.506409,0.630310,0.956660,-0.320352,0.011720,-38.498100,-30.448210,43.455708,,,,,,,,,,,,,,,,,,,,,,,,,,,,,,,,,,,,,,,,,,,,,,,,,,,,,,,,,,,,,,,,,,,,,,,,,,,,,,,,,,,,,,,,,,,,,,,,,,,,,
1739354490.378266,1739354490.378559,17.000000,0.000000,4720.384766,4647.051270,4681.410156,4857.563965,4648.461426,4703.205078,4647.820313,4500.769043,4621.282227,4635.128418,5018.205078,4973.974121,4738.205078,4836.282227,0.000000,1.000000,17.000000,,,,0.000000,4.000000,4.000000,4.000000,4.000000,4.000000,4.000000,4.000000,4.000000,4.000000,4.000000,4.000000,4.000000,4.000000,4.000000,100.000000,,,,,,,,,,,,,,,,,,,,,,,,,,,,,,,,,,,,,,,,,,,,,,,,,,,,,,,,,,,,,,,,,,,,,,,,,,,,,,,,,,,,,,,,,,,,,,,,,,,,,,,,,,,,,,,,,,,,,,,,,,,,,,,,,
1739354490.386074,1739354490.386367,18.000000,0.000000,4721.538574,4650.769043,4681.922852,4854.743652,4650.384766,4707.692383,4648.589844,4509.230957,4626.922852,4636.282227,5016.922852,4982.307617,4744.487305,4839.358887,0.000000,1.000000,17.000000,,,,0.000000,4.000000,4.000000,4.000000,4.000000,4.000000,4.000000,4.000000,4.000000,4.000000,4.000000,4.000000,4.000000,4.000000,4.000000,100.000000,,,,,,,,,,,,,,,,,,,,,,,,,,,,,,,,,,,,,,,,,,,,,,,,,,,,,,,,,,,,,,,,,,,,,,,,,,,,,,,,,,,,,,,,,,,,,,,,,,,,,,,,,,,,,,,,,,,,,,,,,,,,,,,,,
1739354490.393882,1739354490.394075,19.000000,0.000000,4736.794922,4667.179688,4696.025879,4868.846191,4660.897461,4720.512695,4658.461426,4521.410156,4637.692383,4643.846191,5036.153809,4998.461426,4757.692383,4859.102539,0.000000,1.000000,17.000000,,,,0.000000,4.000000,4.000000,4.000000,4.000000,4.000000,4.000000,4.000000,4.000000,4.000000,4.000000,4.000000,4.000000,4.000000,4.000000,100.000000,,,,,,,,,,,,,,,,,,,,,,,,,,,,,,,,,,,,,,,,,,,,,,,,,,,,,,,,,,,,,,,,,,,,,,,,,,,,,,,,,,,,,,,,,,,,,,,,,,,,,,,,,,,,,,,,,,,,,,,,,,,,,,,,,
1739354490.401691,1739354490.401883,20.000000,0.000000,4726.153809,4653.461426,4691.282227,4859.487305,4654.102539,4721.922852,4658.077148,4522.179688,4633.846191,4634.487305,5036.025879,4989.871582,4750.641113,4853.846191,0.000000,1.000000,17.000000,,,,0.000000,4.000000,4.000000,4.000000,4.000000,4.000000,4.000000,4.000000,4.000000,4.000000,4.000000,4.000000,4.000000,4.000000,4.000000,100.000000,,,,,,,,,,,,,,,,,5.000000,0.000000,0.337047,0.482300,-0.506226,0.630493,0.946893,-0.318398,0.019534,-38.581623,-30.503389,43.460140,,,,,,,,,,,,,,,,,,,,,,,,,,,,,,,,,,,,,,,,,,,,,,,,,,,,,,,,,,,,,,,,,,,,,,,,,,,,,,,,,,,,,,,,,,,,,,,,,,,,,
1739354490.409499,1739354490.409591,21.000000,0.000000,4713.077148,4642.051270,4681.666504,4844.615234,4648.333496,4723.974121,4659.102539,4516.025879,4633.589844,4627.563965,5027.179688,4978.589844,4746.538574,4839.615234,0.000000,1.000000,17.000000,,,,0.000000,4.000000,4.000000,4.000000,4.000000,4.000000,4.000000,4.000000,4.000000,4.000000,4.000000,4.000000,4.000000,4.000000,4.000000,100.000000,,,,,,,,,,,,,,,,,,,,,,,,,,,,,,,,,,,,,,,,,,,,,,,,,,,,,,,,,,,,,,,,,,,,,,,,,,,,,,,,,,,,,,,,,,,,,,,,,,,,,,,,,,,,,,,,,,,,,,,,,,,,,,,,,
1739354490.417307,1739354490.417399,22.000000,0.000000,4699.615234,4635.000000,4670.384766,4830.000000,4640.769043,4715.769043,4646.666504,4507.948730,4621.282227,4613.461426,5012.948730,4962.948730,4734.487305,4827.051270,0.000000,1.000000,17.000000,,,,0.000000,4.000000,4.000000,4.000000,4.000000,4.000000,4.000000,4.000000,4.000000,4.000000,4.000000,4.000000,4.000000,4.000000,4.000000,100.000000,,,,,,,,,,,,,,,,,,,,,,,,,,,,,,,,,,,,,,,,,,,,,,,,,,,,,,,,,,,,,,,,,,,,,,,,,,,,,,,,,,,,,,,,,,,,,,,,,,,,,,,,,,,,,,,,,,,,,,,,,,,,,,,,,
1739354490.425115,1739354490.425108,23.000000,0.000000,4687.820313,4623.589844,4662.179688,4816.666504,4635.641113,4707.051270,4638.077148,4506.153809,4600.641113,4592.563965,5000.384766,4952.820313,4717.820313,4820.000000,0.000000,1.000000,17.000000,,,,0.000000,4.000000,4.000000,4.000000,4.000000,4.000000,4.000000,4.000000,4.000000,4.000000,4.000000,4.000000,4.000000,4.000000,4.000000,100.000000,,,,,,,,,,,,,,,,,,,,,,,,,,,,,,,,,,,,,,,,,,,,,,,,,,,,,,,,,,,,,,,,,,,,,,,,,,,,,,,,,,,,,,,,,,,,,,,,,,,,,,,,,,,,,,,,,,,,,,,,,,,,,,,,,
1739354490.432923,1739354490.432915,24.000000,0.000000,4704.615234,4638.974121,4676.666504,4828.333496,4649.230957,4724.230957,4657.692383,4513.205078,4613.205078,4605.000000,5015.128418,4971.922852,4733.077148,4835.769043,0.000000,1.000000,17.000000,,,,0.000000,4.000000,4.000000,4.000000,4.000000,4.000000,4.000000,4.000000,4.000000,4.000000,4.000000,4.000000,4.000000,4.000000,4.000000,100.000000,,,,,,,,,,,,,,,,,6.000000,0.000000,0.337015,0.482483,-0.505920,0.630615,0.944451,-0.318887,0.021487,-38.506794,-30.653049,43.397457,,,,,,,,,,,,,,,,,,,,,,,,,,,,,,,,,,,,,,,,,,,,,,,,,,,,,,,,,,,,,,,,,,,,,,,,,,,,,,,,,,,,,,,,,,,,,,,,,,,,,
1739354490.440731,1739354490.440624,25.000000,0.000000,4710.641113,4648.205078,4680.000000,4828.589844,4645.641113,4726.025879,4651.794922,4509.358887,4623.846191,4614.743652,5022.051270,4972.948730,4747.307617,4838.333496,0.000000,1.000000,17.000000,,,,0.000000,4.000000,4.000000,4.000000,4.000000,4.000000,4.000000,4.000000,4.000000,4.000000,4.000000,4.000000,4.000000,4.000000,4.000000,100.000000,,,,,,,,,,,,,,,,,,,,,,,,,,,,,,,,,,,,,,,,,,,,,,,,,,,,,,,,,,,,,,,,,,,,,,,,,,,,,,,,,,,,,,,,,,,,,,,,,,,,,,,,,,,,,,,,,,,,,,,,,,,,,,,,,
1739354490.448539,1739354490.448532,26.000000,0.000000,4673.333496,4616.153809,4650.128418,4796.794922,4613.717773,4693.333496,4610.384766,4494.615234,4594.230957,4579.230957,4992.692383,4932.179688,4721.282227,4806.922852,0.000000,1.000000,17.000000,,,,0.000000,4.000000,4.000000,4.000000,4.000000,4.000000,4.000000,4.000000,4.000000,4.000000,4.000000,4.000000,4.000000,4.000000,4.000000,100.000000,,,,,,,,,,,,,,,,,,,,,,,,,,,,,,,,,,,,,,,,,,,,,,,,,,,,,,,,,,,,2.706834,1.971380,1.681890,1.606331,1.262860,3.136282,1.680408,1.459360,1.300286,1.049436,2.076211,1.560349,1.213485,1.683081,1.104626,2.634849,1.016711,1.410854,1.529885,1.182469,2.474347,0.788186,1.023719,1.029048,0.829738,2.554644,1.531302,0.804992,1.221077,0.931557,3.771911,2.910762,1.230948,1.590435,1.071301,1.269417,0.320706,0.405844,0.402208,0.329924,2.874546,1.429385,1.391038,1.759978,1.250678,3.465029,2.609814,1.962230,2.500577,1.302752,4.235930,0.849949,1.483170,1.823321,1.251960,3.225348,2.599385,1.640826,2.421968,1.669920,2.974468,1.112821,1.333141,1.289563,0.993232,2.500791,1.467575,1.442464,1.635752,1.159839
1739354490.456347,1739354490.456340,27.000000,0.000000,4659.487305,4605.769043,4640.769043,4789.358887,4607.948730,4689.487305,4606.153809,4491.922852,4582.563965,4566.922852,4977.436035,4916.922852,4704.743652,4798.589844,0.000000,1.000000,17.000000,,,,0.000000,4.000000,4.000000,4.000000,4.000000,4.000000,4.000000,4.000000,4.000000,4.000000,4.000000,4.000000,4.000000,4.000000,4.000000,100.000000,,,,,,,,,,,,,,,,,,,,,,,,,,,,,,,,,,,,,,,,,,,,,,,,,,,,,,,,,,,,,,,,,,,,,,,,,,,,,,,,,,,,,,,,,,,,,,,,,,,,,,,,,,,,,,,,,,,,,,,,,,,,,,,,,
1739354490.464155,1739354490.464248,28.000000,0.000000,4676.153809,4623.333496,4652.692383,4802.820313,4621.922852,4706.410156,4620.897461,4497.179688,4601.794922,4589.743652,4983.205078,4928.846191,4720.641113,4811.794922,0.000000,1.000000,17.000000,,,,0.000000,4.000000,4.000000,4.000000,4.000000,4.000000,4.000000,4.000000,4.000000,4.000000,4.000000,4.000000,4.000000,4.000000,4.000000,100.000000,,,,,,,,,,,,,,,,,7.000000,0.000000,0.337009,0.482727,-0.505615,0.630676,0.936638,-0.317910,0.020022,-38.439449,-30.621078,43.474380,,,,,,,,,,,,,,,,,,,,,,,,,,,,,,,,,,,,,,,,,,,,,,,,,,,,,,,,,,,,,,,,,,,,,,,,,,,,,,,,,,,,,,,,,,,,,,,,,,,,,
1739354490.471963,1739354490.472056,29.000000,0.000000,4656.666504,4605.641113,4633.589844,4783.333496,4605.512695,4691.282227,4599.615234,4492.307617,4592.692383,4574.358887,4963.846191,4906.410156,4718.846191,4795.256348,0.000000,1.000000,17.000000,,,,0.000000,4.000000,4.000000,4.000000,4.000000,4.000000,4.000000,4.000000,4.000000,4.000000,4.000000,4.000000,4.000000,4.000000,4.000000,100.000000,,,,,,,,,,,,,,,,,,,,,,,,,,,,,,,,,,,,,,,,,,,,,,,,,,,,,,,,,,,,,,,,,,,,,,,,,,,,,,,,,,,,,,,,,,,,,,,,,,,,,,,,,,,,,,,,,,,,,,,,,,,,,,,,,
