Timestamp,OriginalTimestamp,EEG.Counter,EEG.Interpolated,EEG.AF3,EEG.F7,EEG.F3,EEG.FC5,EEG.T7,EEG.P7,EEG.O1,EEG.O2,EEG.P8,EEG.T8,EEG.FC6,EEG.F4,EEG.F8,EEG.AF4,EEG.RawCq,EEG.Battery,EEG.BatteryPercent,MarkerIndex,MarkerType,MarkerValueInt,EEG.MarkerHardware,CQ.AF3,CQ.F7,CQ.F3,CQ.FC5,CQ.T7,CQ.P7,CQ.O1,CQ.O2,CQ.P8,CQ.T8,CQ.FC6,CQ.F4,CQ.F8,CQ.AF4,CQ.Overall,EQ.SampleRateQuality,EQ.OVERALL,EQ.AF3,EQ.F7,EQ.F3,EQ.FC5,EQ.T7,EQ.P7,EQ.O1,EQ.O2,EQ.P8,EQ.T8,EQ.FC6,EQ.F4,EQ.F8,EQ.AF4,MOT.CounterMems,MOT.InterpolatedMems,MOT.Q0,MOT.Q1,MOT.Q2,MOT.Q3,MOT.AccX,MOT.AccY,MOT.AccZ,MOT.MagX,MOT.MagY,MOT.MagZ,PM.Attention.IsActive,PM.Attention.Scaled,PM.Attention.Raw,PM.Attention.Min,PM.Attention.Max,PM.Engagement.IsActive,PM.Engagement.Scaled,PM.Engagement.Raw,PM.Engagement.Min,PM.Engagement.Max,PM.Excitement.IsActive,PM.Excitement.Scaled,PM.Excitement.Raw,PM.Excitement.Min,PM.Excitement.Max,PM.LongTermExcitement,PM.Stress.IsActive,PM.Stress.Scaled,PM.Stress.Raw,PM.Stress.Min,PM.Stress.Max,PM.Relaxation.IsActive,PM.Relaxation.Scaled,PM.Relaxation.Raw,PM.Relaxation.Min,PM.Relaxation.Max,PM.Interest.IsActive,PM.Interest.Scaled,PM.Interest.Raw,PM.Interest.Min,PM.Interest.Max,POW.AF3.Theta,POW.AF3.Alpha,POW.AF3.BetaL,POW.AF3.BetaH,POW.AF3.Gamma,POW.F7.Theta,POW.F7.Alpha,POW.F7.BetaL,POW.F7.BetaH,POW.F7.Gamma,POW.F3.Theta,POW.F3.Alpha,POW.F3.BetaL,POW.F3.BetaH,POW.F3.Gamma,POW.FC5.Theta,POW.FC5.Alpha,POW.FC5.BetaL,POW.FC5.BetaH,POW.FC5.Gamma,POW.T7.Theta,POW.T7.Alpha,POW.T7.BetaL,POW.T7.BetaH,POW.T7.Gamma,POW.P7.Theta,POW.P7.Alpha,POW.P7.BetaL,POW.P7.BetaH,POW.P7.Gamma,POW.O1.Theta,POW.O1.Alpha,POW.O1.BetaL,POW.O1.BetaH,POW.O1.Gamma,POW.O2.Theta,POW.O2.Alpha,POW.O2.BetaL,POW.O2.BetaH,POW.O2.Gamma,POW.P8.Theta,POW.P8.Alpha,POW.P8.BetaL,POW.P8.BetaH,POW.P8.Gamma,POW.T8.Theta,POW.T8.Alpha,POW.T8.BetaL,POW.T8.BetaH,POW.T8.Gamma,POW.FC6.Theta,POW.FC6.Alpha,POW.FC6.BetaL,POW.FC6.BetaH,POW.FC6.Gamma,POW.F4.Theta,POW.F4.Alpha,POW.F4.BetaL,POW.F4.BetaH,POW.F4.Gamma,POW.F8.Theta,POW.F8.Alpha,POW.F8.BetaL,POW.F8.BetaH,POW.F8.Gamma,POW.AF4.Theta,POW.AF4.Alpha,POW.AF4.BetaL,POW.AF4.BetaH,POW.AF4.Gamma
1739355913.026274,1739355913.026841,75.000000,0.000000,4443.077148,4343.974121,4432.820313,4500.769043,4413.205078,4575.128418,4443.205078,4336.794922,4404.102539,4435.384766,4737.179688,4749.615234,4558.974121,4663.205078,5551.000000,0.000000,12.000000,,,,0.000000,4.000000,4.000000,4.000000,4.000000,4.000000,4.000000,4.000000,4.000000,4.000000,4.000000,4.000000,4.000000,4.000000,4.000000,100.000000,,,,,,,,,,,,,,,,,,,,,,,,,,,,,,,,,,,,,,,,,,,,,,,,,,,,,,,,,,,,,,,,,,,,,,,,,,,,,,,,,,,,,,,,,,,,,,,,,,,,,,,,,,,,,,,,,,,,,,,,,,,,,,,,,
1739355913.034082,1739355913.034750,76.000000,0.000000,4416.666504,4318.077148,4408.589844,4469.358887,4387.179688,4548.205078,4420.897461,4324.487305,4376.282227,4410.512695,4709.743652,4716.282227,4534.487305,4635.000000,5542.000000,0.000000,12.000000,,,,0.000000,4.000000,4.000000,4.000000,4.000000,4.000000,4.000000,4.000000,4.000000,4.000000,4.000000,4.000000,4.000000,4.000000,4.000000,100.000000,,,,,,,,,,,,,,,,,19.000000,0.000000,0.723327,-0.044983,-0.672180,0.151489,0.978635,-0.248565,0.091320,-38.321053,-33.014175,45.107803,,,,,,,,,,,,,,,,,,,,,,,,,,,,,,,,,,,,,,,,,,,,,,,,,,,,,,,,,,,,,,,,,,,,,,,,,,,,,,,,,,,,,,,,,,,,,,,,,,,,,
1739355913.041890,1739355913.042558,77.000000,0.000000,4411.282227,4314.102539,4401.666504,4459.743652,4389.615234,4541.794922,4413.077148,4325.897461,4368.974121,4401.922852,4704.230957,4707.051270,4532.179688,4633.461426,6432.000000,0.000000,12.000000,,,,0.000000,4.000000,4.000000,4.000000,4.000000,4.000000,4.000000,4.000000,4.000000,4.000000,4.000000,4.000000,4.000000,4.000000,4.000000,100.000000,,,,,,,,,,,,,,,,,,,,,,,,,,,,,,,,,,,,,,,,,,,,,,,,,,,,,,,,,,,,,,,,,,,,,,,,,,,,,,,,,,,,,,,,,,,,,,,,,,,,,,,,,,,,,,,,,,,,,,,,,,,,,,,,,
1739355913.049698,1739355913.050466,78.000000,0.000000,4448.461426,4351.282227,4435.641113,4497.051270,4419.871582,4573.333496,4442.179688,4339.358887,4405.000000,4433.846191,4743.205078,4749.615234,4569.743652,4672.948730,4879.000000,0.000000,12.000000,,,,0.000000,4.000000,4.000000,4.000000,4.000000,4.000000,4.000000,4.000000,4.000000,4.000000,4.000000,4.000000,4.000000,4.000000,4.000000,100.000000,,,,,,,,,,,,,,,,,,,,,,,,,,,,,,,,,,,,,,,,,,,,,,,,,,,,,,,,,,,,,,,,,,,,,,,,,,,,,,,,,,,,,,,,,,,,,,,,,,,,,,,,,,,,,,,,,,,,,,,,,,,,,,,,,
1739355913.057506,1739355913.058274,79.000000,0.000000,4471.025879,4372.179688,4455.769043,4512.436035,4427.948730,4589.358887,4459.102539,4340.641113,4417.307617,4450.256348,4757.820313,4770.641113,4585.641113,4685.384766,5551.000000,0.000000,12.000000,,,,0.000000,4.000000,4.000000,4.000000,4.000000,4.000000,4.000000,4.000000,4.000000,4.000000,4.000000,4.000000,4.000000,4.000000,4.000000,100.000000,,,,,,,,,,,,,,,,,,,,,,,,,,,,,,,,,,,,,,,,,,,,,,,,,,,,,,,,,,,,,,,,,,,,,,,,,,,,,,,,,,,,,,,,,,,,,,,,,,,,,,,,,,,,,,,,,,,,,,,,,,,,,,,,,
1739355913.065314,1739355913.066182,80.000000,0.000000,4452.820313,4354.871582,4438.589844,4484.615234,4411.282227,4568.333496,4438.077148,4331.025879,4391.922852,4433.974121,4731.025879,4748.589844,4565.256348,4665.641113,5542.000000,0.000000,12.000000,,,,0.000000,4.000000,4.000000,4.000000,4.000000,4.000000,4.000000,4.000000,4.000000,4.000000,4.000000,4.000000,4.000000,4.000000,4.000000,100.000000,,,,,,,,,,,,,,,,,20.000000,0.000000,0.723430,-0.044983,-0.672668,0.148804,0.962520,-0.240264,0.077158,-38.422279,-32.896091,45.113689,,,,,,,,,,,,,,,,,,,,,,,,,,,,,,,,,,,,,,,,,,,,,,,,,,,,,,,,,,,,,,,,,,,,,,,,,,,,,,,,,,,,,,,,,,,,,,,,,,,,,
1739355913.073122,1739355913.073990,81.000000,0.000000,4454.615234,4354.743652,4438.846191,4487.563965,4415.512695,4562.692383,4428.974121,4331.282227,4396.025879,4433.846191,4730.641113,4755.384766,4566.410156,4675.512695,6432.000000,0.000000,12.000000,,,,0.000000,4.000000,4.000000,4.000000,4.000000,4.000000,4.000000,4.000000,4.000000,4.000000,4.000000,4.000000,4.000000,4.000000,4.000000,100.000000,,,,,,,,,,,,,,,,,,,,,,,,,,,,,,,,,,,,,,,,,,,,,,,,,,,,,,,,,,,,,,,,,,,,,,,,,,,,,,,,,,,,,,,,,,,,,,,,,,,,,,,,,,,,,,,,,,,,,,,,,,,,,,,,,
1739355913.080930,1739355913.081898,82.000000,0.000000,4473.205078,4371.666504,4457.563965,4517.820313,4428.846191,4578.974121,4439.615234,4336.538574,4416.666504,4443.974121,4743.077148,4775.512695,4577.563965,4691.538574,4879.000000,0.000000,12.000000,,,,0.000000,4.000000,4.000000,4.000000,4.000000,4.000000,4.000000,4.000000,4.000000,4.000000,4.000000,4.000000,4.000000,4.000000,4.000000,100.000000,,,,,,,,,,,,,,,,,,,,,,,,,,,,,,,,,,,,,,,,,,,,,,,,,,,,,,,,,,,,,,,,,,,,,,,,,,,,,,,,,,,,,,,,,,,,,,,,,,,,,,,,,,,,,,,,,,,,,,,,,,,,,,,,,
1739355913.088738,1739355913.089707,83.000000,0.000000,4453.333496,4359.871582,4444.230957,4505.128418,4415.512695,4566.922852,4425.769043,4330.512695,4397.692383,4428.077148,4722.436035,4750.897461,4561.282227,4671.794922,5551.000000,0.000000,12.000000,,,,0.000000,4.000000,4.000000,4.000000,4.000000,4.000000,4.000000,4.000000,4.000000,4.000000,4.000000,4.000000,4.000000,4.000000,4.000000,100.000000,,,,,,,,,,,,,,,,,,,,,,,,,,,,,,,,,,,,,,,,,,,,,,,,,,,,,,,,,,,,,,,,,,,,,,,,,,,,,,,,,,,,,,,,,,,,,,,,,,,,,,,,,,,,,,,,,,,,,,,,,,,,,,,,,
1739355913.096546,1739355913.097515,84.000000,0.000000,4441.666504,4353.333496,4433.205078,4484.358887,4412.820313,4557.948730,4418.717773,4330.641113,4388.974121,4428.077148,4722.307617,4742.051270,4557.179688,4667.307617,5542.000000,0.000000,12.000000,,,,0.000000,4.000000,4.000000,4.000000,4.000000,4.000000,4.000000,4.000000,4.000000,4.000000,4.000000,4.000000,4.000000,4.000000,4.000000,100.000000,,,,,,,,,,,,,,,,,21.000000,0.000000,0.723250,-0.044250,-0.673340,0.146851,0.957148,-0.230497,0.081553,-38.396721,-32.756481,45.135654,,,,,,,,,,,,,,,,,,,,,,,,,,,,,,,,,,,,,,,,,,,,,,,,,,,,,,,,,,,,,,,,,,,,,,,,,,,,,,,,,,,,,,,,,,,,,,,,,,,,,
1739355913.104354,1739355913.105323,85.000000,0.000000,4456.666504,4363.846191,4445.897461,4496.282227,4426.922852,4576.410156,4446.025879,4341.666504,4417.820313,4452.051270,4746.282227,4767.307617,4569.871582,4684.358887,6432.000000,0.000000,12.000000,,,,0.000000,4.000000,4.000000,4.000000,4.000000,4.000000,4.000000,4.000000,4.000000,4.000000,4.000000,4.000000,4.000000,4.000000,4.000000,100.000000,,,,,,,,,,,,,,,,,,,,,,,,,,,,,,,,,,,,,,,,,,,,,,,,,,,,,,,,,,,,,,,,,,,,,,,,,,,,,,,,,,,,,,,,,,,,,,,,,,,,,,,,,,,,,,,,,,,,,,,,,,,,,,,,,
1739355913.112162,1739355913.113031,86.000000,0.000000,4460.641113,4366.538574,4455.641113,4515.128418,4432.692383,4593.333496,4472.820313,4348.589844,4438.205078,4463.589844,4750.897461,4779.487305,4574.230957,4688.589844,4879.000000,0.000000,12.000000,,,,0.000000,4.000000,4.000000,4.000000,4.000000,4.000000,4.000000,4.000000,4.000000,4.000000,4.000000,4.000000,4.000000,4.000000,4.000000,100.000000,,,,,,,,,,,,,,,,,,,,,,,,,,,,,,,,,,,,,,,,,,,,,,,,,,,,,,,,,,,,,,,,,,,,,,,,,,,,,,,,,,,,,,,,,,,,,,,,,,,,,,,,,,,,,,,,,,,,,,,,,,,,,,,,,
1739355913.119970,1739355913.120839,87.000000,0.000000,4444.615234,4354.487305,4443.974121,4507.307617,4428.077148,4587.051270,4467.563965,4343.589844,4428.589844,4450.128418,4739.743652,4764.871582,4568.461426,4674.102539,5551.000000,0.000000,12.000000,,,,0.000000,4.000000,4.000000,4.000000,4.000000,4.000000,4.000000,4.000000,4.000000,4.000000,4.000000,4.000000,4.000000,4.000000,4.000000,100.000000,,,,,,,,,,,,,,,,,,,,,,,,,,,,,,,,,,,,,,,,,,,,,,,,,,,,,,,,,,,,,,,,,,,,,,,,,,,,,,,,,,,,,,,,,,,,,,,,,,,,,,,,,,,,,,,,,,,,,,,,,,,,,,,,,
1739355913.127779,1739355913.128547,88.000000,0.000000,4423.974121,4337.307617,4420.512695,4484.487305,4414.358887,4570.128418,4449.615234,4334.102539,4403.333496,4423.717773,4719.871582,4734.487305,4554.102539,4650.256348,5542.000000,0.000000,12.000000,,,,0.000000,4.000000,4.000000,4.000000,4.000000,4.000000,4.000000,4.000000,4.000000,4.000000,4.000000,4.000000,4.000000,4.000000,4.000000,100.000000,,,,,,,,,,,,,,,,,22.000000,0.000000,0.723136,-0.042603,-0.673767,0.145935,0.968380,-0.244170,0.082041,-38.473713,-32.714169,45.155422,,,,,,,,,,,,,,,,,,,,,,,,,,,,,,,,116.558601,9.785005,2.497773,0.515420,0.998689,96.422256,5.849192,1.941510,0.459514,0.810254,18.611362,6.066643,2.325963,0.421883,0.758148,36.836006,6.211994,2.109614,0.667903,0.874435,2.817000,2.734240,1.278908,0.293994,0.830709,2.499084,1.759158,0.894672,0.218132,0.698114,2.758689,2.635916,1.507737,0.259721,0.708888,0.236689,0.631278,0.398325,0.234167,0.154134,1.381593,2.356282,3.095555,0.970138,0.732063,2.154285,4.825853,3.773116,0.988173,0.878995,12.992165,4.624264,2.507799,0.687386,0.788127,20.889246,8.834376,3.757859,0.885111,1.149476,34.269066,5.198979,2.821505,0.772617,0.693525,81.516785,7.513143,2.222177,0.574504,0.864886
1739355913.135587,1739355913.136355,89.000000,0.000000,4431.153809,4347.692383,4423.461426,4494.102539,4418.333496,4576.922852,4453.461426,4334.743652,4397.948730,4423.589844,4718.589844,4735.256348,4562.307617,4657.307617,6432.000000,0.000000,12.000000,,,,0.000000,4.000000,4.000000,4.000000,4.000000,4.000000,4.000000,4.000000,4.000000,4.000000,4.000000,4.000000,4.000000,4.000000,4.000000,100.000000,,,,,,,,,,,,,,,,,,,,,,,,,,,,,,,,,,,,,,,,,,,,,,,,,,,,,,,,,,,,,,,,,,,,,,,,,,,,,,,,,,,,,,,,,,,,,,,,,,,,,,,,,,,,,,,,,,,,,,,,,,,,,,,,,
1739355913.143395,1739355913.144063,90.000000,0.000000,4452.307617,4371.922852,4446.153809,4521.282227,4436.025879,4585.000000,4455.897461,4338.461426,4406.153809,4437.436035,4742.948730,4764.102539,4584.487305,4684.102539,4879.000000,0.000000,12.000000,,,,0.000000,4.000000,4.000000,4.000000,4.000000,4.000000,4.000000,4.000000,4.000000,4.000000,4.000000,4.000000,4.000000,4.000000,4.000000,100.000000,,,,,,,,,,,,,,,,,,,,,,,,,,,,,,,,,,,,,,,,,,,,,,,,,,,,,,,,,,,,,,,,,,,,,,,,,,,,,,,,,,,,,,,,,,,,,,,,,,,,,,,,,,,,,,,,,,,,,,,,,,,,,,,,,
1739355913.151203,1739355913.151971,91.000000,0.000000,4472.948730,4389.358887,4468.461426,4547.051270,4443.205078,4582.563965,4460.769043,4343.077148,4417.307617,4448.717773,4769.743652,4791.538574,4599.615234,4702.948730,5551.000000,0.000000,12.000000,,,,0.000000,4.000000,4.000000,4.000000,4.000000,4.000000,4.000000,4.000000,4.000000,4.000000,4.000000,4.000000,4.000000,4.000000,4.000000,100.000000,,,,,,,,,,,,,,,,,,,,,,,,,,,,,,,,,,,,,,,,,,,,,,,,,,,,,,,,,,,,,,,,,,,,,,,,,,,,,,,,,,,,,,,,,,,,,,,,,,,,,,,,,,,,,,,,,,,,,,,,,,,,,,,,,
1739355913.159011,1739355913.159779,92.000000,0.000000,4485.128418,4392.948730,4475.256348,4554.102539,4436.282227,4581.410156,4465.384766,4343.205078,4422.563965,4455.769043,4769.871582,4800.384766,4600.641113,4708.461426,5542.000000,0.000000,12.000000,,,,0.000000,4.000000,4.000000,4.000000,4.000000,4.000000,4.000000,4.000000,4.000000,4.000000,4.000000,4.000000,4.000000,4.000000,4.000000,100.000000,,,,,,,,,,,,,,,,,23.000000,0.000000,0.723113,-0.041687,-0.673889,0.145752,0.967892,-0.249542,0.071786,-38.593010,-32.492752,45.239880,,,,,,,,,,,,,,,,,,,,,,,,,,,,,,,,,,,,,,,,,,,,,,,,,,,,,,,,,,,,,,,,,,,,,,,,,,,,,,,,,,,,,,,,,,,,,,,,,,,,,
1739355913.166819,1739355913.167587,93.000000,0.000000,4489.743652,4394.743652,4475.384766,4543.205078,4438.846191,4583.077148,4453.077148,4344.358887,4424.230957,4461.282227,4768.333496,4803.717773,4601.538574,4714.871582,6432.000000,0.000000,12.000000,,,,0.000000,4.000000,4.000000,4.000000,4.000000,4.000000,4.000000,4.000000,4.000000,4.000000,4.000000,4.000000,4.000000,4.000000,4.000000,100.000000,,,,,,,,,,,,,,,,,,,,,,,,,,,,,,,,,,,,,,,,,,,,,,,,,,,,,,,,,,,,,,,,,,,,,,,,,,,,,,,,,,,,,,,,,,,,,,,,,,,,,,,,,,,,,,,,,,,,,,,,,,,,,,,,,
1739355913.174627,1739355913.175295,94.000000,0.000000,4498.717773,4405.256348,4483.461426,4552.307617,4451.410156,4587.179688,4445.897461,4354.615234,4444.358887,4477.948730,4790.128418,4817.948730,4613.717773,4725.128418,4879.000000,0.000000,12.000000,,,,0.000000,4.000000,4.000000,4.000000,4.000000,4.000000,4.000000,4.000000,4.000000,4.000000,4.000000,4.000000,4.000000,4.000000,4.000000,100.000000,,,,,,,,,,,,,,,,,,,,,,,,,,,,,,,,,,,,,,,,,,,,,,,,,,,,,,,,,,,,,,,,,,,,,,,,,,,,,,,,,,,,,,,,,,,,,,,,,,,,,,,,,,,,,,,,,,,,,,,,,,,,,,,,,
1739355913.182435,1739355913.183103,95.000000,0.000000,4501.410156,4410.000000,4484.358887,4572.820313,4457.820313,4590.769043,4460.641113,4363.077148,4466.794922,4490.128418,4802.307617,4825.384766,4617.563965,4725.000000,5551.000000,0.000000,12.000000,,,,0.000000,4.000000,4.000000,4.000000,4.000000,4.000000,4.000000,4.000000,4.000000,4.000000,4.000000,4.000000,4.000000,4.000000,4.000000,100.000000,,,,,,,,,,,,,,,,,,,,,,,,,,,,,,,,,,,,,,,,,,,,,,,,,,,,,,,,,,,,,,,,,,,,,,,,,,,,,,,,,,,,,,,,,,,,,,,,,,,,,,,,,,,,,,,,,,,,,,,,,,,,,,,,,
1739355913.190243,1739355913.190811,96.000000,0.000000,4501.666504,4412.692383,4483.461426,4584.358887,4466.538574,4609.615234,4492.179688,4370.128418,4475.128418,4494.743652,4801.794922,4828.589844,4616.153809,4728.077148,5542.000000,0.000000,12.000000,,,,0.000000,4.000000,4.000000,4.000000,4.000000,4.000000,4.000000,4.000000,4.000000,4.000000,4.000000,4.000000,4.000000,4.000000,4.000000,100.000000,,,,,,,,,,,,,,,,,24.000000,0.000000,0.722967,-0.039795,-0.674133,0.145874,0.955195,-0.230497,0.071298,-38.617043,-32.343475,45.099228,,,,,,,,,,,,,,,,,,,,,,,,,,,,,,,,,,,,,,,,,,,,,,,,,,,,,,,,,,,,,,,,,,,,,,,,,,,,,,,,,,,,,,,,,,,,,,,,,,,,,
1739355913.198051,1739355913.198619,97.000000,0.000000,4503.333496,4414.615234,4485.641113,4589.230957,4474.102539,4629.871582,4516.410156,4372.820313,4474.871582,4500.769043,4802.948730,4827.436035,4619.743652,4733.974121,6432.000000,0.000000,12.000000,,,,0.000000,4.000000,4.000000,4.000000,4.000000,4.000000,4.000000,4.000000,4.000000,4.000000,4.000000,4.000000,4.000000,4.000000,4.000000,100.000000,,,,,,,,,,,,,,,,,,,,,,,,,,,,,,,,,,,,,,,,,,,,,,,,,,,,,,,,,,,,,,,,,,,,,,,,,,,,,,,,,,,,,,,,,,,,,,,,,,,,,,,,,,,,,,,,,,,,,,,,,,,,,,,,,
1739355913.205859,1739355913.206327,98.000000,0.000000,4502.436035,4415.769043,4485.256348,4598.589844,4481.538574,4636.025879,4520.641113,4370.128418,4474.230957,4502.692383,4808.333496,4825.769043,4628.077148,4733.846191,4879.000000,0.000000,12.000000,,,,0.000000,4.000000,4.000000,4.000000,4.000000,4.000000,4.000000,4.000000,4.000000,4.000000,4.000000,4.000000,4.000000,4.000000,4.000000,100.000000,,,,,,,,,,,,,,,,,,,,,,,,,,,,,,,,,,,,,,,,,,,,,,,,,,,,,,,,,,,,,,,,,,,,,,,,,,,,,,,,,,,,,,,,,,,,,,,,,,,,,,,,,,,,,,,,,,,,,,,,,,,,,,,,,
1739355913.213668,1739355913.214236,99.000000,0.000000,4505.641113,4420.641113,4489.487305,4619.743652,4493.461426,4640.256348,4521.153809,4372.948730,4475.641113,4501.410156,4821.666504,4839.743652,4638.205078,4738.974121,5551.000000,0.000000,12.000000,,,,0.000000,4.000000,4.000000,4.000000,4.000000,4.000000,4.000000,4.000000,4.000000,4.000000,4.000000,4.000000,4.000000,4.000000,4.000000,100.000000,,,,,,,,,,,,,,,,,,,,,,,,,,,,,,,,,,,,,,,,,,,,,,,,,,,,,,,,,,,,,,,,,,,,,,,,,,,,,,,,,,,,,,,,,,,,,,,,,,,,,,,,,,,,,,,,,,,,,,,,,,,,,,,,,
1739355913.221475,1739355913.222044,100.000000,0.000000,4544.230957,4452.436035,4524.487305,4673.589844,4521.153809,4663.333496,4547.948730,4386.538574,4501.153809,4531.794922,4858.205078,4886.153809,4668.077148,4778.589844,5542.000000,0.000000,12.000000,,,,0.000000,4.000000,4.000000,4.000000,4.000000,4.000000,4.000000,4.000000,4.000000,4.000000,4.000000,4.000000,4.000000,4.000000,4.000000,100.000000,,,,,,,,,,,,,,,,,25.000000,0.000000,0.722835,-0.038635,-0.674316,0.145996,0.963497,-0.259797,0.083506,-38.688671,-32.409126,45.022636,,,,,,,,,,,,,,,,,,,,,,,,,,,,,,,,,,,,,,,,,,,,,,,,,,,,,,,,,,,,,,,,,,,,,,,,,,,,,,,,,,,,,,,,,,,,,,,,,,,,,
1739355913.229284,1739355913.229952,101.000000,0.000000,4572.307617,4471.794922,4546.282227,4714.358887,4531.794922,4670.128418,4562.563965,4387.051270,4518.205078,4553.333496,4877.948730,4911.666504,4682.820313,4802.307617,6432.000000,0.000000,12.000000,,,,0.000000,4.000000,4.000000,4.000000,4.000000,4.000000,4.000000,4.000000,4.000000,4.000000,4.000000,4.000000,4.000000,4.000000,4.000000,100.000000,,,,,,,,,,,,,,,,,,,,,,,,,,,,,,,,,,,,,,,,,,,,,,,,,,,,,,,,,,,,,,,,,,,,,,,,,,,,,,,,,,,,,,,,,,,,,,,,,,,,,,,,,,,,,,,,,,,,,,,,,,,,,,,,,
1739355913.237092,1739355913.237760,102.000000,0.000000,4546.410156,4446.153809,4520.897461,4699.358887,4501.025879,4642.307617,4531.410156,4371.025879,4488.589844,4521.666504,4855.128418,4882.307617,4655.256348,4770.512695,4879.000000,0.000000,12.000000,,,,0.000000,4.000000,4.000000,4.000000,4.000000,4.000000,4.000000,4.000000,4.000000,4.000000,4.000000,4.000000,4.000000,4.000000,4.000000,100.000000,,,,,,,,,,,,,,,,,,,,,,,,,,,,,,,,,,,,,,,,,,,,,,,,,,,,,,,,,,,,,,,,,,,,,,,,,,,,,,,,,,,,,,,,,,,,,,,,,,,,,,,,,,,,,,,,,,,,,,,,,,,,,,,,,
1739355913.244900,1739355913.245668,103.000000,0.000000,4559.102539,4459.743652,4535.256348,4721.538574,4510.897461,4650.000000,4530.769043,4376.153809,4493.205078,4530.000000,4868.717773,4899.102539,4668.461426,4783.846191,5551.000000,0.000000,12.000000,,,,0.000000,4.000000,4.000000,4.000000,4.000000,4.000000,4.000000,4.000000,4.000000,4.000000,4.000000,4.000000,4.000000,4.000000,4.000000,100.000000,,,,,,,,,,,,,,,,,,,,,,,,,,,,,,,,,,,,,,,,,,,,,,,,,,,,,,,,,,,,,,,,,,,,,,,,,,,,,,,,,,,,,,,,,,,,,,,,,,,,,,,,,,,,,,,,,,,,,,,,,,,,,,,,,
1739355913.252708,1739355913.253476,104.000000,0.000000,4621.666504,4518.461426,4590.512695,4789.102539,4566.153809,4691.153809,4565.769043,4395.897461,4544.871582,4593.589844,4920.384766,4964.743652,4723.717773,4847.820313,5542.000000,0.000000,12.000000,,,,0.000000,4.000000,4.000000,4.000000,4.000000,4.000000,4.000000,4.000000,4.000000,4.000000,4.000000,4.000000,4.000000,4.000000,4.000000,100.000000,,,,,,,,,,,,,,,,,26.000000,0.000000,0.722986,-0.038330,-0.674316,0.145325,0.939079,-0.265169,0.059578,-38.686470,-32.284882,45.020374,,,,,,,,,,,,,,,,,,,,,,,,,,,,,,,,108.201180,9.895299,2.455755,0.654006,1.291481,92.131760,5.837156,1.789837,0.569390,1.068592,18.832710,6.795671,2.460994,0.487714,0.971836,36.311069,6.777801,2.071369,0.695785,1.169449,3.528576,3.000865,1.342510,0.332076,0.932093,3.432180,1.910051,1.020953,0.266863,0.848601,3.574274,2.678112,1.601135,0.326702,0.946727,0.325559,0.926347,0.592956,0.276922,0.202315,1.738436,2.723763,3.411005,1.220524,0.933342,2.766741,4.877477,3.666312,1.252673,1.098975,12.653035,4.931138,2.446862,0.862844,1.013419,20.828039,9.845501,4.008183,1.090572,1.477440,31.064175,4.953312,2.755161,0.938594,0.861859,76.056648,7.961067,2.179464,0.747053,1.123892
1739355913.260516,1739355913.261385,105.000000,0.000000,4649.358887,4545.000000,4608.077148,4814.743652,4589.487305,4706.794922,4577.820313,4406.410156,4574.358887,4623.846191,4946.282227,4994.358887,4746.282227,4874.358887,6432.000000,0.000000,12.000000,,,,0.000000,4.000000,4.000000,4.000000,4.000000,4.000000,4.000000,4.000000,4.000000,4.000000,4.000000,4.000000,4.000000,4.000000,4.000000,100.000000,,,,,,,,,,,,,,,,,,,,,,,,,,,,,,,,,,,,,,,,,,,,,,,,,,,,,,,,,,,,,,,,,,,,,,,,,,,,,,,,,,,,,,,,,,,,,,,,,,,,,,,,,,,,,,,,,,,,,,,,,,,,,,,,,
1739355913.268324,1739355913.269193,106.000000,0.000000,4618.461426,4515.384766,4578.077148,4784.487305,4563.589844,4686.538574,4561.794922,4400.769043,4563.589844,4602.948730,4927.948730,4967.820313,4720.641113,4843.974121,4879.000000,0.000000,12.000000,,,,0.000000,4.000000,4.000000,4.000000,4.000000,4.000000,4.000000,4.000000,4.000000,4.000000,4.000000,4.000000,4.000000,4.000000,4.000000,100.000000,,,,,,,,,,,,,,,,,,,,,,,,,,,,,,,,,,,,,,,,,,,,,,,,,,,,,,,,,,,,,,,,,,,,,,,,,,,,,,,,,,,,,,,,,,,,,,,,,,,,,,,,,,,,,,,,,,,,,,,,,,,,,,,,,
1739355913.276132,1739355913.277101,107.000000,0.000000,4594.487305,4495.128418,4562.820313,4771.153809,4552.820313,4681.922852,4566.538574,4399.230957,4557.948730,4592.692383,4913.461426,4947.179688,4701.410156,4822.563965,5551.000000,0.000000,12.000000,,,,0.000000,4.000000,4.000000,4.000000,4.000000,4.000000,4.000000,4.000000,4.000000,4.000000,4.000000,4.000000,4.000000,4.000000,4.000000,100.000000,,,,,,,,,,,,,,,,,,,,,,,,,,,,,,,,,,,,,,,,,,,,,,,,,,,,,,,,,,,,,,,,,,,,,,,,,,,,,,,,,,,,,,,,,,,,,,,,,,,,,,,,,,,,,,,,,,,,,,,,,,,,,,,,,
1739355913.283940,1739355913.284909,108.000000,0.000000,4621.025879,4527.051270,4587.948730,4801.794922,4585.897461,4718.077148,4608.333496,4415.641113,4587.948730,4625.000000,4938.077148,4976.025879,4722.051270,4849.615234,5542.000000,0.000000,12.000000,,,,0.000000,4.000000,4.000000,4.000000,4.000000,4.000000,4.000000,4.000000,4.000000,4.000000,4.000000,4.000000,4.000000,4.000000,4.000000,100.000000,,,,,,,,,,,,,,,,,27.000000,0.000000,0.723360,-0.038879,-0.674133,0.144165,0.953730,-0.245635,0.068368,-38.751156,-32.189728,44.985001,,,,,,,,,,,,,,,,,,,,,,,,,,,,,,,,,,,,,,,,,,,,,,,,,,,,,,,,,,,,,,,,,,,,,,,,,,,,,,,,,,,,,,,,,,,,,,,,,,,,,
1739355913.291748,1739355913.292617,109.000000,0.000000,4638.717773,4547.051270,4597.307617,4814.871582,4609.871582,4737.948730,4627.179688,4420.000000,4605.384766,4641.538574,4952.307617,4991.794922,4736.794922,4866.666504,6432.000000,0.000000,12.000000,,,,0.000000,4.000000,4.000000,4.000000,4.000000,4.000000,4.000000,4.000000,4.000000,4.000000,4.000000,4.000000,4.000000,4.000000,4.000000,100.000000,,,,,,,,,,,,,,,,,,,,,,,,,,,,,,,,,,,,,,,,,,,,,,,,,,,,,,,,,,,,,,,,,,,,,,,,,,,,,,,,,,,,,,,,,,,,,,,,,,,,,,,,,,,,,,,,,,,,,,,,,,,,,,,,,
1739355913.299556,1739355913.300425,110.000000,0.000000,4644.358887,4552.436035,4598.717773,4826.922852,4620.000000,4745.512695,4630.897461,4417.436035,4607.179688,4637.179688,4952.436035,4993.205078,4746.794922,4869.487305,4879.000000,0.000000,12.000000,,,,0.000000,4.000000,4.000000,4.000000,4.000000,4.000000,4.000000,4.000000,4.000000,4.000000,4.000000,4.000000,4.000000,4.000000,4.000000,100.000000,,,,,,,,,,,,,,,,,,,,,,,,,,,,,,,,,,,,,,,,,,,,,,,,,,,,,,,,,,,,,,,,,,,,,,,,,,,,,,,,,,,,,,,,,,,,,,,,,,,,,,,,,,,,,,,,,,,,,,,,,,,,,,,,,
1739355913.307364,1739355913.308133,111.000000,0.000000,4668.333496,4576.922852,4619.743652,4862.563965,4636.025879,4767.563965,4652.563965,4427.307617,4619.358887,4649.615234,4968.717773,5013.846191,4768.205078,4888.846191,5551.000000,0.000000,12.000000,,,,0.000000,4.000000,4.000000,4.000000,4.000000,4.000000,4.000000,4.000000,4.000000,4.000000,4.000000,4.000000,4.000000,4.000000,4.000000,100.000000,,,,,,,,,,,,,,,,,,,,,,,,,,,,,,,,,,,,,,,,,,,,,,,,,,,,,,,,,,,,,,,,,,,,,,,,,,,,,,,,,,,,,,,,,,,,,,,,,,,,,,,,,,,,,,,,,,,,,,,,,,,,,,,,,
1739355913.315173,1739355913.315941,112.000000,0.000000,4690.512695,4597.820313,4639.230957,4884.615234,4646.282227,4777.179688,4668.205078,4430.512695,4631.153809,4666.025879,4991.666504,5035.384766,4785.128418,4912.692383,5542.000000,0.000000,12.000000,,,,0.000000,4.000000,4.000000,4.000000,4.000000,4.000000,4.000000,4.000000,4.000000,4.000000,4.000000,4.000000,4.000000,4.000000,4.000000,100.000000,,,,,,,,,,,,,,,,,28.000000,0.000000,0.723889,-0.039490,-0.673828,0.142761,0.977658,-0.234404,0.062508,-38.809376,-32.104088,44.836502,,,,,,,,,,,,,,,,,,,,,,,,,,,,,,,,,,,,,,,,,,,,,,,,,,,,,,,,,,,,,,,,,,,,,,,,,,,,,,,,,,,,,,,,,,,,,,,,,,,,,
1739355913.322981,1739355913.323649,113.000000,0.000000,4709.230957,4611.153809,4656.666504,4897.820313,4653.333496,4778.589844,4677.563965,4426.666504,4646.025879,4681.025879,5016.282227,5058.589844,4801.025879,4936.025879,6432.000000,0.000000,12.000000,,,,0.000000,4.000000,4.000000,4.000000,4.000000,4.000000,4.000000,4.000000,4.000000,4.000000,4.000000,4.000000,4.000000,4.000000,4.000000,100.000000,,,,,,,,,,,,,,,,,,,,,,,,,,,,,,,,,,,,,,,,,,,,,,,,,,,,,,,,,,,,,,,,,,,,,,,,,,,,,,,,,,,,,,,,,,,,,,,,,,,,,,,,,,,,,,,,,,,,,,,,,,,,,,,,,
1739355913.330789,1739355913.331457,114.000000,0.000000,4725.769043,4623.461426,4672.436035,4914.102539,4660.641113,4783.974121,4680.897461,4427.307617,4652.563965,4691.410156,5027.179688,5074.743652,4809.615234,4948.974121,4879.000000,0.000000,12.000000,,,,0.000000,4.000000,4.000000,4.000000,4.000000,4.000000,4.000000,4.000000,4.000000,4.000000,4.000000,4.000000,4.000000,4.000000,4.000000,100.000000,,,,,,,,,,,,,,,,,,,,,,,,,,,,,,,,,,,,,,,,,,,,,,,,,,,,,,,,,,,,,,,,,,,,,,,,,,,,,,,,,,,,,,,,,,,,,,,,,,,,,,,,,,,,,,,,,,,,,,,,,,,,,,,,,
1739355913.338597,1739355913.339165,115.000000,0.000000,4723.461426,4621.666504,4673.461426,4914.743652,4661.025879,4779.102539,4668.077148,4426.666504,4640.256348,4682.051270,5016.666504,5070.256348,4800.769043,4944.102539,5551.000000,0.000000,12.000000,,,,0.000000,4.000000,4.000000,4.000000,4.000000,4.000000,4.000000,4.000000,4.000000,4.000000,4.000000,4.000000,4.000000,4.000000,4.000000,100.000000,,,,,,,,,,,,,,,,,,,,,,,,,,,,,,,,,,,,,,,,,,,,,,,,,,,,,,,,,,,,,,,,,,,,,,,,,,,,,,,,,,,,,,,,,,,,,,,,,,,,,,,,,,,,,,,,,,,,,,,,,,,,,,,,,
1739355913.346405,1739355913.346973,116.000000,0.000000,4726.538574,4623.846191,4679.102539,4911.153809,4667.692383,4777.179688,4667.051270,4429.230957,4645.000000,4682.179688,5020.897461,5076.282227,4805.512695,4948.717773,5542.000000,0.000000,12.000000,,,,0.000000,4.000000,4.000000,4.000000,4.000000,4.000000,4.000000,4.000000,4.000000,4.000000,4.000000,4.000000,4.000000,4.000000,4.000000,100.000000,,,,,,,,,,,,,,,,,29.000000,0.000000,0.724343,-0.039734,-0.673584,0.141541,0.984495,-0.213893,0.071298,-38.995102,-32.193680,44.952850,,,,,,,,,,,,,,,,,,,,,,,,,,,,,,,,,,,,,,,,,,,,,,,,,,,,,,,,,,,,,,,,,,,,,,,,,,,,,,,,,,,,,,,,,,,,,,,,,,,,,
1739355913.354213,1739355913.354681,117.000000,0.000000,4737.692383,4630.512695,4690.000000,4909.358887,4674.615234,4778.333496,4679.102539,4436.538574,4664.487305,4696.410156,5035.128418,5089.743652,4820.128418,4960.641113,6432.000000,0.000000,12.000000,,,,0.000000,4.000000,4.000000,4.000000,4.000000,4.000000,4.000000,4.000000,4.000000,4.000000,4.000000,4.000000,4.000000,4.000000,4.000000,100.000000,,,,,,,,,,,,,,,,,,,,,,,,,,,,,,,,,,,,,,,,,,,,,,,,,,,,,,,,,,,,,,,,,,,,,,,,,,,,,,,,,,,,,,,,,,,,,,,,,,,,,,,,,,,,,,,,,,,,,,,,,,,,,,,,,
1739355913.362021,1739355913.362489,118.000000,0.000000,4715.897461,4608.205078,4669.743652,4879.102539,4653.333496,4760.128418,4666.410156,4430.897461,4651.025879,4680.512695,5018.205078,5065.897461,4802.820313,4940.641113,4879.000000,0.000000,12.000000,,,,0.000000,4.000000,4.000000,4.000000,4.000000,4.000000,4.000000,4.000000,4.000000,4.000000,4.000000,4.000000,4.000000,4.000000,4.000000,100.000000,,,,,,,,,,,,,,,,,,,,,,,,,,,,,,,,,,,,,,,,,,,,,,,,,,,,,,,,,,,,,,,,,,,,,,,,,,,,,,,,,,,,,,,,,,,,,,,,,,,,,,,,,,,,,,,,,,,,,,,,,,,,,,,,,
1739355913.369829,1739355913.370197,119.000000,0.000000,4699.871582,4595.384766,4656.282227,4856.922852,4646.794922,4758.461426,4662.948730,4429.615234,4640.384766,4669.871582,5007.179688,5051.666504,4792.820313,4925.769043,5551.000000,0.000000,12.000000,,,,0.000000,4.000000,4.000000,4.000000,4.000000,4.000000,4.000000,4.000000,4.000000,4.000000,4.000000,4.000000,4.000000,4.000000,4.000000,100.000000,,,,,,,,,,,,,,,,,,,,,,,,,,,,,,,,,,,,,,,,,,,,,,,,,,,,,,,,,,,,,,,,,,,,,,,,,,,,,,,,,,,,,,,,,,,,,,,,,,,,,,,,,,,,,,,,,,,,,,,,,,,,,,,,,
1739355913.377637,1739355913.378105,120.000000,0.000000,4707.307617,4604.487305,4667.563965,4858.974121,4659.102539,4773.846191,4679.871582,4441.153809,4656.794922,4682.948730,5020.128418,5065.000000,4800.256348,4932.179688,5542.000000,0.000000,12.000000,,,,0.000000,4.000000,4.000000,4.000000,4.000000,4.000000,4.000000,4.000000,4.000000,4.000000,4.000000,4.000000,4.000000,4.000000,4.000000,100.000000,,,,,,,,,,,,,,,,,30.000000,0.000000,0.724846,-0.039368,-0.673218,0.140808,0.968380,-0.214382,0.086925,-38.878925,-32.040977,44.990902,,,,,,,,,,,,,,,,,,,,,,,,,,,,,,,,86.685547,9.527613,2.417508,0.811808,1.585778,75.283119,5.559390,1.710784,0.712580,1.344316,17.175884,7.000854,2.456059,0.588403,1.189621,31.637287,6.785097,2.021078,0.717432,1.512913,4.140893,2.975363,1.392676,0.409209,1.069151,4.261399,1.902321,1.178855,0.368526,0.997713,4.260122,2.628672,1.730940,0.462433,1.209172,0.475302,1.325167,0.870971,0.310861,0.250198,2.203145,3.278461,3.734871,1.456006,1.148673,3.552130,4.880605,3.495836,1.534882,1.337690,11.008751,5.054963,2.426639,1.045187,1.260434,18.927031,10.230962,4.196745,1.313073,1.818377,24.430935,4.445313,2.698573,1.083404,1.029635,61.506699,7.939165,2.242281,0.954329,1.414260
1739355913.385445,1739355913.385914,121.000000,0.000000,4686.410156,4582.051270,4652.051270,4827.179688,4632.948730,4753.846191,4665.000000,4435.128418,4650.769043,4666.025879,5009.615234,5044.102539,4779.102539,4910.641113,6432.000000,0.000000,12.000000,,,,0.000000,4.000000,4.000000,4.000000,4.000000,4.000000,4.000000,4.000000,4.000000,4.000000,4.000000,4.000000,4.000000,4.000000,4.000000,100.000000,,,,,,,,,,,,,,,,,,,,,,,,,,,,,,,,,,,,,,,,,,,,,,,,,,,,,,,,,,,,,,,,,,,,,,,,,,,,,,,,,,,,,,,,,,,,,,,,,,,,,,,,,,,,,,,,,,,,,,,,,,,,,,,,,
1739355913.393253,1739355913.393722,122.000000,0.000000,4672.179688,4565.897461,4635.512695,4790.897461,4612.692383,4734.615234,4651.666504,4419.615234,4643.333496,4652.051270,4996.538574,5023.717773,4767.179688,4893.461426,4879.000000,0.000000,12.000000,,,,0.000000,4.000000,4.000000,4.000000,4.000000,4.000000,4.000000,4.000000,4.000000,4.000000,4.000000,4.000000,4.000000,4.000000,4.000000,100.000000,,,,,,,,,,,,,,,,,,,,,,,,,,,,,,,,,,,,,,,,,,,,,,,,,,,,,,,,,,,,,,,,,,,,,,,,,,,,,,,,,,,,,,,,,,,,,,,,,,,,,,,,,,,,,,,,,,,,,,,,,,,,,,,,,
1739355913.401061,1739355913.401430,123.000000,0.000000,4673.461426,4570.384766,4632.820313,4784.102539,4620.769043,4734.230957,4650.641113,4407.563965,4641.410156,4653.589844,4988.974121,5017.436035,4771.794922,4891.153809,5551.000000,0.000000,12.000000,,,,0.000000,4.000000,4.000000,4.000000,4.000000,4.000000,4.000000,4.000000,4.000000,4.000000,4.000000,4.000000,4.000000,4.000000,4.000000,100.000000,,,,,,,,,,,,,,,,,,,,,,,,,,,,,,,,,,,,,,,,,,,,,,,,,,,,,,,,,,,,,,,,,,,,,,,,,,,,,,,,,,,,,,,,,,,,,,,,,,,,,,,,,,,,,,,,,,,,,,,,,,,,,,,,,
1739355913.408870,1739355913.409338,124.000000,0.000000,4649.743652,4552.307617,4614.358887,4765.769043,4605.384766,4719.102539,4631.153809,4397.436035,4615.512695,4624.871582,4963.205078,4987.179688,4752.948730,4871.282227,5542.000000,0.000000,12.000000,,,,0.000000,4.000000,4.000000,4.000000,4.000000,4.000000,4.000000,4.000000,4.000000,4.000000,4.000000,4.000000,4.000000,4.000000,4.000000,100.000000,,,,,,,,,,,,,,,,,31.000000,0.000000,0.725074,-0.038940,-0.673035,0.140625,0.963985,-0.216335,0.085948,-38.991035,-31.903547,45.025143,,,,,,,,,,,,,,,,,,,,,,,,,,,,,,,,,,,,,,,,,,,,,,,,,,,,,,,,,,,,,,,,,,,,,,,,,,,,,,,,,,,,,,,,,,,,,,,,,,,,,
1739355913.416678,1739355913.417146,125.000000,0.000000,4634.230957,4536.025879,4603.846191,4739.871582,4585.000000,4702.820313,4620.256348,4402.307617,4596.153809,4599.487305,4951.794922,4970.128418,4739.743652,4859.743652,6432.000000,0.000000,12.000000,,,,0.000000,4.000000,4.000000,4.000000,4.000000,4.000000,4.000000,4.000000,4.000000,4.000000,4.000000,4.000000,4.000000,4.000000,4.000000,100.000000,,,,,,,,,,,,,,,,,,,,,,,,,,,,,,,,,,,,,,,,,,,,,,,,,,,,,,,,,,,,,,,,,,,,,,,,,,,,,,,,,,,,,,,,,,,,,,,,,,,,,,,,,,,,,,,,,,,,,,,,,,,,,,,,,
1739355913.424486,1739355913.425054,126.000000,0.000000,4648.589844,4545.512695,4616.025879,4741.538574,4595.897461,4704.102539,4626.410156,4416.282227,4599.743652,4607.051270,4965.256348,4987.307617,4755.000000,4871.025879,4879.000000,0.000000,12.000000,,,,0.000000,4.000000,4.000000,4.000000,4.000000,4.000000,4.000000,4.000000,4.000000,4.000000,4.000000,4.000000,4.000000,4.000000,4.000000,100.000000,,,,,,,,,,,,,,,,,,,,,,,,,,,,,,,,,,,,,,,,,,,,,,,,,,,,,,,,,,,,,,,,,,,,,,,,,,,,,,,,,,,,,,,,,,,,,,,,,,,,,,,,,,,,,,,,,,,,,,,,,,,,,,,,,
1739355913.432294,1739355913.432863,127.000000,0.000000,4662.436035,4560.256348,4623.205078,4751.153809,4605.897461,4706.922852,4623.205078,4425.384766,4605.128418,4618.205078,4976.153809,5000.512695,4772.307617,4888.205078,12.000000,0.000000,12.000000,,,,0.000000,4.000000,4.000000,4.000000,4.000000,4.000000,4.000000,4.000000,4.000000,4.000000,4.000000,4.000000,4.000000,4.000000,4.000000,100.000000,,,,,,,,,,,,,,,,,,,,,,,,,,,,,,,,,,,,,,,,,,,,,,,,,,,,,,,,,,,,,,,,,,,,,,,,,,,,,,,,,,,,,,,,,,,,,,,,,,,,,,,,,,,,,,,,,,,,,,,,,,,,,,,,,
1739355913.440102,1739355913.440771,0.000000,0.000000,4656.282227,4558.461426,4619.871582,4742.051270,4594.358887,4699.615234,4612.179688,4433.205078,4603.461426,4616.025879,4977.179688,4994.230957,4769.102539,4892.051270,4926.000000,0.000000,12.000000,,,,0.000000,4.000000,4.000000,4.000000,4.000000,4.000000,4.000000,4.000000,4.000000,4.000000,4.000000,4.000000,4.000000,4.000000,4.000000,100.000000,,,,,,,,,,,,,,,,,0.000000,0.000000,0.725724,-0.038086,-0.672485,0.140137,0.954706,-0.235869,0.093761,-39.041931,-31.996525,45.105961,,,,,,,,,,,,,,,,,,,,,,,,,,,,,,,,,,,,,,,,,,,,,,,,,,,,,,,,,,,,,,,,,,,,,,,,,,,,,,,,,,,,,,,,,,,,,,,,,,,,,
1739355913.447910,1739355913.448579,1.000000,0.000000,4640.256348,4545.897461,4615.897461,4728.589844,4579.358887,4688.717773,4606.922852,4441.922852,4595.256348,4605.128418,4972.563965,4983.077148,4747.692383,4881.025879,5469.000000,0.000000,12.000000,,,,0.000000,4.000000,4.000000,4.000000,4.000000,4.000000,4.000000,4.000000,4.000000,4.000000,4.000000,4.000000,4.000000,4.000000,4.000000,100.000000,,,,,,,,,,,,,,,,,,,,,,,,,,,,,,,,,,,,,,,,,,,,,,,,,,,,,,,,,,,,,,,,,,,,,,,,,,,,,,,,,,,,,,,,,,,,,,,,,,,,,,,,,,,,,,,,,,,,,,,,,,,,,,,,,
1739355913.455718,1739355913.456487,2.000000,0.000000,4628.589844,4532.820313,4606.794922,4713.077148,4568.461426,4673.589844,4594.615234,4442.051270,4585.000000,4593.205078,4965.256348,4971.153809,4742.820313,4868.846191,5474.000000,0.000000,12.000000,,,,0.000000,4.000000,4.000000,4.000000,4.000000,4.000000,4.000000,4.000000,4.000000,4.000000,4.000000,4.000000,4.000000,4.000000,4.000000,100.000000,,,,,,,,,,,,,,,,,,,,,,,,,,,,,,,,,,,,,,,,,,,,,,,,,,,,,,,,,,,,,,,,,,,,,,,,,,,,,,,,,,,,,,,,,,,,,,,,,,,,,,,,,,,,,,,,,,,,,,,,,,,,,,,,,
1739355913.463526,1739355913.464295,3.000000,0.000000,4631.282227,4523.205078,4601.282227,4698.846191,4566.794922,4665.256348,4586.666504,4441.282227,4591.410156,4594.102539,4966.025879,4967.948730,4762.436035,4868.333496,5427.000000,0.000000,12.000000,,,,0.000000,4.000000,4.000000,4.000000,4.000000,4.000000,4.000000,4.000000,4.000000,4.000000,4.000000,4.000000,4.000000,4.000000,4.000000,100.000000,,,,,,,,,,,,,,,,,,,,,,,,,,,,,,,,,,,,,,,,,,,,,,,,,,,,,,,,,,,,,,,,,,,,,,,,,,,,,,,,,,,,,,,,,,,,,,,,,,,,,,,,,,,,,,,,,,,,,,,,,,,,,,,,,
1739355913.471334,1739355913.472203,4.000000,0.000000,4628.717773,4514.358887,4598.333496,4689.487305,4563.589844,4662.051270,4590.128418,4446.538574,4601.410156,4595.256348,4970.128418,4967.307617,4763.333496,4865.384766,5389.000000,0.000000,12.000000,,,,0.000000,4.000000,4.000000,4.000000,4.000000,4.000000,4.000000,4.000000,4.000000,4.000000,4.000000,4.000000,4.000000,4.000000,4.000000,100.000000,,,,,,,,,,,,,,,,,1.000000,0.000000,0.726817,-0.037598,-0.671509,0.139282,0.952753,-0.228544,0.095715,-39.021072,-32.096874,45.145367,,,,,,,,,,,,,,,,,,,,,,,,,,,,,,,,,,,,,,,,,,,,,,,,,,,,,,,,,,,,,,,,,,,,,,,,,,,,,,,,,,,,,,,,,,,,,,,,,,,,,
1739355913.479142,1739355913.480011,5.000000,0.000000,4616.666504,4509.230957,4591.666504,4681.666504,4556.538574,4658.461426,4593.717773,4451.025879,4598.333496,4589.615234,4968.461426,4961.410156,4749.358887,4857.948730,5352.000000,0.000000,12.000000,,,,0.000000,4.000000,4.000000,4.000000,4.000000,4.000000,4.000000,4.000000,4.000000,4.000000,4.000000,4.000000,4.000000,4.000000,4.000000,100.000000,,,,,,,,,,,,,,,,,,,,,,,,,,,,,,,,,,,,,,,,,,,,,,,,,,,,,,,,,,,,,,,,,,,,,,,,,,,,,,,,,,,,,,,,,,,,,,,,,,,,,,,,,,,,,,,,,,,,,,,,,,,,,,,,,
1739355913.486950,1739355913.487719,6.000000,0.000000,4627.948730,4522.051270,4602.692383,4693.717773,4566.153809,4672.051270,4610.897461,4454.743652,4607.307617,4601.666504,4981.282227,4974.102539,4762.307617,4873.333496,5335.000000,0.000000,12.000000,,,,0.000000,4.000000,4.000000,4.000000,4.000000,4.000000,4.000000,4.000000,4.000000,4.000000,4.000000,4.000000,4.000000,4.000000,4.000000,100.000000,,,,,,,,,,,,,,,,,,,,,,,,,,,,,,,,,,,,,,,,,,,,,,,,,,,,,,,,,,,,,,,,,,,,,,,,,,,,,,,,,,,,,,,,,,,,,,,,,,,,,,,,,,,,,,,,,,,,,,,,,,,,,,,,,
1739355913.494758,1739355913.495527,7.000000,0.000000,4640.256348,4525.897461,4616.538574,4705.769043,4573.461426,4685.512695,4621.153809,4455.000000,4619.102539,4615.769043,4992.820313,4988.974121,4772.179688,4881.922852,2042.000000,0.000000,12.000000,,,,0.000000,4.000000,4.000000,4.000000,4.000000,4.000000,4.000000,4.000000,4.000000,4.000000,4.000000,4.000000,4.000000,4.000000,4.000000,100.000000,,,,,,,,,,,,,,,,,,,,,,,,,,,,,,,,,,,,,,,,,,,,,,,,,,,,,,,,,,,,,,,,,,,,,,,,,,,,,,,,,,,,,,,,,,,,,,,,,,,,,,,,,,,,,,,,,,,,,,,,,,,,,,,,,
1739355913.502566,1739355913.503235,8.000000,0.000000,4624.358887,4510.000000,4606.153809,4686.538574,4563.461426,4676.025879,4600.897461,4449.615234,4605.128418,4604.230957,4978.589844,4974.615234,4754.871582,4863.461426,5173.000000,0.000000,12.000000,,,,0.000000,4.000000,4.000000,4.000000,4.000000,4.000000,4.000000,4.000000,4.000000,4.000000,4.000000,4.000000,4.000000,4.000000,4.000000,100.000000,1.000000,16.666666,1.000000,1.000000,1.000000,0.000000,1.000000,1.000000,1.000000,3.000000,3.000000,1.000000,1.000000,1.000000,3.000000,1.000000,2.000000,0.000000,0.728181,-0.037720,-0.670288,0.138000,0.963497,-0.239775,0.100598,-39.118965,-31.953852,45.164162,,,,,,,,,,,,,,,,,,,,,,,,,,,,,,,,58.048347,8.929396,2.338158,0.968829,1.843756,52.549263,5.165354,1.686711,0.870503,1.603478,14.061930,6.686535,2.278658,0.708503,1.386841,24.786268,6.327643,1.944993,0.737994,1.870717,4.569828,2.666641,1.415088,0.529364,1.231098,5.010120,1.761212,1.347962,0.520259,1.132861,4.909738,2.557711,1.900048,0.654723,1.456792,0.735062,1.742237,1.181522,0.332007,0.292158,2.927523,3.940187,3.946154,1.641033,1.364343,4.568015,4.922461,3.256685,1.788209,1.569292,8.421430,5.024171,2.386512,1.220395,1.497113,15.903182,9.943183,4.199269,1.530733,2.135294,16.238625,3.841995,2.621066,1.193905,1.185421,41.606880,7.543817,2.325017,1.154930,1.700121
1739355913.510375,1739355913.511043,9.000000,0.000000,4612.051270,4502.820313,4593.205078,4672.436035,4563.717773,4667.820313,4584.615234,4447.307617,4588.717773,4589.615234,4969.487305,4957.179688,4747.307617,4855.000000,5542.000000,0.000000,12.000000,,,,0.000000,4.000000,4.000000,4.000000,4.000000,4.000000,4.000000,4.000000,4.000000,4.000000,4.000000,4.000000,4.000000,4.000000,4.000000,100.000000,,,,,,,,,,,,,,,,,,,,,,,,,,,,,,,,,,,,,,,,,,,,,,,,,,,,,,,,,,,,,,,,,,,,,,,,,,,,,,,,,,,,,,,,,,,,,,,,,,,,,,,,,,,,,,,,,,,,,,,,,,,,,,,,,
1739355913.518183,1739355913.518751,10.000000,0.000000,4616.153809,4504.487305,4596.922852,4682.051270,4566.922852,4669.358887,4588.077148,4448.333496,4588.846191,4591.410156,4975.000000,4955.384766,4750.897461,4860.641113,4812.000000,0.000000,12.000000,,,,0.000000,4.000000,4.000000,4.000000,4.000000,4.000000,4.000000,4.000000,4.000000,4.000000,4.000000,4.000000,4.000000,4.000000,4.000000,100.000000,,,,,,,,,,,,,,,,,,,,,,,,,,,,,,,,,,,,,,,,,,,,,,,,,,,,,,,,,,,,,,,,,,,,,,,,,,,,,,,,,,,,,,,,,,,,,,,,,,,,,,,,,,,,,,,,,,,,,,,,,,,,,,,,,
1739355913.525991,1739355913.526559,11.000000,0.000000,4616.666504,4502.692383,4600.641113,4679.615234,4552.948730,4662.436035,4588.717773,4446.922852,4593.846191,4595.897461,4977.051270,4955.384766,4754.871582,4860.897461,5482.000000,0.000000,12.000000,,,,0.000000,4.000000,4.000000,4.000000,4.000000,4.000000,4.000000,4.000000,4.000000,4.000000,4.000000,4.000000,4.000000,4.000000,4.000000,100.000000,,,,,,,,,,,,,,,,,,,,,,,,,,,,,,,,,,,,,,,,,,,,,,,,,,,,,,,,,,,,,,,,,,,,,,,,,,,,,,,,,,,,,,,,,,,,,,,,,,,,,,,,,,,,,,,,,,,,,,,,,,,,,,,,,
1739355913.533799,1739355913.534267,12.000000,0.000000,4618.717773,4507.563965,4602.563965,4672.948730,4557.820313,4665.256348,4593.333496,4450.256348,4606.025879,4602.436035,4985.128418,4960.769043,4765.641113,4862.436035,5479.000000,0.000000,12.000000,,,,0.000000,4.000000,4.000000,4.000000,4.000000,4.000000,4.000000,4.000000,4.000000,4.000000,4.000000,4.000000,4.000000,4.000000,4.000000,100.000000,,,,,,,,,,,,,,,,,3.000000,0.000000,0.729629,-0.038452,-0.668945,0.136658,0.979123,-0.235869,0.124527,-39.090401,-31.941801,45.281078,,,,,,,,,,,,,,,,,,,,,,,,,,,,,,,,,,,,,,,,,,,,,,,,,,,,,,,,,,,,,,,,,,,,,,,,,,,,,,,,,,,,,,,,,,,,,,,,,,,,,
1739355913.541607,1739355913.542075,13.000000,0.000000,4617.051270,4508.333496,4597.820313,4675.769043,4569.487305,4672.051270,4601.153809,4452.051270,4608.717773,4603.846191,4988.077148,4957.436035,4768.717773,4860.128418,6346.000000,0.000000,12.000000,,,,0.000000,4.000000,4.000000,4.000000,4.000000,4.000000,4.000000,4.000000,4.000000,4.000000,4.000000,4.000000,4.000000,4.000000,4.000000,100.000000,,,,,,,,,,,,,,,,,,,,,,,,,,,,,,,,,,,,,,,,,,,,,,,,,,,,,,,,,,,,,,,,,,,,,,,,,,,,,,,,,,,,,,,,,,,,,,,,,,,,,,,,,,,,,,,,,,,,,,,,,,,,,,,,,
1739355913.549415,1739355913.549783,14.000000,0.000000,4604.102539,4495.384766,4590.641113,4674.615234,4562.563965,4670.512695,4604.102539,4452.820313,4601.410156,4600.128418,4982.948730,4945.897461,4764.871582,4853.333496,4812.000000,0.000000,12.000000,,,,0.000000,4.000000,4.000000,4.000000,4.000000,4.000000,4.000000,4.000000,4.000000,4.000000,4.000000,4.000000,4.000000,4.000000,4.000000,100.000000,,,,,,,,,,,,,,,,,,,,,,,,,,,,,,,,,,,,,,,,,,,,,,,,,,,,,,,,,,,,,,,,,,,,,,,,,,,,,,,,,,,,,,,,,,,,,,,,,,,,,,,,,,,,,,,,,,,,,,,,,,,,,,,,,
1739355913.557223,1739355913.557591,15.000000,0.000000,4592.436035,4483.589844,4583.589844,4658.717773,4558.333496,4671.794922,4602.179688,4452.051270,4599.743652,4591.282227,4971.666504,4933.333496,4755.000000,4844.358887,5482.000000,0.000000,12.000000,,,,0.000000,4.000000,4.000000,4.000000,4.000000,4.000000,4.000000,4.000000,4.000000,4.000000,4.000000,4.000000,4.000000,4.000000,4.000000,100.000000,,,,,,,,,,,,,,,,,,,,,,,,,,,,,,,,,,,,,,,,,,,,,,,,,,,,,,,,,,,,,,,,,,,,,,,,,,,,,,,,,,,,,,,,,,,,,,,,,,,,,,,,,,,,,,,,,,,,,,,,,,,,,,,,,
1739355913.565031,1739355913.565299,16.000000,0.000000,4578.333496,4471.025879,4560.641113,4629.102539,4554.615234,4662.692383,4584.615234,4443.333496,4581.282227,4562.820313,4942.692383,4902.563965,4729.487305,4820.641113,0.000000,0.000000,12.000000,,,,0.000000,4.000000,4.000000,4.000000,4.000000,4.000000,4.000000,4.000000,4.000000,4.000000,4.000000,4.000000,4.000000,4.000000,4.000000,100.000000,,,,,,,,,,,,,,,,,4.000000,0.000000,0.730645,-0.039368,-0.667969,0.135742,0.977658,-0.225613,0.121109,-38.981361,-31.964287,45.302971,,,,,,,,,,,,,,,,,,,,,,,,,,,,,,,,,,,,,,,,,,,,,,,,,,,,,,,,,,,,,,,,,,,,,,,,,,,,,,,,,,,,,,,,,,,,,,,,,,,,,
1739355913.572839,1739355913.573107,17.000000,0.000000,4585.128418,4476.794922,4560.769043,4632.692383,4560.256348,4661.794922,4587.436035,4446.025879,4577.563965,4562.436035,4943.717773,4900.128418,4731.794922,4821.538574,0.000000,0.000000,12.000000,,,,0.000000,4.000000,4.000000,4.000000,4.000000,4.000000,4.000000,4.000000,4.000000,4.000000,4.000000,4.000000,4.000000,4.000000,4.000000,100.000000,,,,,,,,,,,,,,,,,,,,,,,,,,,,,,,,,,,,,,,,,,,,,,,,,,,,,,,,,,,,,,,,,,,,,,,,,,,,,,,,,,,,,,,,,,,,,,,,,,,,,,,,,,,,,,,,,,,,,,,,,,,,,,,,,
1739355913.580647,1739355913.580815,18.000000,0.000000,4610.769043,4499.358887,4590.128418,4663.333496,4576.666504,4678.461426,4612.692383,4456.025879,4602.563965,4592.436035,4976.666504,4930.384766,4758.589844,4851.282227,0.000000,0.000000,12.000000,,,,0.000000,4.000000,4.000000,4.000000,4.000000,4.000000,4.000000,4.000000,4.000000,4.000000,4.000000,4.000000,4.000000,4.000000,4.000000,100.000000,,,,,,,,,,,,,,,,,,,,,,,,,,,,,,,,,,,,,,,,,,,,,,,,,,,,,,,,,,,,,,,,,,,,,,,,,,,,,,,,,,,,,,,,,,,,,,,,,,,,,,,,,,,,,,,,,,,,,,,,,,,,,,,,,
1739355913.588455,1739355913.588723,19.000000,0.000000,4597.948730,4487.692383,4579.743652,4642.307617,4559.871582,4666.025879,4594.487305,4446.538574,4590.512695,4577.307617,4959.230957,4912.307617,4743.589844,4835.384766,0.000000,0.000000,12.000000,,,,0.000000,4.000000,4.000000,4.000000,4.000000,4.000000,4.000000,4.000000,4.000000,4.000000,4.000000,4.000000,4.000000,4.000000,4.000000,100.000000,,,,,,,,,,,,,,,,,,,,,,,,,,,,,,,,,,,,,,,,,,,,,,,,,,,,,,,,,,,,,,,,,,,,,,,,,,,,,,,,,,,,,,,,,,,,,,,,,,,,,,,,,,,,,,,,,,,,,,,,,,,,,,,,,
1739355913.596264,1739355913.596532,20.000000,0.000000,4579.487305,4471.922852,4557.307617,4607.948730,4533.205078,4646.282227,4568.846191,4441.666504,4568.717773,4551.025879,4926.922852,4883.846191,4727.436035,4812.436035,0.000000,0.000000,12.000000,,,,0.000000,4.000000,4.000000,4.000000,4.000000,4.000000,4.000000,4.000000,4.000000,4.000000,4.000000,4.000000,4.000000,4.000000,4.000000,100.000000,,,,,,,,,,,,,,,,,5.000000,0.000000,0.731097,-0.040100,-0.667480,0.135498,0.966915,-0.230497,0.123062,-38.899891,-31.917858,45.356007,,,,,,,,,,,,,,,,,,,,,,,,,,,,,,,,,,,,,,,,,,,,,,,,,,,,,,,,,,,,,,,,,,,,,,,,,,,,,,,,,,,,,,,,,,,,,,,,,,,,,
1739355913.604072,1739355913.604440,21.000000,0.000000,4598.077148,4488.461426,4573.974121,4627.436035,4545.641113,4657.692383,4582.820313,4451.538574,4584.615234,4572.692383,4940.256348,4904.102539,4750.641113,4833.717773,0.000000,0.000000,12.000000,,,,0.000000,4.000000,4.000000,4.000000,4.000000,4.000000,4.000000,4.000000,4.000000,4.000000,4.000000,4.000000,4.000000,4.000000,4.000000,100.000000,,,,,,,,,,,,,,,,,,,,,,,,,,,,,,,,,,,,,,,,,,,,,,,,,,,,,,,,,,,,,,,,,,,,,,,,,,,,,,,,,,,,,,,,,,,,,,,,,,,,,,,,,,,,,,,,,,,,,,,,,,,,,,,,,
1739355913.611880,1739355913.612248,22.000000,0.000000,4591.153809,4480.384766,4565.128418,4628.717773,4546.666504,4647.307617,4570.512695,4440.897461,4570.000000,4566.025879,4931.666504,4892.051270,4742.692383,4830.000000,0.000000,0.000000,12.000000,,,,0.000000,4.000000,4.000000,4.000000,4.000000,4.000000,4.000000,4.000000,4.000000,4.000000,4.000000,4.000000,4.000000,4.000000,4.000000,100.000000,,,,,,,,,,,,,,,,,,,,,,,,,,,,,,,,,,,,,,,,,,,,,,,,,,,,,,,,,,,,,,,,,,,,,,,,,,,,,,,,,,,,,,,,,,,,,,,,,,,,,,,,,,,,,,,,,,,,,,,,,,,,,,,,,
1739355913.619688,1739355913.620156,23.000000,0.000000,4566.538574,4455.000000,4537.436035,4600.256348,4526.025879,4631.666504,4548.333496,4431.538574,4545.000000,4535.256348,4906.538574,4856.666504,4718.077148,4808.077148,0.000000,0.000000,12.000000,,,,0.000000,4.000000,4.000000,4.000000,4.000000,4.000000,4.000000,4.000000,4.000000,4.000000,4.000000,4.000000,4.000000,4.000000,4.000000,100.000000,,,,,,,,,,,,,,,,,,,,,,,,,,,,,,,,,,,,,,,,,,,,,,,,,,,,,,,,,,,,,,,,,,,,,,,,,,,,,,,,,,,,,,,,,,,,,,,,,,,,,,,,,,,,,,,,,,,,,,,,,,,,,,,,,
1739355913.627496,1739355913.627964,24.000000,0.000000,4582.948730,4470.897461,4552.563965,4613.077148,4539.358887,4655.128418,4568.846191,4446.025879,4570.512695,4560.000000,4920.641113,4873.205078,4734.358887,4823.717773,0.000000,0.000000,12.000000,,,,0.000000,4.000000,4.000000,4.000000,4.000000,4.000000,4.000000,4.000000,4.000000,4.000000,4.000000,4.000000,4.000000,4.000000,4.000000,100.000000,,,,,,,,,,,,,,,,,6.000000,0.000000,0.731173,-0.040527,-0.667358,0.135559,0.974240,-0.217312,0.130875,-38.676567,-32.076073,45.287075,,,,,,,,,,,,,,,,,,,,,,,,,,,,,,,,33.518707,8.412592,2.244396,1.109885,2.035975,31.812157,4.860240,1.709691,1.023239,1.814240,11.170997,6.097919,2.009603,0.830580,1.543704,19.556787,5.834132,1.900107,0.764019,2.197469,4.994852,2.193371,1.403345,0.685827,1.393638,5.683569,1.580742,1.495326,0.704061,1.243857,5.505088,2.599812,2.083334,0.873238,1.648878,1.027406,2.062383,1.457206,0.340408,0.324494,3.617910,4.550055,3.959164,1.751467,1.564237,5.494330,5.015243,2.986503,1.970592,1.768363,6.402218,4.902074,2.314899,1.380576,1.691540,13.353724,9.210592,4.022836,1.728043,2.396419,9.762036,3.332897,2.526314,1.279949,1.321935,24.683825,7.007454,2.373459,1.318533,1.944730
1739355913.635304,1739355913.635872,25.000000,0.000000,4594.743652,4487.436035,4567.948730,4636.025879,4548.333496,4658.846191,4580.641113,4448.205078,4576.922852,4567.179688,4926.025879,4885.384766,4739.871582,4831.410156,0.000000,0.000000,12.000000,,,,0.000000,4.000000,4.000000,4.000000,4.000000,4.000000,4.000000,4.000000,4.000000,4.000000,4.000000,4.000000,4.000000,4.000000,4.000000,100.000000,,,,,,,,,,,,,,,,,,,,,,,,,,,,,,,,,,,,,,,,,,,,,,,,,,,,,,,,,,,,,,,,,,,,,,,,,,,,,,,,,,,,,,,,,,,,,,,,,,,,,,,,,,,,,,,,,,,,,,,,,,,,,,,,,
1739355913.643112,1739355913.643681,26.000000,0.000000,4582.051270,4472.820313,4560.384766,4623.077148,4526.794922,4637.692383,4570.512695,4441.922852,4552.179688,4530.897461,4909.615234,4868.077148,4719.871582,4816.922852,0.000000,0.000000,12.000000,,,,0.000000,4.000000,4.000000,4.000000,4.000000,4.000000,4.000000,4.000000,4.000000,4.000000,4.000000,4.000000,4.000000,4.000000,4.000000,100.000000,,,,,,,,,,,,,,,,,,,,,,,,,,,,,,,,,,,,,,,,,,,,,,,,,,,,,,,,,,,,,,,,,,,,,,,,,,,,,,,,,,,,,,,,,,,,,,,,,,,,,,,,,,,,,,,,,,,,,,,,,,,,,,,,,
1739355913.650920,1739355913.651588,27.000000,0.000000,4585.897461,4464.615234,4560.641113,4608.461426,4516.794922,4640.128418,4565.128418,4447.179688,4557.820313,4537.436035,4915.000000,4869.358887,4719.487305,4819.743652,0.000000,0.000000,12.000000,,,,0.000000,4.000000,4.000000,4.000000,4.000000,4.000000,4.000000,4.000000,4.000000,4.000000,4.000000,4.000000,4.000000,4.000000,4.000000,100.000000,,,,,,,,,,,,,,,,,,,,,,,,,,,,,,,,,,,,,,,,,,,,,,,,,,,,,,,,,,,,,,,,,,,,,,,,,,,,,,,,,,,,,,,,,,,,,,,,,,,,,,,,,,,,,,,,,,,,,,,,,,,,,,,,,
1739355913.658728,1739355913.659396,28.000000,0.000000,4574.615234,4453.461426,4548.205078,4596.410156,4514.102539,4635.000000,4547.820313,4443.974121,4560.512695,4548.846191,4908.333496,4859.487305,4712.436035,4811.410156,0.000000,0.000000,12.000000,,,,0.000000,4.000000,4.000000,4.000000,4.000000,4.000000,4.000000,4.000000,4.000000,4.000000,4.000000,4.000000,4.000000,4.000000,4.000000,100.000000,,,,,,,,,,,,,,,,,7.000000,0.000000,0.731102,-0.041382,-0.667297,0.135986,0.988890,-0.228544,0.125992,-38.742245,-32.051800,45.441700,,,,,,,,,,,,,,,,,,,,,,,,,,,,,,,,,,,,,,,,,,,,,,,,,,,,,,,,,,,,,,,,,,,,,,,,,,,,,,,,,,,,,,,,,,,,,,,,,,,,,
1739355913.666536,1739355913.667204,29.000000,0.000000,4550.641113,4436.794922,4531.025879,4588.461426,4507.307617,4613.974121,4537.692383,4436.410156,4548.974121,4526.538574,4891.410156,4835.641113,4699.487305,4792.307617,0.000000,0.000000,12.000000,,,,0.000000,4.000000,4.000000,4.000000,4.000000,4.000000,4.000000,4.000000,4.000000,4.000000,4.000000,4.000000,4.000000,4.000000,4.000000,100.000000,,,,,,,,,,,,,,,,,,,,,,,,,,,,,,,,,,,,,,,,,,,,,,,,,,,,,,,,,,,,,,,,,,,,,,,,,,,,,,,,,,,,,,,,,,,,,,,,,,,,,,,,,,,,,,,,,,,,,,,,,,,,,,,,,
1739355913.674344,1739355913.675012,30.000000,0.000000,4561.794922,4444.102539,4544.871582,4606.282227,4507.820313,4616.282227,4556.153809,4444.615234,4554.102539,4526.282227,4908.205078,4844.358887,4711.794922,4801.922852,0.000000,0.000000,12.000000,,,,0.000000,4.000000,4.000000,4.000000,4.000000,4.000000,4.000000,4.000000,4.000000,4.000000,4.000000,4.000000,4.000000,4.000000,4.000000,100.000000,,,,,,,,,,,,,,,,,,,,,,,,,,,,,,,,,,,,,,,,,,,,,,,,,,,,,,,,,,,,,,,,,,,,,,,,,,,,,,,,,,,,,,,,,,,,,,,,,,,,,,,,,,,,,,,,,,,,,,,,,,,,,,,,,
1739355913.682152,1739355913.682720,31.000000,0.000000,4569.487305,4456.410156,4551.666504,4618.461426,4504.743652,4631.410156,4556.794922,4447.692383,4553.974121,4530.256348,4917.051270,4849.230957,4715.769043,4807.179688,0.000000,0.000000,12.000000,,,,0.000000,4.000000,4.000000,4.000000,4.000000,4.000000,4.000000,4.000000,4.000000,4.000000,4.000000,4.000000,4.000000,4.000000,4.000000,100.000000,,,,,,,,,,,,,,,,,,,,,,,,,,,,,,,,,,,,,,,,,,,,,,,,,,,,,,,,,,,,,,,,,,,,,,,,,,,,,,,,,,,,,,,,,,,,,,,,,,,,,,,,,,,,,,,,,,,,,,,,,,,,,,,,,
1739355913.689960,1739355913.690528,32.000000,0.000000,4562.179688,4464.358887,4542.692383,4630.128418,4511.666504,4640.769043,4543.846191,4441.666504,4553.846191,4531.025879,4909.871582,4840.384766,4712.692383,4801.410156,0.000000,0.000000,12.000000,,,,0.000000,4.000000,4.000000,4.000000,4.000000,4.000000,4.000000,4.000000,4.000000,4.000000,4.000000,4.000000,4.000000,4.000000,4.000000,100.000000,,,,,,,,,,,,,,,,,8.000000,0.000000,0.730848,-0.041870,-0.667419,0.136597,0.978635,-0.232450,0.111830,-38.668022,-32.196617,45.497528,,,,,,,,,,,,,,,,,,,,,,,,,,,,,,,,,,,,,,,,,,,,,,,,,,,,,,,,,,,,,,,,,,,,,,,,,,,,,,,,,,,,,,,,,,,,,,,,,,,,,
1739355913.697769,1739355913.698237,33.000000,0.000000,4556.794922,4455.256348,4539.358887,4646.282227,4513.717773,4619.615234,4540.256348,4436.794922,4548.589844,4538.717773,4907.051270,4832.692383,4710.384766,4793.333496,0.000000,0.000000,12.000000,,,,0.000000,4.000000,4.000000,4.000000,4.000000,4.000000,4.000000,4.000000,4.000000,4.000000,4.000000,4.000000,4.000000,4.000000,4.000000,100.000000,,,,,,,,,,,,,,,,,,,,,,,,,,,,,,,,,,,,,,,,,,,,,,,,,,,,,,,,,,,,,,,,,,,,,,,,,,,,,,,,,,,,,,,,,,,,,,,,,,,,,,,,,,,,,,,,,,,,,,,,,,,,,,,,,
1739355913.705577,1739355913.706044,34.000000,0.000000,4537.307617,4426.666504,4531.666504,4652.820313,4486.794922,4585.000000,4522.692383,4430.384766,4515.256348,4504.358887,4883.077148,4812.820313,4687.179688,4772.436035,0.000000,0.000000,12.000000,,,,0.000000,4.000000,4.000000,4.000000,4.000000,4.000000,4.000000,4.000000,4.000000,4.000000,4.000000,4.000000,4.000000,4.000000,4.000000,100.000000,,,,,,,,,,,,,,,,,,,,,,,,,,,,,,,,,,,,,,,,,,,,,,,,,,,,,,,,,,,,,,,,,,,,,,,,,,,,,,,,,,,,,,,,,,,,,,,,,,,,,,,,,,,,,,,,,,,,,,,,,,,,,,,,,
1739355913.713385,1739355913.713753,35.000000,0.000000,4539.230957,4436.025879,4538.974121,4694.230957,4494.358887,4604.615234,4520.512695,4436.922852,4518.717773,4488.589844,4873.717773,4818.974121,4693.846191,4779.743652,0.000000,0.000000,12.000000,,,,0.000000,4.000000,4.000000,4.000000,4.000000,4.000000,4.000000,4.000000,4.000000,4.000000,4.000000,4.000000,4.000000,4.000000,4.000000,100.000000,,,,,,,,,,,,,,,,,,,,,,,,,,,,,,,,,,,,,,,,,,,,,,,,,,,,,,,,,,,,,,,,,,,,,,,,,,,,,,,,,,,,,,,,,,,,,,,,,,,,,,,,,,,,,,,,,,,,,,,,,,,,,,,,,
1739355913.721193,1739355913.721561,36.000000,0.000000,4570.000000,4468.717773,4561.538574,4768.205078,4534.871582,4645.000000,4550.897461,4447.179688,4563.077148,4545.256348,4902.307617,4849.871582,4730.641113,4811.922852,0.000000,0.000000,12.000000,,,,0.000000,4.000000,4.000000,4.000000,4.000000,4.000000,4.000000,4.000000,4.000000,4.000000,4.000000,4.000000,4.000000,4.000000,4.000000,100.000000,,,,,,,,,,,,,,,,,9.000000,0.000000,0.730278,-0.042236,-0.667908,0.137146,0.939079,-0.242217,0.108412,-38.834553,-32.260288,45.481110,,,,,,,,,,,,,,,,,,,,,,,,,,,,,,,,,,,,,,,,,,,,,,,,,,,,,,,,,,,,,,,,,,,,,,,,,,,,,,,,,,,,,,,,,,,,,,,,,,,,,
1739355913.729001,1739355913.729269,37.000000,0.000000,4553.461426,4451.025879,4547.563965,4790.769043,4515.128418,4626.666504,4547.436035,4440.000000,4552.948730,4552.820313,4898.717773,4831.282227,4718.717773,4796.025879,0.000000,0.000000,12.000000,,,,0.000000,4.000000,4.000000,4.000000,4.000000,4.000000,4.000000,4.000000,4.000000,4.000000,4.000000,4.000000,4.000000,4.000000,4.000000,100.000000,,,,,,,,,,,,,,,,,,,,,,,,,,,,,,,,,,,,,,,,,,,,,,,,,,,,,,,,,,,,,,,,,,,,,,,,,,,,,,,,,,,,,,,,,,,,,,,,,,,,,,,,,,,,,,,,,,,,,,,,,,,,,,,,,
1739355913.736809,1739355913.737177,38.000000,0.000000,4520.256348,4421.282227,4519.615234,4800.000000,4479.743652,4600.128418,4524.487305,4438.205078,4518.589844,4507.436035,4875.641113,4797.179688,4691.153809,4764.487305,0.000000,0.000000,12.000000,,,,0.000000,4.000000,4.000000,4.000000,4.000000,4.000000,4.000000,4.000000,4.000000,4.000000,4.000000,4.000000,4.000000,4.000000,4.000000,100.000000,,,,,,,,,,,,,,,,,,,,,,,,,,,,,,,,,,,,,,,,,,,,,,,,,,,,,,,,,,,,,,,,,,,,,,,,,,,,,,,,,,,,,,,,,,,,,,,,,,,,,,,,,,,,,,,,,,,,,,,,,,,,,,,,,
1739355913.744617,1739355913.744985,39.000000,0.000000,4542.179688,4439.230957,4534.743652,4877.820313,4509.230957,4624.230957,4542.436035,4451.666504,4543.461426,4525.769043,4905.512695,4821.282227,4712.563965,4786.025879,0.000000,0.000000,12.000000,,,,0.000000,4.000000,4.000000,4.000000,4.000000,4.000000,4.000000,4.000000,4.000000,4.000000,4.000000,4.000000,4.000000,4.000000,4.000000,100.000000,,,,,,,,,,,,,,,,,,,,,,,,,,,,,,,,,,,,,,,,,,,,,,,,,,,,,,,,,,,,,,,,,,,,,,,,,,,,,,,,,,,,,,,,,,,,,,,,,,,,,,,,,,,,,,,,,,,,,,,,,,,,,,,,,
1739355913.752425,1739355913.752793,40.000000,0.000000,4561.410156,4451.025879,4554.102539,4959.487305,4526.922852,4629.230957,4557.179688,4451.538574,4574.615234,4559.358887,4942.563965,4846.922852,4731.922852,4806.538574,0.000000,0.000000,12.000000,,,,0.000000,4.000000,4.000000,4.000000,4.000000,4.000000,4.000000,4.000000,4.000000,4.000000,4.000000,4.000000,4.000000,4.000000,4.000000,100.000000,,,,,,,,,,,,,,,,,10.000000,0.000000,0.729706,-0.042419,-0.668396,0.137756,0.959101,-0.241240,0.108412,-38.884430,-32.250927,45.482998,,,,,,,,,,,,,,,,,,,,,,,,,,,,,,,,16.811605,8.173099,2.171050,1.224148,2.144545,17.098042,4.778327,1.738235,1.155158,1.950081,8.973896,5.564806,1.744240,0.935449,1.645446,17.990974,5.788113,1.909445,0.802353,2.443747,5.719855,1.716663,1.339237,0.856616,1.525382,6.677864,1.470894,1.571204,0.888912,1.320160,6.411576,2.862636,2.201715,1.078836,1.753994,1.466426,2.206330,1.627364,0.341402,0.344907,4.737667,4.932749,3.746607,1.782754,1.725389,6.834457,5.086745,2.721103,2.059949,1.911559,5.411466,4.740867,2.214651,1.521094,1.816957,12.159561,8.378319,3.724378,1.892601,2.575200,5.861975,3.057003,2.431414,1.363420,1.432493,13.088845,6.577224,2.348010,1.430315,2.115595
1739355913.760233,1739355913.760501,41.000000,0.000000,4530.641113,4422.179688,4530.128418,4991.410156,4484.230957,4588.589844,4524.358887,4436.025879,4547.436035,4536.153809,4931.282227,4815.769043,4708.974121,4775.769043,0.000000,0.000000,12.000000,,,,0.000000,4.000000,4.000000,4.000000,4.000000,4.000000,4.000000,4.000000,4.000000,4.000000,4.000000,4.000000,4.000000,4.000000,4.000000,100.000000,,,,,,,,,,,,,,,,,,,,,,,,,,,,,,,,,,,,,,,,,,,,,,,,,,,,,,,,,,,,,,,,,,,,,,,,,,,,,,,,,,,,,,,,,,,,,,,,,,,,,,,,,,,,,,,,,,,,,,,,,,,,,,,,,
1739355913.768041,1739355913.768409,42.000000,0.000000,4515.000000,4407.948730,4510.512695,5029.743652,4472.436035,4578.589844,4502.563965,4433.077148,4518.717773,4509.487305,4928.461426,4793.717773,4690.128418,4756.410156,0.000000,0.000000,12.000000,,,,0.000000,4.000000,4.000000,4.000000,4.000000,4.000000,4.000000,4.000000,4.000000,4.000000,4.000000,4.000000,4.000000,4.000000,4.000000,100.000000,,,,,,,,,,,,,,,,,,,,,,,,,,,,,,,,,,,,,,,,,,,,,,,,,,,,,,,,,,,,,,,,,,,,,,,,,,,,,,,,,,,,,,,,,,,,,,,,,,,,,,,,,,,,,,,,,,,,,,,,,,,,,,,,,
1739355913.775849,1739355913.776218,43.000000,0.000000,4545.256348,4432.820313,4536.025879,5106.922852,4510.256348,4611.025879,4526.410156,4442.692383,4540.384766,4525.000000,4972.820313,4825.641113,4709.102539,4785.512695,0.000000,0.000000,12.000000,,,,0.000000,4.000000,4.000000,4.000000,4.000000,4.000000,4.000000,4.000000,4.000000,4.000000,4.000000,4.000000,4.000000,4.000000,4.000000,100.000000,,,,,,,,,,,,,,,,,,,,,,,,,,,,,,,,,,,,,,,,,,,,,,,,,,,,,,,,,,,,,,,,,,,,,,,,,,,,,,,,,,,,,,,,,,,,,,,,,,,,,,,,,,,,,,,,,,,,,,,,,,,,,,,,,
1739355913.783657,1739355913.784126,44.000000,0.000000,4553.846191,4438.333496,4546.282227,5153.333496,4504.615234,4612.948730,4536.153809,4439.743652,4547.563965,4542.692383,4996.922852,4835.256348,4723.846191,4792.436035,0.000000,0.000000,12.000000,,,,0.000000,4.000000,4.000000,4.000000,4.000000,4.000000,4.000000,4.000000,4.000000,4.000000,4.000000,4.000000,4.000000,4.000000,4.000000,100.000000,,,,,,,,,,,,,,,,,11.000000,0.000000,0.729367,-0.042419,-0.668640,0.138367,0.961055,-0.237822,0.114760,-38.779320,-32.309170,45.468033,,,,,,,,,,,,,,,,,,,,,,,,,,,,,,,,,,,,,,,,,,,,,,,,,,,,,,,,,,,,,,,,,,,,,,,,,,,,,,,,,,,,,,,,,,,,,,,,,,,,,
1739355913.791465,1739355913.791934,45.000000,0.000000,4514.102539,4399.871582,4510.128418,5128.589844,4458.461426,4575.641113,4498.077148,4424.743652,4503.717773,4520.769043,4973.589844,4785.512695,4696.922852,4748.461426,0.000000,0.000000,12.000000,,,,0.000000,4.000000,4.000000,4.000000,4.000000,4.000000,4.000000,4.000000,4.000000,4.000000,4.000000,4.000000,4.000000,4.000000,4.000000,100.000000,,,,,,,,,,,,,,,,,,,,,,,,,,,,,,,,,,,,,,,,,,,,,,,,,,,,,,,,,,,,,,,,,,,,,,,,,,,,,,,,,,,,,,,,,,,,,,,,,,,,,,,,,,,,,,,,,,,,,,,,,,,,,,,,,
1739355913.799274,1739355913.799842,46.000000,0.000000,4496.025879,4390.256348,4492.820313,5123.717773,4459.871582,4555.897461,4471.410156,4424.487305,4488.461426,4499.487305,4983.717773,4766.922852,4678.333496,4731.538574,0.000000,0.000000,12.000000,,,,0.000000,4.000000,4.000000,4.000000,4.000000,4.000000,4.000000,4.000000,4.000000,4.000000,4.000000,4.000000,4.000000,4.000000,4.000000,100.000000,,,,,,,,,,,,,,,,,,,,,,,,,,,,,,,,,,,,,,,,,,,,,,,,,,,,,,,,,,,,,,,,,,,,,,,,,,,,,,,,,,,,,,,,,,,,,,,,,,,,,,,,,,,,,,,,,,,,,,,,,,,,,,,,,
1739355913.807082,1739355913.807650,47.000000,0.000000,4527.307617,4425.128418,4519.102539,5185.000000,4487.307617,4566.025879,4496.025879,4437.948730,4520.769043,4518.205078,5050.769043,4805.256348,4700.641113,4763.974121,0.000000,0.000000,12.000000,,,,0.000000,4.000000,4.000000,4.000000,4.000000,4.000000,4.000000,4.000000,4.000000,4.000000,4.000000,4.000000,4.000000,4.000000,4.000000,100.000000,,,,,,,,,,,,,,,,,,,,,,,,,,,,,,,,,,,,,,,,,,,,,,,,,,,,,,,,,,,,,,,,,,,,,,,,,,,,,,,,,,,,,,,,,,,,,,,,,,,,,,,,,,,,,,,,,,,,,,,,,,,,,,,,,
1739355913.814890,1739355913.815558,48.000000,0.000000,4562.820313,4452.820313,4553.589844,5251.666504,4503.717773,4596.153809,4534.358887,4445.000000,4540.769043,4547.307617,5110.256348,4840.897461,4725.897461,4795.000000,0.000000,0.000000,12.000000,,,,0.000000,4.000000,4.000000,4.000000,4.000000,4.000000,4.000000,4.000000,4.000000,4.000000,4.000000,4.000000,4.000000,4.000000,4.000000,100.000000,,,,,,,,,,,,,,,,,12.000000,0.000000,0.729052,-0.042175,-0.668884,0.138916,0.968380,-0.252961,0.103040,-38.701389,-32.128250,45.471230,,,,,,,,,,,,,,,,,,,,,,,,,,,,,,,,,,,,,,,,,,,,,,,,,,,,,,,,,,,,,,,,,,,,,,,,,,,,,,,,,,,,,,,,,,,,,,,,,,,,,
1739355913.822698,1739355913.823366,49.000000,0.000000,4552.051270,4441.794922,4548.846191,5269.102539,4499.615234,4600.641113,4523.589844,4437.563965,4527.051270,4538.589844,5117.051270,4831.025879,4715.384766,4783.461426,0.000000,0.000000,12.000000,,,,0.000000,4.000000,4.000000,4.000000,4.000000,4.000000,4.000000,4.000000,4.000000,4.000000,4.000000,4.000000,4.000000,4.000000,4.000000,100.000000,,,,,,,,,,,,,,,,,,,,,,,,,,,,,,,,,,,,,,,,,,,,,,,,,,,,,,,,,,,,,,,,,,,,,,,,,,,,,,,,,,,,,,,,,,,,,,,,,,,,,,,,,,,,,,,,,,,,,,,,,,,,,,,,,
1739355913.830506,1739355913.831275,50.000000,0.000000,4509.102539,4404.358887,4506.025879,5261.282227,4460.641113,4553.461426,4478.077148,4424.358887,4494.102539,4496.025879,5091.025879,4782.436035,4684.871582,4740.897461,0.000000,0.000000,12.000000,,,,0.000000,4.000000,4.000000,4.000000,4.000000,4.000000,4.000000,4.000000,4.000000,4.000000,4.000000,4.000000,4.000000,4.000000,4.000000,100.000000,,,,,,,,,,,,,,,,,,,,,,,,,,,,,,,,,,,,,,,,,,,,,,,,,,,,,,,,,,,,,,,,,,,,,,,,,,,,,,,,,,,,,,,,,,,,,,,,,,,,,,,,,,,,,,,,,,,,,,,,,,,,,,,,,
1739355913.838314,1739355913.839083,51.000000,0.000000,4498.846191,4391.922852,4490.000000,5280.641113,4431.025879,4524.102539,4470.769043,4420.512695,4477.179688,4480.256348,5092.179688,4763.077148,4682.179688,4727.051270,0.000000,0.000000,12.000000,,,,0.000000,4.000000,4.000000,4.000000,4.000000,4.000000,4.000000,4.000000,4.000000,4.000000,4.000000,4.000000,4.000000,4.000000,4.000000,100.000000,,,,,,,,,,,,,,,,,,,,,,,,,,,,,,,,,,,,,,,,,,,,,,,,,,,,,,,,,,,,,,,,,,,,,,,,,,,,,,,,,,,,,,,,,,,,,,,,,,,,,,,,,,,,,,,,,,,,,,,,,,,,,,,,,
1739355913.846122,1739355913.846891,52.000000,0.000000,4501.922852,4386.922852,4487.436035,5302.179688,4422.436035,4514.487305,4466.025879,4417.563965,4461.922852,4467.692383,5101.922852,4758.974121,4674.102539,4723.589844,0.000000,0.000000,12.000000,,,,0.000000,4.000000,4.000000,4.000000,4.000000,4.000000,4.000000,4.000000,4.000000,4.000000,4.000000,4.000000,4.000000,4.000000,4.000000,100.000000,,,,,,,,,,,,,,,,,13.000000,0.000000,0.728921,-0.042114,-0.669006,0.139038,0.967403,-0.254426,0.116225,-38.831249,-32.065426,45.374107,,,,,,,,,,,,,,,,,,,,,,,,,,,,,,,,,,,,,,,,,,,,,,,,,,,,,,,,,,,,,,,,,,,,,,,,,,,,,,,,,,,,,,,,,,,,,,,,,,,,,
1739355913.853930,1739355913.854699,53.000000,0.000000,4488.974121,4365.641113,4467.307617,5305.769043,4407.948730,4494.102539,4434.487305,4412.820313,4433.717773,4429.615234,5093.974121,4734.743652,4650.384766,4705.384766,0.000000,0.000000,12.000000,,,,0.000000,4.000000,4.000000,4.000000,4.000000,4.000000,4.000000,4.000000,4.000000,4.000000,4.000000,4.000000,4.000000,4.000000,4.000000,100.000000,,,,,,,,,,,,,,,,,,,,,,,,,,,,,,,,,,,,,,,,,,,,,,,,,,,,,,,,,,,,,,,,,,,,,,,,,,,,,,,,,,,,,,,,,,,,,,,,,,,,,,,,,,,,,,,,,,,,,,,,,,,,,,,,,
1739355913.861738,1739355913.862407,54.000000,0.000000,4506.538574,4370.256348,4475.897461,5329.102539,4401.153809,4498.589844,4440.256348,4419.871582,4443.589844,4442.563965,5110.256348,4743.974121,4672.179688,4719.358887,0.000000,0.000000,12.000000,,,,0.000000,4.000000,4.000000,4.000000,4.000000,4.000000,4.000000,4.000000,4.000000,4.000000,4.000000,4.000000,4.000000,4.000000,4.000000,100.000000,,,,,,,,,,,,,,,,,,,,,,,,,,,,,,,,,,,,,,,,,,,,,,,,,,,,,,,,,,,,,,,,,,,,,,,,,,,,,,,,,,,,,,,,,,,,,,,,,,,,,,,,,,,,,,,,,,,,,,,,,,,,,,,,,
1739355913.869546,1739355913.870215,55.000000,0.000000,4537.820313,4398.974121,4499.871582,5375.384766,4421.666504,4516.410156,4461.410156,4428.974121,4478.461426,4493.974121,5140.256348,4777.563965,4706.153809,4750.128418,0.000000,0.000000,12.000000,,,,0.000000,4.000000,4.000000,4.000000,4.000000,4.000000,4.000000,4.000000,4.000000,4.000000,4.000000,4.000000,4.000000,4.000000,4.000000,100.000000,,,,,,,,,,,,,,,,,,,,,,,,,,,,,,,,,,,,,,,,,,,,,,,,,,,,,,,,,,,,,,,,,,,,,,,,,,,,,,,,,,,,,,,,,,,,,,,,,,,,,,,,,,,,,,,,,,,,,,,,,,,,,,,,,
1739355913.877354,1739355913.877923,56.000000,0.000000,4541.538574,4407.051270,4497.692383,5420.897461,4436.282227,4504.871582,4452.051270,4430.256348,4481.666504,4495.256348,5154.871582,4786.153809,4695.641113,4751.666504,0.000000,0.000000,12.000000,,,,0.000000,4.000000,4.000000,4.000000,4.000000,4.000000,4.000000,4.000000,4.000000,4.000000,4.000000,4.000000,4.000000,4.000000,4.000000,100.000000,,,,,,,,,,,,,,,,,14.000000,0.000000,0.728631,-0.042236,-0.669250,0.139343,0.967892,-0.264681,0.104993,-38.831459,-31.992216,45.353363,,,,,,,,,,,,,,,,,,,,,,,,,,,,,,,,9.885588,8.163218,2.159604,1.309528,2.165160,10.383017,4.894562,1.734759,1.262174,1.995305,8.065125,5.288862,1.571851,1.015941,1.684751,21.434589,6.382773,1.970009,0.861328,2.572387,6.875272,1.357020,1.231971,1.010652,1.601305,7.883675,1.487772,1.557692,1.043114,1.353251,7.515783,3.333900,2.199556,1.244595,1.760226,1.925028,2.159680,1.653047,0.343804,0.352426,5.916310,4.949090,3.344023,1.749798,1.823912,8.262462,4.987423,2.464555,2.058680,1.988337,5.954980,4.537487,2.091967,1.642176,1.861253,12.346853,7.679760,3.387977,2.020792,2.654423,4.940893,3.006670,2.321696,1.456800,1.510823,8.725920,6.355589,2.250796,1.497635,2.192976
1739355913.885162,1739355913.885731,57.000000,0.000000,4527.820313,4387.179688,4480.641113,5450.512695,4414.615234,4474.102539,4426.922852,4420.641113,4456.922852,4465.128418,5156.153809,4763.974121,4669.102539,4730.128418,0.000000,0.000000,12.000000,,,,0.000000,4.000000,4.000000,4.000000,4.000000,4.000000,4.000000,4.000000,4.000000,4.000000,4.000000,4.000000,4.000000,4.000000,4.000000,100.000000,,,,,,,,,,,,,,,,,,,,,,,,,,,,,,,,,,,,,,,,,,,,,,,,,,,,,,,,,,,,,,,,,,,,,,,,,,,,,,,,,,,,,,,,,,,,,,,,,,,,,,,,,,,,,,,,,,,,,,,,,,,,,,,,,
1739355913.892970,1739355913.893439,58.000000,0.000000,4507.051270,4361.922852,4454.615234,5476.153809,4388.333496,4451.025879,4391.794922,4405.641113,4428.974121,4440.769043,5148.717773,4724.871582,4656.410156,4703.717773,0.000000,0.000000,12.000000,,,,0.000000,4.000000,4.000000,4.000000,4.000000,4.000000,4.000000,4.000000,4.000000,4.000000,4.000000,4.000000,4.000000,4.000000,4.000000,100.000000,,,,,,,,,,,,,,,,,,,,,,,,,,,,,,,,,,,,,,,,,,,,,,,,,,,,,,,,,,,,,,,,,,,,,,,,,,,,,,,,,,,,,,,,,,,,,,,,,,,,,,,,,,,,,,,,,,,,,,,,,,,,,,,,,
1739355913.900779,1739355913.901247,59.000000,0.000000,4530.641113,4383.461426,4468.333496,5568.974121,4405.256348,4467.307617,4416.538574,4418.205078,4447.563965,4458.333496,5196.282227,4742.051270,4687.307617,4721.666504,0.000000,0.000000,12.000000,,,,0.000000,4.000000,4.000000,4.000000,4.000000,4.000000,4.000000,4.000000,4.000000,4.000000,4.000000,4.000000,4.000000,4.000000,4.000000,100.000000,,,,,,,,,,,,,,,,,,,,,,,,,,,,,,,,,,,,,,,,,,,,,,,,,,,,,,,,,,,,,,,,,,,,,,,,,,,,,,,,,,,,,,,,,,,,,,,,,,,,,,,,,,,,,,,,,,,,,,,,,,,,,,,,,
1739355913.908587,1739355913.908955,60.000000,0.000000,4585.256348,4430.128418,4511.922852,5704.871582,4442.436035,4505.512695,4483.846191,4438.974121,4495.256348,4507.179688,5284.230957,4802.948730,4728.205078,4766.922852,0.000000,0.000000,12.000000,,,,0.000000,4.000000,4.000000,4.000000,4.000000,4.000000,4.000000,4.000000,4.000000,4.000000,4.000000,4.000000,4.000000,4.000000,4.000000,100.000000,,,,,,,,,,,,,,,,,15.000000,0.000000,0.728263,-0.042419,-0.669678,0.139160,0.962031,-0.263704,0.111342,-38.831646,-32.009663,45.418026,,,,,,,,,,,,,,,,,,,,,,,,,,,,,,,,,,,,,,,,,,,,,,,,,,,,,,,,,,,,,,,,,,,,,,,,,,,,,,,,,,,,,,,,,,,,,,,,,,,,,
1739355913.916395,1739355913.916763,61.000000,0.000000,4549.230957,4395.641113,4477.179688,5729.230957,4413.846191,4473.461426,4443.077148,4419.871582,4458.717773,4459.615234,5284.230957,4766.922852,4686.666504,4731.025879,0.000000,0.000000,12.000000,,,,0.000000,4.000000,4.000000,4.000000,4.000000,4.000000,4.000000,4.000000,4.000000,4.000000,4.000000,4.000000,4.000000,4.000000,4.000000,100.000000,,,,,,,,,,,,,,,,,,,,,,,,,,,,,,,,,,,,,,,,,,,,,,,,,,,,,,,,,,,,,,,,,,,,,,,,,,,,,,,,,,,,,,,,,,,,,,,,,,,,,,,,,,,,,,,,,,,,,,,,,,,,,,,,,
1739355913.924203,1739355913.924471,62.000000,0.000000,4511.666504,4358.589844,4443.461426,5719.487305,4383.461426,4426.666504,4394.358887,4412.179688,4418.974121,4396.282227,5275.384766,4726.153809,4661.794922,4700.384766,0.000000,0.000000,12.000000,,,,0.000000,4.000000,4.000000,4.000000,4.000000,4.000000,4.000000,4.000000,4.000000,4.000000,4.000000,4.000000,4.000000,4.000000,4.000000,100.000000,,,,,,,,,,,,,,,,,,,,,,,,,,,,,,,,,,,,,,,,,,,,,,,,,,,,,,,,,,,,,,,,,,,,,,,,,,,,,,,,,,,,,,,,,,,,,,,,,,,,,,,,,,,,,,,,,,,,,,,,,,,,,,,,,
1739355913.932011,1739355913.932279,63.000000,0.000000,4546.794922,4385.000000,4474.487305,5767.051270,4401.666504,4446.153809,4433.846191,4429.230957,4453.205078,4449.230957,5329.358887,4762.436035,4702.820313,4734.615234,0.000000,0.000000,12.000000,,,,0.000000,4.000000,4.000000,4.000000,4.000000,4.000000,4.000000,4.000000,4.000000,4.000000,4.000000,4.000000,4.000000,4.000000,4.000000,100.000000,,,,,,,,,,,,,,,,,,,,,,,,,,,,,,,,,,,,,,,,,,,,,,,,,,,,,,,,,,,,,,,,,,,,,,,,,,,,,,,,,,,,,,,,,,,,,,,,,,,,,,,,,,,,,,,,,,,,,,,,,,,,,,,,,
1739355913.939819,1739355913.939987,64.000000,0.000000,4535.769043,4386.666504,4461.538574,5768.717773,4411.538574,4457.051270,4417.307617,4415.000000,4441.922852,4477.307617,5340.256348,4746.153809,4689.487305,4719.358887,4944.000000,0.000000,12.000000,,,,0.000000,4.000000,4.000000,4.000000,4.000000,4.000000,4.000000,4.000000,4.000000,4.000000,4.000000,4.000000,4.000000,4.000000,4.000000,100.000000,,,,,,,,,,,,,,,,,16.000000,0.000000,0.727709,-0.042480,-0.670288,0.139099,0.968380,-0.231962,0.092785,-38.948483,-32.042030,45.492889,,,,,,,,,,,,,,,,,,,,,,,,,,,,,,,,,,,,,,,,,,,,,,,,,,,,,,,,,,,,,,,,,,,,,,,,,,,,,,,,,,,,,,,,,,,,,,,,,,,,,
1739355913.947627,1739355913.947895,65.000000,0.000000,4513.077148,4378.846191,4439.743652,5773.461426,4414.358887,4443.974121,4369.230957,4401.794922,4404.487305,4436.410156,5357.820313,4720.384766,4664.102539,4698.205078,5335.000000,0.000000,12.000000,,,,0.000000,4.000000,4.000000,4.000000,4.000000,4.000000,4.000000,4.000000,4.000000,4.000000,4.000000,4.000000,4.000000,4.000000,4.000000,100.000000,,,,,,,,,,,,,,,,,,,,,,,,,,,,,,,,,,,,,,,,,,,,,,,,,,,,,,,,,,,,,,,,,,,,,,,,,,,,,,,,,,,,,,,,,,,,,,,,,,,,,,,,,,,,,,,,,,,,,,,,,,,,,,,,,
1739355913.955435,1739355913.955703,66.000000,0.000000,4561.922852,4406.666504,4486.025879,5841.282227,4413.461426,4449.743652,4413.333496,4425.512695,4443.077148,4440.897461,5451.666504,4782.820313,4694.358887,4748.205078,5465.000000,0.000000,12.000000,,,,0.000000,4.000000,4.000000,4.000000,4.000000,4.000000,4.000000,4.000000,4.000000,4.000000,4.000000,4.000000,4.000000,4.000000,4.000000,100.000000,,,,,,,,,,,,,,,,,,,,,,,,,,,,,,,,,,,,,,,,,,,,,,,,,,,,,,,,,,,,,,,,,,,,,,,,,,,,,,,,,,,,,,,,,,,,,,,,,,,,,,,,,,,,,,,,,,,,,,,,,,,,,,,,,
1739355913.963243,1739355913.963611,67.000000,0.000000,4589.743652,4414.358887,4513.461426,5852.692383,4394.615234,4443.205078,4464.743652,4441.794922,4467.179688,4449.615234,5499.487305,4828.205078,4698.205078,4776.666504,5429.000000,0.000000,12.000000,,,,0.000000,4.000000,4.000000,4.000000,4.000000,4.000000,4.000000,4.000000,4.000000,4.000000,4.000000,4.000000,4.000000,4.000000,4.000000,100.000000,,,,,,,,,,,,,,,,,,,,,,,,,,,,,,,,,,,,,,,,,,,,,,,,,,,,,,,,,,,,,,,,,,,,,,,,,,,,,,,,,,,,,,,,,,,,,,,,,,,,,,,,,,,,,,,,,,,,,,,,,,,,,,,,,
1739355913.971051,1739355913.971420,68.000000,0.000000,4570.641113,4409.743652,4489.230957,5815.512695,4401.153809,4437.179688,4446.794922,4428.333496,4436.282227,4440.897461,5473.846191,4804.871582,4681.538574,4754.358887,5369.000000,0.000000,12.000000,,,,0.000000,4.000000,4.000000,4.000000,4.000000,4.000000,4.000000,4.000000,4.000000,4.000000,4.000000,4.000000,4.000000,4.000000,4.000000,100.000000,,,,,,,,,,,,,,,,,17.000000,0.000000,0.727120,-0.042542,-0.670898,0.139221,0.965450,-0.245147,0.098645,-38.870300,-31.954493,45.443600,,,,,,,,,,,,,,,,,,,,,,,,,,,,,,,,,,,,,,,,,,,,,,,,,,,,,,,,,,,,,,,,,,,,,,,,,,,,,,,,,,,,,,,,,,,,,,,,,,,,,
1739355913.978860,1739355913.979228,69.000000,0.000000,4561.538574,4418.974121,4461.410156,5820.128418,4432.948730,4441.794922,4391.922852,4407.307617,4423.717773,4461.794922,5490.897461,4768.333496,4688.974121,4733.205078,5342.000000,0.000000,12.000000,,,,0.000000,4.000000,4.000000,4.000000,4.000000,4.000000,4.000000,4.000000,4.000000,4.000000,4.000000,4.000000,4.000000,4.000000,4.000000,100.000000,,,,,,,,,,,,,,,,,,,,,,,,,,,,,,,,,,,,,,,,,,,,,,,,,,,,,,,,,,,,,,,,,,,,,,,,,,,,,,,,,,,,,,,,,,,,,,,,,,,,,,,,,,,,,,,,,,,,,,,,,,,,,,,,,
1739355913.986668,1739355913.986936,70.000000,0.000000,4559.743652,4398.717773,4456.666504,5837.436035,4410.256348,4420.000000,4368.846191,4404.743652,4428.461426,4458.974121,5581.025879,4759.743652,4687.563965,4723.846191,5332.000000,0.000000,12.000000,,,,0.000000,4.000000,4.000000,4.000000,4.000000,4.000000,4.000000,4.000000,4.000000,4.000000,4.000000,4.000000,4.000000,4.000000,4.000000,100.000000,,,,,,,,,,,,,,,,,,,,,,,,,,,,,,,,,,,,,,,,,,,,,,,,,,,,,,,,,,,,,,,,,,,,,,,,,,,,,,,,,,,,,,,,,,,,,,,,,,,,,,,,,,,,,,,,,,,,,,,,,,,,,,,,,
1739355913.994475,1739355913.994844,71.000000,0.000000,4558.974121,4371.794922,4465.769043,5825.512695,4366.794922,4394.102539,4395.384766,4415.897461,4419.871582,4424.615234,5660.512695,4775.897461,4680.256348,4720.512695,2030.000000,0.000000,12.000000,,,,0.000000,4.000000,4.000000,4.000000,4.000000,4.000000,4.000000,4.000000,4.000000,4.000000,4.000000,4.000000,4.000000,4.000000,4.000000,100.000000,,,,,,,,,,,,,,,,,,,,,,,,,,,,,,,,,,,,,,,,,,,,,,,,,,,,,,,,,,,,,,,,,,,,,,,,,,,,,,,,,,,,,,,,,,,,,,,,,,,,,,,,,,,,,,,,,,,,,,,,,,,,,,,,,
1739355914.002284,1739355914.002652,72.000000,0.000000,4554.615234,4379.615234,4458.077148,5803.461426,4379.230957,4394.230957,4401.410156,4412.563965,4405.897461,4422.051270,5721.794922,4774.487305,4684.102539,4716.922852,5136.000000,0.000000,12.000000,,,,0.000000,4.000000,4.000000,4.000000,4.000000,4.000000,4.000000,4.000000,4.000000,4.000000,4.000000,4.000000,4.000000,4.000000,4.000000,100.000000,1.000000,8.333333,1.000000,1.000000,1.000000,0.000000,1.000000,1.000000,1.000000,3.000000,3.000000,1.000000,0.000000,1.000000,1.000000,1.000000,18.000000,0.000000,0.726665,-0.042847,-0.671448,0.138855,0.942498,-0.251984,0.102063,-38.999935,-31.759043,45.332573,,,,,,,,,,,,,,,,,,,,,,,,,,,,,,,,8.894442,8.148332,2.211054,1.380837,2.115850,8.875998,5.069746,1.690107,1.358539,1.957841,8.265666,5.249751,1.522463,1.086641,1.669954,32.513775,7.400301,2.054790,0.950576,2.584388,8.732769,1.154436,1.113910,1.128844,1.626080,9.616039,1.600067,1.462918,1.166209,1.352709,9.069502,3.858768,2.055942,1.367047,1.688057,2.533870,1.966725,1.539467,0.354500,0.348911,7.644974,4.565085,2.836035,1.679161,1.855509,10.440308,4.588255,2.216780,1.997076,2.017020,8.186609,4.262421,1.958786,1.746381,1.837913,14.110717,7.132553,3.070846,2.124907,2.641706,5.947783,3.067471,2.158585,1.557978,1.556836,8.876180,6.269602,2.109216,1.544152,2.183388
1739355914.010092,1739355914.010560,73.000000,0.000000,4546.538574,4392.307617,4447.436035,5800.000000,4389.230957,4398.205078,4390.897461,4405.128418,4405.384766,4436.794922,5834.615234,4762.179688,4685.641113,4715.512695,5507.000000,0.000000,12.000000,,,,0.000000,4.000000,4.000000,4.000000,4.000000,4.000000,4.000000,4.000000,4.000000,4.000000,4.000000,4.000000,4.000000,4.000000,4.000000,100.000000,,,,,,,,,,,,,,,,,,,,,,,,,,,,,,,,,,,,,,,,,,,,,,,,,,,,,,,,,,,,,,,,,,,,,,,,,,,,,,,,,,,,,,,,,,,,,,,,,,,,,,,,,,,,,,,,,,,,,,,,,,,,,,,,,
1739355914.017900,1739355914.018369,74.000000,0.000000,4532.563965,4388.846191,4434.615234,5818.461426,4368.974121,4388.846191,4371.282227,4402.948730,4387.692383,4417.948730,5958.717773,4750.897461,4670.512695,4704.743652,4794.000000,0.000000,12.000000,,,,0.000000,4.000000,4.000000,4.000000,4.000000,4.000000,4.000000,4.000000,4.000000,4.000000,4.000000,4.000000,4.000000,4.000000,4.000000,100.000000,,,,,,,,,,,,,,,,,,,,,,,,,,,,,,,,,,,,,,,,,,,,,,,,,,,,,,,,,,,,,,,,,,,,,,,,,,,,,,,,,,,,,,,,,,,,,,,,,,,,,,,,,,,,,,,,,,,,,,,,,,,,,,,,,
1739355914.025708,1739355914.026277,75.000000,0.000000,4510.512695,4375.384766,4411.794922,5830.641113,4363.333496,4363.461426,4340.512695,4397.820313,4353.717773,4394.487305,6054.487305,4732.179688,4647.948730,4683.974121,5454.000000,0.000000,12.000000,,,,0.000000,4.000000,4.000000,4.000000,4.000000,4.000000,4.000000,4.000000,4.000000,4.000000,4.000000,4.000000,4.000000,4.000000,4.000000,100.000000,,,,,,,,,,,,,,,,,,,,,,,,,,,,,,,,,,,,,,,,,,,,,,,,,,,,,,,,,,,,,,,,,,,,,,,,,,,,,,,,,,,,,,,,,,,,,,,,,,,,,,,,,,,,,,,,,,,,,,,,,,,,,,,,,
1739355914.033516,1739355914.034085,76.000000,0.000000,4517.563965,4377.563965,4427.307617,5859.743652,4366.922852,4351.666504,4369.102539,4405.512695,4373.077148,4418.846191,6182.820313,4754.615234,4651.538574,4700.641113,5318.000000,0.000000,12.000000,,,,0.000000,4.000000,4.000000,4.000000,4.000000,4.000000,4.000000,4.000000,4.000000,4.000000,4.000000,4.000000,4.000000,4.000000,4.000000,100.000000,,,,,,,,,,,,,,,,,19.000000,0.000000,0.726518,-0.043274,-0.671692,0.138306,0.964962,-0.250031,0.099622,-39.183277,-31.899805,45.382648,,,,,,,,,,,,,,,,,,,,,,,,,,,,,,,,,,,,,,,,,,,,,,,,,,,,,,,,,,,,,,,,,,,,,,,,,,,,,,,,,,,,,,,,,,,,,,,,,,,,,
1739355914.041324,1739355914.041993,77.000000,0.000000,4537.692383,4385.897461,4456.282227,5921.666504,4359.358887,4371.153809,4406.794922,4413.974121,4405.256348,4435.128418,6282.179688,4793.333496,4663.846191,4727.692383,6327.000000,0.000000,12.000000,,,,0.000000,4.000000,4.000000,4.000000,4.000000,4.000000,4.000000,4.000000,4.000000,4.000000,4.000000,4.000000,4.000000,4.000000,4.000000,100.000000,,,,,,,,,,,,,,,,,,,,,,,,,,,,,,,,,,,,,,,,,,,,,,,,,,,,,,,,,,,,,,,,,,,,,,,,,,,,,,,,,,,,,,,,,,,,,,,,,,,,,,,,,,,,,,,,,,,,,,,,,,,,,,,,,
1739355914.049132,1739355914.049801,78.000000,0.000000,4510.512695,4368.077148,4420.641113,5933.205078,4366.410156,4365.256348,4348.333496,4395.769043,4372.692383,4400.897461,6276.922852,4759.487305,4644.230957,4695.128418,4794.000000,0.000000,12.000000,,,,0.000000,4.000000,4.000000,4.000000,4.000000,4.000000,4.000000,4.000000,4.000000,4.000000,4.000000,4.000000,4.000000,4.000000,4.000000,100.000000,,,,,,,,,,,,,,,,,,,,,,,,,,,,,,,,,,,,,,,,,,,,,,,,,,,,,,,,,,,,,,,,,,,,,,,,,,,,,,,,,,,,,,,,,,,,,,,,,,,,,,,,,,,,,,,,,,,,,,,,,,,,,,,,,
1739355914.056940,1739355914.057509,79.000000,0.000000,4475.128418,4341.538574,4382.948730,5912.563965,4353.589844,4323.717773,4291.666504,4382.179688,4334.102539,4377.948730,6282.692383,4713.333496,4620.641113,4657.948730,5454.000000,0.000000,12.000000,,,,0.000000,4.000000,4.000000,4.000000,4.000000,4.000000,4.000000,4.000000,4.000000,4.000000,4.000000,4.000000,4.000000,4.000000,4.000000,100.000000,,,,,,,,,,,,,,,,,,,,,,,,,,,,,,,,,,,,,,,,,,,,,,,,,,,,,,,,,,,,,,,,,,,,,,,,,,,,,,,,,,,,,,,,,,,,,,,,,,,,,,,,,,,,,,,,,,,,,,,,,,,,,,,,,
1739355914.064748,1739355914.065317,80.000000,0.000000,4488.846191,4339.615234,4409.615234,5954.615234,4318.589844,4316.025879,4325.641113,4391.410156,4349.230957,4397.307617,6358.333496,4738.974121,4628.974121,4682.436035,5318.000000,0.000000,12.000000,,,,0.000000,4.000000,4.000000,4.000000,4.000000,4.000000,4.000000,4.000000,4.000000,4.000000,4.000000,4.000000,4.000000,4.000000,4.000000,100.000000,,,,,,,,,,,,,,,,,20.000000,0.000000,0.726039,-0.043396,-0.672302,0.137817,0.964473,-0.243194,0.098157,-39.264950,-31.993158,45.344387,,,,,,,,,,,,,,,,,,,,,,,,,,,,,,,,,,,,,,,,,,,,,,,,,,,,,,,,,,,,,,,,,,,,,,,,,,,,,,,,,,,,,,,,,,,,,,,,,,,,,
1739355914.072556,1739355914.073025,81.000000,0.000000,4494.230957,4337.563965,4412.307617,5998.205078,4328.974121,4323.333496,4329.358887,4393.461426,4349.743652,4390.384766,6380.000000,4753.333496,4621.410156,4693.974121,6327.000000,0.000000,12.000000,,,,0.000000,4.000000,4.000000,4.000000,4.000000,4.000000,4.000000,4.000000,4.000000,4.000000,4.000000,4.000000,4.000000,4.000000,4.000000,100.000000,,,,,,,,,,,,,,,,,,,,,,,,,,,,,,,,,,,,,,,,,,,,,,,,,,,,,,,,,,,,,,,,,,,,,,,,,,,,,,,,,,,,,,,,,,,,,,,,,,,,,,,,,,,,,,,,,,,,,,,,,,,,,,,,,
1739355914.080365,1739355914.080833,82.000000,0.000000,4491.922852,4325.128418,4398.974121,5988.205078,4333.461426,4312.051270,4328.333496,4396.410156,4337.820313,4364.230957,6370.000000,4750.256348,4601.025879,4684.743652,4794.000000,0.000000,12.000000,,,,0.000000,4.000000,4.000000,4.000000,4.000000,4.000000,4.000000,4.000000,4.000000,4.000000,4.000000,4.000000,4.000000,4.000000,4.000000,100.000000,,,,,,,,,,,,,,,,,,,,,,,,,,,,,,,,,,,,,,,,,,,,,,,,,,,,,,,,,,,,,,,,,,,,,,,,,,,,,,,,,,,,,,,,,,,,,,,,,,,,,,,,,,,,,,,,,,,,,,,,,,,,,,,,,
1739355914.088173,1739355914.088541,83.000000,0.000000,4505.897461,4338.589844,4412.307617,5992.051270,4299.487305,4305.641113,4373.461426,4402.692383,4354.102539,4382.692383,6433.846191,4764.615234,4615.641113,4695.897461,5454.000000,0.000000,12.000000,,,,0.000000,4.000000,4.000000,4.000000,4.000000,4.000000,4.000000,4.000000,4.000000,4.000000,4.000000,4.000000,4.000000,4.000000,4.000000,100.000000,,,,,,,,,,,,,,,,,,,,,,,,,,,,,,,,,,,,,,,,,,,,,,,,,,,,,,,,,,,,,,,,,,,,,,,,,,,,,,,,,,,,,,,,,,,,,,,,,,,,,,,,,,,,,,,,,,,,,,,,,,,,,,,,,
1739355914.095981,1739355914.096349,84.000000,0.000000,4475.384766,4346.153809,4384.743652,6025.128418,4301.410156,4301.282227,4334.358887,4386.794922,4338.333496,4381.410156,6471.794922,4732.179688,4604.102539,4672.436035,5318.000000,0.000000,12.000000,,,,0.000000,4.000000,4.000000,4.000000,4.000000,4.000000,4.000000,4.000000,4.000000,4.000000,4.000000,4.000000,4.000000,4.000000,4.000000,100.000000,,,,,,,,,,,,,,,,,21.000000,0.000000,0.725701,-0.043213,-0.672729,0.137573,0.986937,-0.242705,0.097668,-39.221786,-32.060509,45.359947,,,,,,,,,,,,,,,,,,,,,,,,,,,,,,,,,,,,,,,,,,,,,,,,,,,,,,,,,,,,,,,,,,,,,,,,,,,,,,,,,,,,,,,,,,,,,,,,,,,,,
1739355914.103789,1739355914.104057,85.000000,0.000000,4430.384766,4337.948730,4335.512695,6067.948730,4333.205078,4295.897461,4256.538574,4374.615234,4299.358887,4345.512695,6448.461426,4682.692383,4563.589844,4630.769043,6327.000000,0.000000,12.000000,,,,0.000000,4.000000,4.000000,4.000000,4.000000,4.000000,4.000000,4.000000,4.000000,4.000000,4.000000,4.000000,4.000000,4.000000,4.000000,100.000000,,,,,,,,,,,,,,,,,,,,,,,,,,,,,,,,,,,,,,,,,,,,,,,,,,,,,,,,,,,,,,,,,,,,,,,,,,,,,,,,,,,,,,,,,,,,,,,,,,,,,,,,,,,,,,,,,,,,,,,,,,,,,,,,,
1739355914.111597,1739355914.111865,86.000000,0.000000,4466.922852,4357.051270,4371.666504,6189.102539,4321.153809,4305.256348,4313.205078,4395.384766,4325.000000,4372.051270,6508.846191,4724.871582,4588.205078,4664.743652,4794.000000,0.000000,12.000000,,,,0.000000,4.000000,4.000000,4.000000,4.000000,4.000000,4.000000,4.000000,4.000000,4.000000,4.000000,4.000000,4.000000,4.000000,4.000000,100.000000,,,,,,,,,,,,,,,,,,,,,,,,,,,,,,,,,,,,,,,,,,,,,,,,,,,,,,,,,,,,,,,,,,,,,,,,,,,,,,,,,,,,,,,,,,,,,,,,,,,,,,,,,,,,,,,,,,,,,,,,,,,,,,,,,
1739355914.119405,1739355914.119573,87.000000,0.000000,4490.512695,4354.871582,4397.948730,6321.922852,4294.230957,4295.384766,4358.077148,4399.871582,4348.846191,4399.615234,6590.384766,4752.436035,4606.922852,4687.307617,5454.000000,0.000000,12.000000,,,,0.000000,4.000000,4.000000,4.000000,4.000000,4.000000,4.000000,4.000000,4.000000,4.000000,4.000000,4.000000,4.000000,4.000000,4.000000,100.000000,,,,,,,,,,,,,,,,,,,,,,,,,,,,,,,,,,,,,,,,,,,,,,,,,,,,,,,,,,,,,,,,,,,,,,,,,,,,,,,,,,,,,,,,,,,,,,,,,,,,,,,,,,,,,,,,,,,,,,,,,,,,,,,,,
1739355914.127213,1739355914.127381,88.000000,0.000000,4434.743652,4324.230957,4337.692383,6373.974121,4290.897461,4251.922852,4277.820313,4375.897461,4305.256348,4354.487305,6612.948730,4684.615234,4565.128418,4633.589844,5318.000000,0.000000,12.000000,,,,0.000000,4.000000,4.000000,4.000000,4.000000,4.000000,4.000000,4.000000,4.000000,4.000000,4.000000,4.000000,4.000000,4.000000,4.000000,100.000000,,,,,,,,,,,,,,,,,22.000000,0.000000,0.724846,-0.042542,-0.673767,0.137207,0.976682,-0.234892,0.089366,-39.366276,-32.037792,45.423950,,,,,,,,,,,,,,,,,,,,,,,,,,,,,,,,9.712649,7.840177,2.288457,1.461231,2.038832,9.465585,5.108233,1.630103,1.465735,1.874359,8.847854,5.229343,1.562353,1.173425,1.629021,45.725700,8.320615,2.266984,1.109966,2.529319,10.788441,1.094306,1.047631,1.217144,1.636842,11.395672,1.732359,1.345544,1.295544,1.350320,10.555907,4.235692,1.819741,1.477269,1.598040,3.020690,1.713923,1.330925,0.374457,0.339952,9.241150,3.864538,2.356936,1.609521,1.850331,12.605294,3.864151,2.012835,1.913413,2.053473,11.250486,3.994243,1.837792,1.854966,1.790917,15.863994,6.569515,2.807506,2.228260,2.578103,7.315043,3.068475,1.927524,1.651480,1.588525,10.474260,6.122419,1.953975,1.595251,2.124721
1739355914.135021,1739355914.135089,89.000000,0.000000,4433.205078,4343.205078,4327.692383,6474.487305,4291.794922,4248.205078,4257.436035,4379.102539,4284.615234,4334.487305,6695.256348,4676.282227,4561.666504,4634.871582,6327.000000,0.000000,12.000000,,,,0.000000,4.000000,4.000000,4.000000,4.000000,4.000000,4.000000,4.000000,4.000000,4.000000,4.000000,4.000000,4.000000,4.000000,4.000000,100.000000,,,,,,,,,,,,,,,,,,,,,,,,,,,,,,,,,,,,,,,,,,,,,,,,,,,,,,,,,,,,,,,,,,,,,,,,,,,,,,,,,,,,,,,,,,,,,,,,,,,,,,,,,,,,,,,,,,,,,,,,,,,,,,,,,
1739355914.142829,1739355914.142897,90.000000,0.000000,4484.230957,4366.282227,4371.153809,6669.230957,4306.538574,4281.410156,4303.077148,4392.563965,4312.820313,4374.487305,6802.307617,4731.794922,4584.230957,4687.051270,4794.000000,0.000000,12.000000,,,,0.000000,4.000000,4.000000,4.000000,4.000000,4.000000,4.000000,4.000000,4.000000,4.000000,4.000000,4.000000,4.000000,4.000000,4.000000,100.000000,,,,,,,,,,,,,,,,,,,,,,,,,,,,,,,,,,,,,,,,,,,,,,,,,,,,,,,,,,,,,,,,,,,,,,,,,,,,,,,,,,,,,,,,,,,,,,,,,,,,,,,,,,,,,,,,,,,,,,,,,,,,,,,,,
1739355914.150637,1739355914.150605,91.000000,0.000000,4470.641113,4338.461426,4355.384766,6841.410156,4314.615234,4271.922852,4282.051270,4378.717773,4315.769043,4382.436035,6811.025879,4714.358887,4560.256348,4670.641113,5454.000000,0.000000,12.000000,,,,0.000000,4.000000,4.000000,4.000000,4.000000,4.000000,4.000000,4.000000,4.000000,4.000000,4.000000,4.000000,4.000000,4.000000,4.000000,100.000000,,,,,,,,,,,,,,,,,,,,,,,,,,,,,,,,,,,,,,,,,,,,,,,,,,,,,,,,,,,,,,,,,,,,,,,,,,,,,,,,,,,,,,,,,,,,,,,,,,,,,,,,,,,,,,,,,,,,,,,,,,,,,,,,,
1739355914.158445,1739355914.158513,92.000000,0.000000,4437.051270,4320.256348,4314.487305,6987.307617,4302.051270,4238.461426,4241.410156,4365.000000,4295.512695,4367.820313,6842.307617,4663.589844,4546.282227,4630.256348,5318.000000,0.000000,12.000000,,,,0.000000,4.000000,4.000000,4.000000,4.000000,4.000000,4.000000,4.000000,4.000000,4.000000,4.000000,4.000000,4.000000,4.000000,4.000000,100.000000,,,,,,,,,,,,,,,,,23.000000,0.000000,0.723986,-0.042114,-0.674744,0.137085,0.970333,-0.236357,0.086925,-39.346313,-32.034012,45.331558,,,,,,,,,,,,,,,,,,,,,,,,,,,,,,,,,,,,,,,,,,,,,,,,,,,,,,,,,,,,,,,,,,,,,,,,,,,,,,,,,,,,,,,,,,,,,,,,,,,,,
1739355914.166253,1739355914.166321,93.000000,0.000000,4466.794922,4341.025879,4325.256348,7150.769043,4299.102539,4242.179688,4258.205078,4374.102539,4294.743652,4379.358887,6947.563965,4680.769043,4560.897461,4646.025879,6327.000000,0.000000,12.000000,,,,0.000000,4.000000,4.000000,4.000000,4.000000,4.000000,4.000000,4.000000,4.000000,4.000000,4.000000,4.000000,4.000000,4.000000,4.000000,100.000000,,,,,,,,,,,,,,,,,,,,,,,,,,,,,,,,,,,,,,,,,,,,,,,,,,,,,,,,,,,,,,,,,,,,,,,,,,,,,,,,,,,,,,,,,,,,,,,,,,,,,,,,,,,,,,,,,,,,,,,,,,,,,,,,,
1739355914.174061,1739355914.174229,94.000000,0.000000,4490.384766,4330.641113,4337.436035,7235.769043,4290.000000,4250.000000,4281.922852,4377.820313,4301.794922,4385.128418,6996.666504,4707.051270,4546.922852,4658.205078,4794.000000,0.000000,12.000000,,,,0.000000,4.000000,4.000000,4.000000,4.000000,4.000000,4.000000,4.000000,4.000000,4.000000,4.000000,4.000000,4.000000,4.000000,4.000000,100.000000,,,,,,,,,,,,,,,,,,,,,,,,,,,,,,,,,,,,,,,,,,,,,,,,,,,,,,,,,,,,,,,,,,,,,,,,,,,,,,,,,,,,,,,,,,,,,,,,,,,,,,,,,,,,,,,,,,,,,,,,,,,,,,,,,
1739355914.181870,1739355914.182038,95.000000,0.000000,4463.461426,4291.282227,4310.384766,7265.769043,4273.846191,4228.205078,4266.794922,4367.051270,4294.871582,4370.769043,6998.846191,4679.487305,4527.436035,4632.436035,5454.000000,0.000000,12.000000,,,,0.000000,4.000000,4.000000,4.000000,4.000000,4.000000,4.000000,4.000000,4.000000,4.000000,4.000000,4.000000,4.000000,4.000000,4.000000,100.000000,,,,,,,,,,,,,,,,,,,,,,,,,,,,,,,,,,,,,,,,,,,,,,,,,,,,,,,,,,,,,,,,,,,,,,,,,,,,,,,,,,,,,,,,,,,,,,,,,,,,,,,,,,,,,,,,,,,,,,,,,,,,,,,,,
1739355914.189678,1739355914.189946,96.000000,0.000000,4461.538574,4285.897461,4299.871582,7324.102539,4283.205078,4219.871582,4244.230957,4363.846191,4279.358887,4355.384766,7019.102539,4663.974121,4520.641113,4626.794922,5318.000000,0.000000,12.000000,,,,0.000000,4.000000,4.000000,4.000000,4.000000,4.000000,4.000000,4.000000,4.000000,4.000000,4.000000,4.000000,4.000000,4.000000,4.000000,100.000000,,,,,,,,,,,,,,,,,24.000000,0.000000,0.722967,-0.042175,-0.675781,0.137329,0.961055,-0.237334,0.093273,-39.378349,-32.047279,45.315067,,,,,,,,,,,,,,,,,,,,,,,,,,,,,,,,,,,,,,,,,,,,,,,,,,,,,,,,,,,,,,,,,,,,,,,,,,,,,,,,,,,,,,,,,,,,,,,,,,,,,
1739355914.197486,1739355914.197754,97.000000,0.000000,4480.897461,4300.384766,4307.820313,7331.666504,4291.153809,4222.820313,4239.615234,4363.846191,4277.179688,4357.179688,7024.230957,4673.077148,4513.333496,4639.487305,6327.000000,0.000000,12.000000,,,,0.000000,4.000000,4.000000,4.000000,4.000000,4.000000,4.000000,4.000000,4.000000,4.000000,4.000000,4.000000,4.000000,4.000000,4.000000,100.000000,,,,,,,,,,,,,,,,,,,,,,,,,,,,,,,,,,,,,,,,,,,,,,,,,,,,,,,,,,,,,,,,,,,,,,,,,,,,,,,,,,,,,,,,,,,,,,,,,,,,,,,,,,,,,,,,,,,,,,,,,,,,,,,,,
1739355914.205294,1739355914.205662,98.000000,0.000000,4464.487305,4285.641113,4294.615234,7307.436035,4263.717773,4205.000000,4228.461426,4354.615234,4276.538574,4356.922852,6975.128418,4659.743652,4503.846191,4624.743652,4794.000000,0.000000,12.000000,,,,0.000000,4.000000,4.000000,4.000000,4.000000,4.000000,4.000000,4.000000,4.000000,4.000000,4.000000,4.000000,4.000000,4.000000,4.000000,100.000000,,,,,,,,,,,,,,,,,,,,,,,,,,,,,,,,,,,,,,,,,,,,,,,,,,,,,,,,,,,,,,,,,,,,,,,,,,,,,,,,,,,,,,,,,,,,,,,,,,,,,,,,,,,,,,,,,,,,,,,,,,,,,,,,,
1739355914.213102,1739355914.213470,99.000000,0.000000,4440.769043,4260.769043,4270.128418,7342.563965,4247.179688,4183.846191,4197.692383,4346.538574,4252.563965,4352.051270,6907.179688,4635.769043,4489.871582,4602.563965,5454.000000,0.000000,12.000000,,,,0.000000,4.000000,4.000000,4.000000,4.000000,4.000000,4.000000,4.000000,4.000000,4.000000,4.000000,4.000000,4.000000,4.000000,4.000000,100.000000,,,,,,,,,,,,,,,,,,,,,,,,,,,,,,,,,,,,,,,,,,,,,,,,,,,,,,,,,,,,,,,,,,,,,,,,,,,,,,,,,,,,,,,,,,,,,,,,,,,,,,,,,,,,,,,,,,,,,,,,,,,,,,,,,
1739355914.220910,1739355914.221378,100.000000,0.000000,4457.051270,4265.256348,4278.589844,7372.692383,4256.025879,4177.563965,4196.666504,4351.153809,4246.538574,4370.256348,6868.077148,4646.282227,4489.487305,4616.282227,5318.000000,0.000000,12.000000,,,,0.000000,4.000000,4.000000,4.000000,4.000000,4.000000,4.000000,4.000000,4.000000,4.000000,4.000000,4.000000,4.000000,4.000000,4.000000,100.000000,,,,,,,,,,,,,,,,,25.000000,0.000000,0.721870,-0.042542,-0.676819,0.137878,0.969845,-0.244659,0.085460,-39.323849,-32.025883,45.216896,,,,,,,,,,,,,,,,,,,,,,,,,,,,,,,,,,,,,,,,,,,,,,,,,,,,,,,,,,,,,,,,,,,,,,,,,,,,,,,,,,,,,,,,,,,,,,,,,,,,,
1739355914.228718,1739355914.229186,101.000000,0.000000,4471.410156,4276.153809,4295.000000,7340.641113,4253.205078,4178.205078,4209.358887,4355.384766,4265.512695,4388.461426,6816.025879,4663.846191,4498.077148,4632.307617,6327.000000,0.000000,12.000000,,,,0.000000,4.000000,4.000000,4.000000,4.000000,4.000000,4.000000,4.000000,4.000000,4.000000,4.000000,4.000000,4.000000,4.000000,4.000000,100.000000,,,,,,,,,,,,,,,,,,,,,,,,,,,,,,,,,,,,,,,,,,,,,,,,,,,,,,,,,,,,,,,,,,,,,,,,,,,,,,,,,,,,,,,,,,,,,,,,,,,,,,,,,,,,,,,,,,,,,,,,,,,,,,,,,
1739355914.236526,1739355914.236994,102.000000,0.000000,4458.077148,4267.307617,4286.153809,7316.794922,4240.897461,4169.615234,4197.563965,4350.000000,4258.846191,4373.205078,6691.794922,4652.692383,4493.077148,4621.410156,4794.000000,0.000000,12.000000,,,,0.000000,4.000000,4.000000,4.000000,4.000000,4.000000,4.000000,4.000000,4.000000,4.000000,4.000000,4.000000,4.000000,4.000000,4.000000,100.000000,,,,,,,,,,,,,,,,,,,,,,,,,,,,,,,,,,,,,,,,,,,,,,,,,,,,,,,,,,,,,,,,,,,,,,,,,,,,,,,,,,,,,,,,,,,,,,,,,,,,,,,,,,,,,,,,,,,,,,,,,,,,,,,,,
1739355914.244334,1739355914.244802,103.000000,0.000000,4443.333496,4250.128418,4272.436035,7296.794922,4232.820313,4159.230957,4182.820313,4344.615234,4234.102539,4345.641113,6516.666504,4632.948730,4479.358887,4604.487305,5454.000000,0.000000,12.000000,,,,0.000000,4.000000,4.000000,4.000000,4.000000,4.000000,4.000000,4.000000,4.000000,4.000000,4.000000,4.000000,4.000000,4.000000,4.000000,100.000000,,,,,,,,,,,,,,,,,,,,,,,,,,,,,,,,,,,,,,,,,,,,,,,,,,,,,,,,,,,,,,,,,,,,,,,,,,,,,,,,,,,,,,,,,,,,,,,,,,,,,,,,,,,,,,,,,,,,,,,,,,,,,,,,,
1739355914.252142,1739355914.252510,104.000000,0.000000,4431.538574,4233.077148,4270.000000,7230.000000,4228.077148,4157.307617,4183.077148,4345.769043,4236.922852,4342.948730,6365.128418,4626.410156,4478.333496,4597.179688,5318.000000,0.000000,12.000000,,,,0.000000,4.000000,4.000000,4.000000,4.000000,4.000000,4.000000,4.000000,4.000000,4.000000,4.000000,4.000000,4.000000,4.000000,4.000000,100.000000,,,,,,,,,,,,,,,,,26.000000,0.000000,0.720577,-0.043030,-0.678040,0.138489,0.961543,-0.261262,0.073739,-39.324795,-32.089962,45.161873,,,,,,,,,,,,,,,,,,,,,,,,,,,,,,,,10.200953,7.090933,2.305267,1.602522,1.991321,9.959932,4.849989,1.596040,1.614456,1.800161,9.436144,4.979996,1.626486,1.328161,1.607745,65.052673,8.856936,2.737211,1.425503,2.491231,12.650174,1.121285,1.091186,1.303648,1.685089,12.828193,1.780512,1.264391,1.485613,1.388801,11.719926,4.280946,1.572861,1.669072,1.595951,3.454738,1.467811,1.087387,0.406829,0.336260,10.672397,3.023572,2.035645,1.608215,1.867990,14.703465,2.961714,1.919862,1.860825,2.180463,20.679996,4.537220,1.809176,2.042685,1.793691,17.575592,5.813806,2.615701,2.412896,2.537100,8.663739,2.905391,1.643524,1.730757,1.639845,11.759057,5.724957,1.813020,1.703958,2.077028
1739355914.259950,1739355914.260318,105.000000,0.000000,4415.897461,4223.974121,4265.769043,7138.461426,4214.615234,4150.384766,4182.563965,4344.358887,4238.846191,4335.512695,6226.538574,4619.230957,4471.153809,4586.794922,6327.000000,0.000000,12.000000,,,,0.000000,4.000000,4.000000,4.000000,4.000000,4.000000,4.000000,4.000000,4.000000,4.000000,4.000000,4.000000,4.000000,4.000000,4.000000,100.000000,,,,,,,,,,,,,,,,,,,,,,,,,,,,,,,,,,,,,,,,,,,,,,,,,,,,,,,,,,,,,,,,,,,,,,,,,,,,,,,,,,,,,,,,,,,,,,,,,,,,,,,,,,,,,,,,,,,,,,,,,,,,,,,,,
1739355914.267758,1739355914.268026,106.000000,0.000000,4380.128418,4195.384766,4237.436035,6991.666504,4181.794922,4120.512695,4153.974121,4330.000000,4202.051270,4289.358887,6044.487305,4580.897461,4437.436035,4556.666504,4794.000000,0.000000,12.000000,,,,0.000000,4.000000,4.000000,4.000000,4.000000,4.000000,4.000000,4.000000,4.000000,4.000000,4.000000,4.000000,4.000000,4.000000,4.000000,100.000000,,,,,,,,,,,,,,,,,,,,,,,,,,,,,,,,,,,,,,,,,,,,,,,,,,,,,,,,,,,,,,,,,,,,,,,,,,,,,,,,,,,,,,,,,,,,,,,,,,,,,,,,,,,,,,,,,,,,,,,,,,,,,,,,,
1739355914.275566,1739355914.275934,107.000000,0.000000,4332.563965,4142.948730,4198.461426,6801.153809,4141.666504,4077.692383,4113.333496,4316.794922,4162.820313,4241.282227,5844.487305,4529.487305,4405.769043,4521.538574,5454.000000,0.000000,12.000000,,,,0.000000,4.000000,4.000000,4.000000,4.000000,4.000000,4.000000,4.000000,4.000000,4.000000,4.000000,4.000000,4.000000,4.000000,4.000000,100.000000,,,,,,,,,,,,,,,,,,,,,,,,,,,,,,,,,,,,,,,,,,,,,,,,,,,,,,,,,,,,,,,,,,,,,,,,,,,,,,,,,,,,,,,,,,,,,,,,,,,,,,,,,,,,,,,,,,,,,,,,,,,,,,,,,
1739355914.283375,1739355914.283742,108.000000,0.000000,4304.358887,4105.512695,4176.025879,6577.179688,4107.436035,4048.333252,4087.564209,4311.922852,4142.051270,4213.589844,5669.102539,4497.692383,4385.128418,4495.641113,5318.000000,0.000000,12.000000,,,,0.000000,4.000000,4.000000,4.000000,4.000000,4.000000,4.000000,4.000000,4.000000,4.000000,4.000000,4.000000,4.000000,4.000000,4.000000,100.000000,,,,,,,,,,,,,,,,,27.000000,0.000000,0.719480,-0.043823,-0.679016,0.139160,0.948846,-0.254426,0.080088,-39.392315,-32.080967,44.979019,,,,,,,,,,,,,,,,,,,,,,,,,,,,,,,,,,,,,,,,,,,,,,,,,,,,,,,,,,,,,,,,,,,,,,,,,,,,,,,,,,,,,,,,,,,,,,,,,,,,,
1739355914.291183,1739355914.291651,109.000000,0.000000,4275.128418,4072.948730,4154.743652,6248.846191,4074.487061,4017.435791,4063.589844,4302.563965,4110.128418,4171.025879,5496.794922,4461.922852,4358.205078,4461.025879,6327.000000,0.000000,12.000000,,,,0.000000,4.000000,4.000000,4.000000,4.000000,4.000000,4.000000,4.000000,4.000000,4.000000,4.000000,4.000000,4.000000,4.000000,4.000000,100.000000,,,,,,,,,,,,,,,,,,,,,,,,,,,,,,,,,,,,,,,,,,,,,,,,,,,,,,,,,,,,,,,,,,,,,,,,,,,,,,,,,,,,,,,,,,,,,,,,,,,,,,,,,,,,,,,,,,,,,,,,,,,,,,,,,
1739355914.298991,1739355914.299459,110.000000,0.000000,4230.256348,4033.076904,4120.769043,5891.538574,4040.641113,3980.000000,4025.769287,4290.897461,4068.333252,4120.641113,5327.820313,4413.974121,4332.051270,4420.256348,4794.000000,0.000000,12.000000,,,,0.000000,4.000000,4.000000,4.000000,4.000000,4.000000,4.000000,4.000000,4.000000,4.000000,4.000000,4.000000,4.000000,4.000000,4.000000,100.000000,,,,,,,,,,,,,,,,,,,,,,,,,,,,,,,,,,,,,,,,,,,,,,,,,,,,,,,,,,,,,,,,,,,,,,,,,,,,,,,,,,,,,,,,,,,,,,,,,,,,,,,,,,,,,,,,,,,,,,,,,,,,,,,,,
1739355914.306799,1739355914.307367,111.000000,0.000000,4197.051270,4005.256348,4094.230713,5636.025879,4010.641113,3949.871826,3984.743652,4284.871582,4039.358887,4090.256348,5197.436035,4379.358887,4314.102539,4394.615234,5454.000000,0.000000,12.000000,,,,0.000000,4.000000,4.000000,4.000000,4.000000,4.000000,4.000000,4.000000,4.000000,4.000000,4.000000,4.000000,4.000000,4.000000,4.000000,100.000000,,,,,,,,,,,,,,,,,,,,,,,,,,,,,,,,,,,,,,,,,,,,,,,,,,,,,,,,,,,,,,,,,,,,,,,,,,,,,,,,,,,,,,,,,,,,,,,,,,,,,,,,,,,,,,,,,,,,,,,,,,,,,,,,,
1739355914.314607,1739355914.315175,112.000000,0.000000,4165.641113,3967.179443,4068.333252,5434.487305,3970.256348,3912.820557,3948.333252,4274.871582,4005.000000,4049.358887,5077.692383,4344.615234,4282.692383,4365.000000,5318.000000,0.000000,12.000000,,,,0.000000,4.000000,4.000000,4.000000,4.000000,4.000000,4.000000,4.000000,4.000000,4.000000,4.000000,4.000000,4.000000,4.000000,4.000000,100.000000,,,,,,,,,,,,,,,,,28.000000,0.000000,0.718967,-0.044250,-0.679443,0.139587,0.942986,-0.235380,0.057624,-39.369751,-32.106201,45.014450,,,,,,,,,,,,,,,,,,,,,,,,,,,,,,,,,,,,,,,,,,,,,,,,,,,,,,,,,,,,,,,,,,,,,,,,,,,,,,,,,,,,,,,,,,,,,,,,,,,,,
1739355914.322415,1739355914.322983,113.000000,0.000000,4133.077148,3924.102539,4040.897461,5257.436035,3937.307617,3879.102539,3923.718018,4262.820313,3971.538574,4000.000000,4959.230957,4306.666504,4248.974121,4333.205078,6327.000000,0.000000,12.000000,,,,0.000000,4.000000,4.000000,4.000000,4.000000,4.000000,4.000000,4.000000,4.000000,4.000000,4.000000,4.000000,4.000000,4.000000,4.000000,100.000000,,,,,,,,,,,,,,,,,,,,,,,,,,,,,,,,,,,,,,,,,,,,,,,,,,,,,,,,,,,,,,,,,,,,,,,,,,,,,,,,,,,,,,,,,,,,,,,,,,,,,,,,,,,,,,,,,,,,,,,,,,,,,,,,,
1739355914.330223,1739355914.330691,114.000000,0.000000,4119.487305,3905.256348,4030.000000,5140.000000,3927.307617,3863.461426,3909.487061,4257.948730,3955.641113,3971.025635,4857.179688,4282.948730,4233.461426,4320.256348,4794.000000,0.000000,12.000000,,,,0.000000,4.000000,4.000000,4.000000,4.000000,4.000000,4.000000,4.000000,4.000000,4.000000,4.000000,4.000000,4.000000,4.000000,4.000000,100.000000,,,,,,,,,,,,,,,,,,,,,,,,,,,,,,,,,,,,,,,,,,,,,,,,,,,,,,,,,,,,,,,,,,,,,,,,,,,,,,,,,,,,,,,,,,,,,,,,,,,,,,,,,,,,,,,,,,,,,,,,,,,,,,,,,
1739355914.338031,1739355914.338599,115.000000,0.000000,4088.846191,3868.589844,4005.384521,4990.000000,3890.128174,3829.743652,3875.256348,4247.179688,3922.692383,3933.589844,4712.051270,4240.128418,4202.179688,4291.025879,5454.000000,0.000000,12.000000,,,,0.000000,4.000000,4.000000,4.000000,4.000000,4.000000,4.000000,4.000000,4.000000,4.000000,4.000000,4.000000,4.000000,4.000000,4.000000,100.000000,,,,,,,,,,,,,,,,,,,,,,,,,,,,,,,,,,,,,,,,,,,,,,,,,,,,,,,,,,,,,,,,,,,,,,,,,,,,,,,,,,,,,,,,,,,,,,,,,,,,,,,,,,,,,,,,,,,,,,,,,,,,,,,,,
1739355914.345839,1739355914.346408,116.000000,0.000000,4022.820557,3793.974365,3950.000000,4774.743652,3821.666748,3765.512939,3819.230713,4226.282227,3859.615479,3860.769287,4516.538574,4163.205078,4141.282227,4226.025879,5318.000000,0.000000,12.000000,,,,0.000000,4.000000,4.000000,4.000000,4.000000,4.000000,4.000000,4.000000,4.000000,4.000000,4.000000,4.000000,4.000000,4.000000,4.000000,100.000000,,,,,,,,,,,,,,,,,29.000000,0.000000,0.718082,-0.044373,-0.680359,0.139648,0.980100,-0.245147,0.073739,-39.366108,-32.112247,44.979671,,,,,,,,,,,,,,,,,,,,,,,,,,,,,,,,,,,,,,,,,,,,,,,,,,,,,,,,,,,,,,,,,,,,,,,,,,,,,,,,,,,,,,,,,,,,,,,,,,,,,
1739355914.353647,1739355914.354316,117.000000,0.000000,3967.307617,3735.384521,3910.384521,4583.205078,3778.461426,3721.794922,3778.846191,4209.102539,3809.871826,3793.718018,4352.692383,4101.922852,4096.282227,4173.077148,6327.000000,0.000000,12.000000,,,,0.000000,4.000000,4.000000,4.000000,4.000000,4.000000,4.000000,4.000000,4.000000,4.000000,4.000000,4.000000,4.000000,4.000000,4.000000,100.000000,,,,,,,,,,,,,,,,,,,,,,,,,,,,,,,,,,,,,,,,,,,,,,,,,,,,,,,,,,,,,,,,,,,,,,,,,,,,,,,,,,,,,,,,,,,,,,,,,,,,,,,,,,,,,,,,,,,,,,,,,,,,,,,,,
1739355914.361455,1739355914.362124,118.000000,0.000000,3933.589844,3703.461426,3905.384521,4386.025879,3771.923096,3717.051270,3769.743652,4205.641113,3798.589844,3770.384521,4232.820313,4083.461426,4081.538574,4162.948730,4794.000000,0.000000,12.000000,,,,0.000000,4.000000,4.000000,4.000000,4.000000,4.000000,4.000000,4.000000,4.000000,4.000000,4.000000,4.000000,4.000000,4.000000,4.000000,100.000000,,,,,,,,,,,,,,,,,,,,,,,,,,,,,,,,,,,,,,,,,,,,,,,,,,,,,,,,,,,,,,,,,,,,,,,,,,,,,,,,,,,,,,,,,,,,,,,,,,,,,,,,,,,,,,,,,,,,,,,,,,,,,,,,,
1739355914.369264,1739355914.370032,119.000000,0.000000,3889.358887,3666.281982,3891.538574,4137.948730,3757.948730,3704.358887,3758.974365,4205.897461,3790.000000,3747.692383,4096.666504,4067.307617,4061.538574,4151.794922,5454.000000,0.000000,12.000000,,,,0.000000,4.000000,4.000000,4.000000,4.000000,4.000000,4.000000,4.000000,4.000000,4.000000,4.000000,4.000000,4.000000,4.000000,4.000000,100.000000,,,,,,,,,,,,,,,,,,,,,,,,,,,,,,,,,,,,,,,,,,,,,,,,,,,,,,,,,,,,,,,,,,,,,,,,,,,,,,,,,,,,,,,,,,,,,,,,,,,,,,,,,,,,,,,,,,,,,,,,,,,,,,,,,
1739355914.377072,1739355914.377840,120.000000,0.000000,3845.128174,3630.769287,3864.230713,3909.358887,3725.128174,3670.512939,3728.589844,4196.025879,3757.307617,3693.589844,3938.718018,4026.025635,4029.358887,4118.333496,5318.000000,0.000000,12.000000,,,,0.000000,4.000000,4.000000,4.000000,4.000000,4.000000,4.000000,4.000000,4.000000,4.000000,4.000000,4.000000,4.000000,4.000000,4.000000,100.000000,,,,,,,,,,,,,,,,,30.000000,0.000000,0.717459,-0.044312,-0.680969,0.139893,0.952753,-0.252961,0.069344,-39.512833,-32.217690,44.898369,,,,,,,,,,,,,,,,,,,,,,,,,,,,,,,,9.791615,5.974422,2.235887,1.847890,2.035608,9.714644,4.285420,1.682332,1.810324,1.784524,9.634562,4.405673,1.687494,1.593429,1.669436,88.749588,10.239070,3.704712,1.978676,2.559627,13.798583,1.195434,1.280457,1.417489,1.807311,13.551946,1.688897,1.268292,1.767474,1.502313,12.208578,3.945683,1.426393,2.065901,1.824792,3.543935,1.251868,0.868922,0.456035,0.352271,11.479633,2.249160,1.941906,1.728085,1.975551,15.813646,2.135106,1.993928,1.875747,2.463789,30.281673,7.184941,2.078909,2.408446,1.941033,18.187250,4.854092,2.553773,2.767596,2.619113,9.387822,2.570574,1.350992,1.791258,1.744148,11.933475,5.021554,1.748658,1.915435,2.109778
1739355914.384880,1739355914.385748,121.000000,0.000000,3824.102539,3606.923096,3847.692383,3731.923096,3697.179443,3640.256348,3700.384521,4183.077148,3727.820557,3642.435791,3770.256348,3987.307617,4004.358887,4090.512939,6327.000000,0.000000,12.000000,,,,0.000000,4.000000,4.000000,4.000000,4.000000,4.000000,4.000000,4.000000,4.000000,4.000000,4.000000,4.000000,4.000000,4.000000,4.000000,100.000000,,,,,,,,,,,,,,,,,,,,,,,,,,,,,,,,,,,,,,,,,,,,,,,,,,,,,,,,,,,,,,,,,,,,,,,,,,,,,,,,,,,,,,,,,,,,,,,,,,,,,,,,,,,,,,,,,,,,,,,,,,,,,,,,,
1739355914.392688,1739355914.393557,122.000000,0.000000,3820.256348,3600.384521,3842.435791,3565.897461,3688.076904,3630.256348,3693.461426,4181.922852,3726.281982,3618.846191,3608.333252,3976.153809,3995.128174,4082.948730,4794.000000,0.000000,12.000000,,,,0.000000,4.000000,4.000000,4.000000,4.000000,4.000000,4.000000,4.000000,4.000000,4.000000,4.000000,4.000000,4.000000,4.000000,4.000000,100.000000,,,,,,,,,,,,,,,,,,,,,,,,,,,,,,,,,,,,,,,,,,,,,,,,,,,,,,,,,,,,,,,,,,,,,,,,,,,,,,,,,,,,,,,,,,,,,,,,,,,,,,,,,,,,,,,,,,,,,,,,,,,,,,,,,
1739355914.400496,1739355914.401465,123.000000,0.000000,3830.000000,3620.128174,3851.153809,3412.692383,3700.256348,3641.666748,3705.512939,4190.512695,3739.487061,3613.333252,3503.718018,3985.256348,4000.128174,4092.051270,5454.000000,0.000000,12.000000,,,,0.000000,4.000000,4.000000,4.000000,4.000000,4.000000,4.000000,4.000000,4.000000,4.000000,4.000000,4.000000,4.000000,4.000000,4.000000,100.000000,,,,,,,,,,,,,,,,,,,,,,,,,,,,,,,,,,,,,,,,,,,,,,,,,,,,,,,,,,,,,,,,,,,,,,,,,,,,,,,,,,,,,,,,,,,,,,,,,,,,,,,,,,,,,,,,,,,,,,,,,,,,,,,,,
1739355914.408304,1739355914.409273,124.000000,0.000000,3848.846191,3651.538574,3872.051270,3301.281982,3721.153809,3663.076904,3723.461426,4193.205078,3752.179443,3619.358887,3455.000000,3998.846191,4013.461426,4113.333496,5318.000000,0.000000,12.000000,,,,0.000000,4.000000,4.000000,4.000000,4.000000,4.000000,4.000000,4.000000,4.000000,4.000000,4.000000,4.000000,4.000000,4.000000,4.000000,100.000000,,,,,,,,,,,,,,,,,31.000000,0.000000,0.717111,-0.043762,-0.681396,0.139771,0.974240,-0.256867,0.074716,-39.644882,-32.229256,44.825199,,,,,,,,,,,,,,,,,,,,,,,,,,,,,,,,,,,,,,,,,,,,,,,,,,,,,,,,,,,,,,,,,,,,,,,,,,,,,,,,,,,,,,,,,,,,,,,,,,,,,
1739355914.416112,1739355914.416981,125.000000,0.000000,3869.102539,3673.846191,3892.051270,3211.281982,3740.128174,3681.923096,3740.897461,4191.922852,3767.692383,3627.179443,3413.076904,4012.692383,4026.923096,4135.384766,6327.000000,0.000000,12.000000,,,,0.000000,4.000000,4.000000,4.000000,4.000000,4.000000,4.000000,4.000000,4.000000,4.000000,4.000000,4.000000,4.000000,4.000000,4.000000,100.000000,,,,,,,,,,,,,,,,,,,,,,,,,,,,,,,,,,,,,,,,,,,,,,,,,,,,,,,,,,,,,,,,,,,,,,,,,,,,,,,,,,,,,,,,,,,,,,,,,,,,,,,,,,,,,,,,,,,,,,,,,,,,,,,,,
1739355914.423920,1739355914.424789,126.000000,0.000000,3883.205078,3688.461426,3904.487061,3101.281982,3754.487061,3697.564209,3757.820557,4197.307617,3784.615479,3631.794922,3364.487061,4023.846191,4036.281982,4150.000000,4794.000000,0.000000,12.000000,,,,0.000000,4.000000,4.000000,4.000000,4.000000,4.000000,4.000000,4.000000,4.000000,4.000000,4.000000,4.000000,4.000000,4.000000,4.000000,100.000000,,,,,,,,,,,,,,,,,,,,,,,,,,,,,,,,,,,,,,,,,,,,,,,,,,,,,,,,,,,,,,,,,,,,,,,,,,,,,,,,,,,,,,,,,,,,,,,,,,,,,,,,,,,,,,,,,,,,,,,,,,,,,,,,,
1739355914.431728,1739355914.432497,127.000000,0.000000,3895.769287,3704.358887,3916.923096,2985.384521,3771.025635,3717.179443,3775.897461,4204.743652,3801.666748,3641.794922,3325.641113,4032.435791,4042.692383,4163.974121,12.000000,0.000000,12.000000,,,,0.000000,4.000000,4.000000,4.000000,4.000000,4.000000,4.000000,4.000000,4.000000,4.000000,4.000000,4.000000,4.000000,4.000000,4.000000,100.000000,,,,,,,,,,,,,,,,,,,,,,,,,,,,,,,,,,,,,,,,,,,,,,,,,,,,,,,,,,,,,,,,,,,,,,,,,,,,,,,,,,,,,,,,,,,,,,,,,,,,,,,,,,,,,,,,,,,,,,,,,,,,,,,,,
1739355914.439536,1739355914.440305,0.000000,0.000000,3911.281982,3720.000000,3930.256348,2898.461426,3788.974365,3737.564209,3793.589844,4206.410156,3813.333252,3650.384521,3296.153809,4039.871826,4051.153809,4174.102539,5048.000000,0.000000,12.000000,,,,0.000000,4.000000,4.000000,4.000000,4.000000,4.000000,4.000000,4.000000,4.000000,4.000000,4.000000,4.000000,4.000000,4.000000,4.000000,100.000000,,,,,,,,,,,,,,,,,0.000000,0.000000,0.716693,-0.043762,-0.681824,0.139832,0.959590,-0.266634,0.072763,-39.613728,-32.272995,44.776012,,,,,,,,,,,,,,,,,,,,,,,,,,,,,,,,,,,,,,,,,,,,,,,,,,,,,,,,,,,,,,,,,,,,,,,,,,,,,,,,,,,,,,,,,,,,,,,,,,,,,
1739355914.447344,1739355914.448013,1.000000,0.000000,3936.025635,3747.435791,3950.256348,2846.025635,3810.128174,3759.487061,3812.820557,4210.128418,3830.128174,3664.487061,3282.692383,4055.256348,4071.281982,4190.769043,5374.000000,0.000000,12.000000,,,,0.000000,4.000000,4.000000,4.000000,4.000000,4.000000,4.000000,4.000000,4.000000,4.000000,4.000000,4.000000,4.000000,4.000000,4.000000,100.000000,,,,,,,,,,,,,,,,,,,,,,,,,,,,,,,,,,,,,,,,,,,,,,,,,,,,,,,,,,,,,,,,,,,,,,,,,,,,,,,,,,,,,,,,,,,,,,,,,,,,,,,,,,,,,,,,,,,,,,,,,,,,,,,,,
1739355914.455152,1739355914.455821,2.000000,0.000000,3973.333252,3790.641113,3985.256348,2811.538574,3846.923096,3793.718018,3842.435791,4220.769043,3864.487061,3697.435791,3292.692383,4087.692383,4102.051270,4229.871582,5592.000000,0.000000,12.000000,,,,0.000000,4.000000,4.000000,4.000000,4.000000,4.000000,4.000000,4.000000,4.000000,4.000000,4.000000,4.000000,4.000000,4.000000,4.000000,100.000000,,,,,,,,,,,,,,,,,,,,,,,,,,,,,,,,,,,,,,,,,,,,,,,,,,,,,,,,,,,,,,,,,,,,,,,,,,,,,,,,,,,,,,,,,,,,,,,,,,,,,,,,,,,,,,,,,,,,,,,,,,,,,,,,,
1739355914.462960,1739355914.463529,3.000000,0.000000,3996.410156,3818.718018,4010.384521,2769.102539,3875.256348,3821.410156,3869.230713,4226.794922,3892.435791,3726.923096,3297.948730,4111.410156,4118.589844,4260.256348,5587.000000,0.000000,12.000000,,,,0.000000,4.000000,4.000000,4.000000,4.000000,4.000000,4.000000,4.000000,4.000000,4.000000,4.000000,4.000000,4.000000,4.000000,4.000000,100.000000,,,,,,,,,,,,,,,,,,,,,,,,,,,,,,,,,,,,,,,,,,,,,,,,,,,,,,,,,,,,,,,,,,,,,,,,,,,,,,,,,,,,,,,,,,,,,,,,,,,,,,,,,,,,,,,,,,,,,,,,,,,,,,,,,
1739355914.470769,1739355914.471337,4.000000,0.000000,4001.153809,3824.615479,4018.333252,2716.666748,3878.589844,3831.281982,3883.076904,4227.179688,3900.897461,3738.461426,3285.000000,4111.410156,4117.948730,4265.384766,5487.000000,0.000000,12.000000,,,,0.000000,4.000000,4.000000,4.000000,4.000000,4.000000,4.000000,4.000000,4.000000,4.000000,4.000000,4.000000,4.000000,4.000000,4.000000,100.000000,,,,,,,,,,,,,,,,,1.000000,0.000000,0.716453,-0.043152,-0.682190,0.139465,0.959590,-0.265657,0.064461,-39.619022,-32.312363,44.681747,,,,,,,,,,,,,,,,,,,,,,,,,,,,,,,,,,,,,,,,,,,,,,,,,,,,,,,,,,,,,,,,,,,,,,,,,,,,,,,,,,,,,,,,,,,,,,,,,,,,,
1739355914.478577,1739355914.479045,5.000000,0.000000,4007.179443,3832.307617,4028.718018,2669.358887,3883.846191,3842.564209,3892.307617,4231.538574,3911.153809,3747.564209,3275.000000,4112.692383,4124.102539,4269.230957,5472.000000,0.000000,12.000000,,,,0.000000,4.000000,4.000000,4.000000,4.000000,4.000000,4.000000,4.000000,4.000000,4.000000,4.000000,4.000000,4.000000,4.000000,4.000000,100.000000,,,,,,,,,,,,,,,,,,,,,,,,,,,,,,,,,,,,,,,,,,,,,,,,,,,,,,,,,,,,,,,,,,,,,,,,,,,,,,,,,,,,,,,,,,,,,,,,,,,,,,,,,,,,,,,,,,,,,,,,,,,,,,,,,
1739355914.486385,1739355914.486853,6.000000,0.000000,4019.871826,3850.128174,4044.615479,2640.769287,3904.230713,3862.948730,3907.820557,4237.692383,3926.538574,3760.000000,3277.307617,4125.897461,4139.871582,4282.692383,5507.000000,0.000000,12.000000,,,,0.000000,4.000000,4.000000,4.000000,4.000000,4.000000,4.000000,4.000000,4.000000,4.000000,4.000000,4.000000,4.000000,4.000000,4.000000,100.000000,,,,,,,,,,,,,,,,,,,,,,,,,,,,,,,,,,,,,,,,,,,,,,,,,,,,,,,,,,,,,,,,,,,,,,,,,,,,,,,,,,,,,,,,,,,,,,,,,,,,,,,,,,,,,,,,,,,,,,,,,,,,,,,,,
1739355914.494193,1739355914.494561,7.000000,0.000000,4029.358887,3868.846191,4055.384521,2619.743652,3920.384521,3876.923096,3922.307617,4234.871582,3935.384521,3764.230713,3277.692383,4131.153809,4149.358887,4294.487305,2105.000000,0.000000,12.000000,,,,0.000000,4.000000,4.000000,4.000000,4.000000,4.000000,4.000000,4.000000,4.000000,4.000000,4.000000,4.000000,4.000000,4.000000,4.000000,100.000000,,,,,,,,,,,,,,,,,,,,,,,,,,,,,,,,,,,,,,,,,,,,,,,,,,,,,,,,,,,,,,,,,,,,,,,,,,,,,,,,,,,,,,,,,,,,,,,,,,,,,,,,,,,,,,,,,,,,,,,,,,,,,,,,,
1739355914.502001,1739355914.502369,8.000000,0.000000,4028.846191,3877.948730,4058.718018,2592.307617,3924.487061,3886.538574,3925.641113,4230.128418,3938.589844,3760.256348,3270.128174,4122.307617,4150.000000,4297.436035,5278.000000,0.000000,12.000000,,,,0.000000,4.000000,4.000000,4.000000,4.000000,4.000000,4.000000,4.000000,4.000000,4.000000,4.000000,4.000000,4.000000,4.000000,4.000000,100.000000,1.000000,0.000000,1.000000,1.000000,0.000000,0.000000,0.000000,0.000000,0.000000,1.000000,0.000000,0.000000,0.000000,0.000000,1.000000,1.000000,2.000000,0.000000,0.716394,-0.042603,-0.682373,0.139038,0.963497,-0.229032,0.064461,-39.923786,-32.281128,44.663570,,,,,,,,,,,,,,,,,,,,,,,,,,,,,,,,9.095832,4.799859,2.131288,2.180573,2.209801,8.775395,3.590737,1.958385,2.015136,1.846177,9.253558,3.640325,1.753325,1.956877,1.863265,153.698700,17.589268,5.345904,2.875544,2.783446,13.924548,1.308453,1.582521,1.564602,1.999191,13.044710,1.472221,1.359837,2.105363,1.693178,11.548428,3.325998,1.440681,2.712621,2.386418,3.387208,1.046988,0.703425,0.518189,0.397617,11.526604,1.720005,2.043572,1.959410,2.203066,16.096664,1.649970,2.223468,1.955809,2.901177,56.737591,12.587006,2.825596,3.006743,2.301292,17.767557,3.891214,2.661213,3.299295,2.897803,9.480470,2.152048,1.106359,1.825010,1.906995,11.181836,4.150755,1.800275,2.224931,2.267938
1739355914.509809,1739355914.510077,9.000000,0.000000,4032.435791,3886.410156,4064.487061,2571.666748,3936.281982,3901.281982,3933.333252,4233.846191,3941.794922,3765.769287,3271.666748,4119.871582,4155.000000,4297.692383,5622.000000,0.000000,12.000000,,,,0.000000,4.000000,4.000000,4.000000,4.000000,4.000000,4.000000,4.000000,4.000000,4.000000,4.000000,4.000000,4.000000,4.000000,4.000000,100.000000,,,,,,,,,,,,,,,,,,,,,,,,,,,,,,,,,,,,,,,,,,,,,,,,,,,,,,,,,,,,,,,,,,,,,,,,,,,,,,,,,,,,,,,,,,,,,,,,,,,,,,,,,,,,,,,,,,,,,,,,,,,,,,,,,
1739355914.517617,1739355914.517985,10.000000,0.000000,4042.179443,3902.307617,4074.615479,2564.615479,3954.615479,3912.435791,3944.102539,4238.717773,3949.743652,3780.512939,3286.538574,4131.410156,4163.205078,4305.000000,4926.000000,0.000000,12.000000,,,,0.000000,4.000000,4.000000,4.000000,4.000000,4.000000,4.000000,4.000000,4.000000,4.000000,4.000000,4.000000,4.000000,4.000000,4.000000,100.000000,,,,,,,,,,,,,,,,,,,,,,,,,,,,,,,,,,,,,,,,,,,,,,,,,,,,,,,,,,,,,,,,,,,,,,,,,,,,,,,,,,,,,,,,,,,,,,,,,,,,,,,,,,,,,,,,,,,,,,,,,,,,,,,,,
1739355914.525425,1739355914.525794,11.000000,0.000000,4046.410156,3911.794922,4083.076904,2551.410156,3958.589844,3917.564209,3945.769287,4237.051270,3962.307617,3787.820557,3293.461426,4139.230957,4160.256348,4312.692383,5579.000000,0.000000,12.000000,,,,0.000000,4.000000,4.000000,4.000000,4.000000,4.000000,4.000000,4.000000,4.000000,4.000000,4.000000,4.000000,4.000000,4.000000,4.000000,100.000000,,,,,,,,,,,,,,,,,,,,,,,,,,,,,,,,,,,,,,,,,,,,,,,,,,,,,,,,,,,,,,,,,,,,,,,,,,,,,,,,,,,,,,,,,,,,,,,,,,,,,,,,,,,,,,,,,,,,,,,,,,,,,,,,,
1739355914.533233,1739355914.533702,12.000000,0.000000,4048.589844,3915.512939,4089.487061,2528.333252,3954.102539,3923.974365,3948.205078,4235.256348,3969.487061,3791.538574,3293.718018,4140.641113,4159.230957,4315.769043,5647.000000,0.000000,12.000000,,,,0.000000,4.000000,4.000000,4.000000,4.000000,4.000000,4.000000,4.000000,4.000000,4.000000,4.000000,4.000000,4.000000,4.000000,4.000000,100.000000,,,,,,,,,,,,,,,,,3.000000,0.000000,0.716343,-0.042480,-0.682434,0.139038,0.953241,-0.253449,0.053717,-39.881409,-32.253014,44.813881,,,,,,,,,,,,,,,,,,,,,,,,,,,,,,,,,,,,,,,,,,,,,,,,,,,,,,,,,,,,,,,,,,,,,,,,,,,,,,,,,,,,,,,,,,,,,,,,,,,,,
1739355914.541041,1739355914.541510,13.000000,0.000000,4058.333252,3922.564209,4098.333496,2513.974365,3959.743652,3933.461426,3958.205078,4238.974121,3972.307617,3800.641113,3303.846191,4146.538574,4174.358887,4321.922852,6509.000000,0.000000,12.000000,,,,0.000000,4.000000,4.000000,4.000000,4.000000,4.000000,4.000000,4.000000,4.000000,4.000000,4.000000,4.000000,4.000000,4.000000,4.000000,100.000000,,,,,,,,,,,,,,,,,,,,,,,,,,,,,,,,,,,,,,,,,,,,,,,,,,,,,,,,,,,,,,,,,,,,,,,,,,,,,,,,,,,,,,,,,,,,,,,,,,,,,,,,,,,,,,,,,,,,,,,,,,,,,,,,,
1739355914.548849,1739355914.549418,14.000000,0.000000,4070.512939,3931.794922,4108.974121,2515.512939,3976.410156,3947.307617,3971.281982,4241.410156,3983.461426,3810.641113,3316.538574,4154.743652,4188.077148,4330.128418,4926.000000,0.000000,12.000000,,,,0.000000,4.000000,4.000000,4.000000,4.000000,4.000000,4.000000,4.000000,4.000000,4.000000,4.000000,4.000000,4.000000,4.000000,4.000000,100.000000,,,,,,,,,,,,,,,,,,,,,,,,,,,,,,,,,,,,,,,,,,,,,,,,,,,,,,,,,,,,,,,,,,,,,,,,,,,,,,,,,,,,,,,,,,,,,,,,,,,,,,,,,,,,,,,,,,,,,,,,,,,,,,,,,
1739355914.556657,1739355914.557226,15.000000,0.000000,4074.358887,3936.923096,4114.230957,2521.153809,3983.589844,3957.307617,3978.589844,4241.666504,3992.179443,3815.256348,3319.743652,4154.358887,4188.589844,4334.230957,5579.000000,0.000000,12.000000,,,,0.000000,4.000000,4.000000,4.000000,4.000000,4.000000,4.000000,4.000000,4.000000,4.000000,4.000000,4.000000,4.000000,4.000000,4.000000,100.000000,,,,,,,,,,,,,,,,,,,,,,,,,,,,,,,,,,,,,,,,,,,,,,,,,,,,,,,,,,,,,,,,,,,,,,,,,,,,,,,,,,,,,,,,,,,,,,,,,,,,,,,,,,,,,,,,,,,,,,,,,,,,,,,,,
1739355914.564465,1739355914.565134,16.000000,0.000000,4075.384521,3941.923096,4118.717773,2523.718018,3984.743652,3961.538574,3984.230713,4244.102539,3990.512939,3820.000000,3325.384521,4152.948730,4196.153809,4338.846191,0.000000,0.000000,12.000000,,,,0.000000,4.000000,4.000000,4.000000,4.000000,4.000000,4.000000,4.000000,4.000000,4.000000,4.000000,4.000000,4.000000,4.000000,4.000000,100.000000,,,,,,,,,,,,,,,,,4.000000,0.000000,0.716383,-0.041626,-0.682495,0.138794,0.966427,-0.245147,0.062508,-39.859932,-32.294380,44.849159,,,,,,,,,,,,,,,,,,,,,,,,,,,,,,,,,,,,,,,,,,,,,,,,,,,,,,,,,,,,,,,,,,,,,,,,,,,,,,,,,,,,,,,,,,,,,,,,,,,,,
