title:Yousef Rihani1739354827889, start timestamp:1739354829.038022, stop timestamp:1739354891.963325, headset type:EPOCX, headset serial:E50208A5, headset firmware:720, channels:168, sampling rate:eeg_128;mot_32;pm_0.1;pow_8, samples:8060      , version:2.2, 
Timestamp,OriginalTimestamp,EEG.Counter,EEG.Interpolated,EEG.AF3,EEG.F7,EEG.F3,EEG.FC5,EEG.T7,EEG.P7,EEG.O1,EEG.O2,EEG.P8,EEG.T8,EEG.FC6,EEG.F4,EEG.F8,EEG.AF4,EEG.RawCq,EEG.Battery,EEG.BatteryPercent,MarkerIndex,MarkerType,MarkerValueInt,EEG.MarkerHardware,CQ.AF3,CQ.F7,CQ.F3,CQ.FC5,CQ.T7,CQ.P7,CQ.O1,CQ.O2,CQ.P8,CQ.T8,CQ.FC6,CQ.F4,CQ.F8,CQ.AF4,CQ.Overall,EQ.SampleRateQuality,EQ.OVERALL,EQ.AF3,EQ.F7,EQ.F3,EQ.FC5,EQ.T7,EQ.P7,EQ.O1,EQ.O2,EQ.P8,EQ.T8,EQ.FC6,EQ.F4,EQ.F8,EQ.AF4,MOT.CounterMems,MOT.InterpolatedMems,MOT.Q0,MOT.Q1,MOT.Q2,MOT.Q3,MOT.AccX,MOT.AccY,MOT.AccZ,MOT.MagX,MOT.MagY,MOT.MagZ,PM.Attention.IsActive,PM.Attention.Scaled,PM.Attention.Raw,PM.Attention.Min,PM.Attention.Max,PM.Engagement.IsActive,PM.Engagement.Scaled,PM.Engagement.Raw,PM.Engagement.Min,PM.Engagement.Max,PM.Excitement.IsActive,PM.Excitement.Scaled,PM.Excitement.Raw,PM.Excitement.Min,PM.Excitement.Max,PM.LongTermExcitement,PM.Stress.IsActive,PM.Stress.Scaled,PM.Stress.Raw,PM.Stress.Min,PM.Stress.Max,PM.Relaxation.IsActive,PM.Relaxation.Scaled,PM.Relaxation.Raw,PM.Relaxation.Min,PM.Relaxation.Max,PM.Interest.IsActive,PM.Interest.Scaled,PM.Interest.Raw,PM.Interest.Min,PM.Interest.Max,POW.AF3.Theta,POW.AF3.Alpha,POW.AF3.BetaL,POW.AF3.BetaH,POW.AF3.Gamma,POW.F7.Theta,POW.F7.Alpha,POW.F7.BetaL,POW.F7.BetaH,POW.F7.Gamma,POW.F3.Theta,POW.F3.Alpha,POW.F3.BetaL,POW.F3.BetaH,POW.F3.Gamma,POW.FC5.Theta,POW.FC5.Alpha,POW.FC5.BetaL,POW.FC5.BetaH,POW.FC5.Gamma,POW.T7.Theta,POW.T7.Alpha,POW.T7.BetaL,POW.T7.BetaH,POW.T7.Gamma,POW.P7.Theta,POW.P7.Alpha,POW.P7.BetaL,POW.P7.BetaH,POW.P7.Gamma,POW.O1.Theta,POW.O1.Alpha,POW.O1.BetaL,POW.O1.BetaH,POW.O1.Gamma,POW.O2.Theta,POW.O2.Alpha,POW.O2.BetaL,POW.O2.BetaH,POW.O2.Gamma,POW.P8.Theta,POW.P8.Alpha,POW.P8.BetaL,POW.P8.BetaH,POW.P8.Gamma,POW.T8.Theta,POW.T8.Alpha,POW.T8.BetaL,POW.T8.BetaH,POW.T8.Gamma,POW.FC6.Theta,POW.FC6.Alpha,POW.FC6.BetaL,POW.FC6.BetaH,POW.FC6.Gamma,POW.F4.Theta,POW.F4.Alpha,POW.F4.BetaL,POW.F4.BetaH,POW.F4.Gamma,POW.F8.Theta,POW.F8.Alpha,POW.F8.BetaL,POW.F8.BetaH,POW.F8.Gamma,POW.AF4.Theta,POW.AF4.Alpha,POW.AF4.BetaL,POW.AF4.BetaH,POW.AF4.Gamma
1739354829.038022,1739354829.038795,126.000000,0.000000,4264.743652,4251.025879,4307.307617,4294.871582,4242.436035,4246.794922,4212.436035,4282.051270,4233.974121,4230.384766,4535.897461,4481.538574,4374.230957,4480.512695,5011.000000,1.000000,16.000000,,,,0.000000,4.000000,4.000000,4.000000,4.000000,4.000000,4.000000,4.000000,4.000000,4.000000,4.000000,4.000000,4.000000,4.000000,4.000000,100.000000,,,,,,,,,,,,,,,,,,,,,,,,,,,,,,,,,,,,,,,,,,,,,,,,,,,,,,,,,,,,,,,,,,,,,,,,,,,,,,,,,,,,,,,,,,,,,,,,,,,,,,,,,,,,,,,,,,,,,,,,,,,,,,,,,
1739354829.045830,1739354829.046703,127.000000,0.000000,4253.717773,4248.077148,4298.846191,4293.461426,4236.153809,4243.717773,4211.153809,4283.333496,4233.589844,4231.282227,4535.897461,4473.589844,4373.461426,4472.948730,16.000000,1.000000,16.000000,,,,0.000000,4.000000,4.000000,4.000000,4.000000,4.000000,4.000000,4.000000,4.000000,4.000000,4.000000,4.000000,4.000000,4.000000,4.000000,100.000000,,,,,,,,,,,,,,,,,,,,,,,,,,,,,,,,,,,,,,,,,,,,,,,,,,,,,,,,,,,,,,,,,,,,,,,,,,,,,,,,,,,,,,,,,,,,,,,,,,,,,,,,,,,,,,,,,,,,,,,,,,,,,,,,,
1739354829.053639,1739354829.054511,0.000000,0.000000,4247.948730,4247.307617,4290.769043,4292.307617,4230.769043,4243.077148,4211.410156,4282.692383,4233.461426,4228.717773,4535.256348,4471.794922,4379.487305,4470.641113,5153.000000,1.000000,16.000000,,,,0.000000,4.000000,4.000000,4.000000,4.000000,4.000000,4.000000,4.000000,4.000000,4.000000,4.000000,4.000000,4.000000,4.000000,4.000000,100.000000,,,,,,,,,,,,,,,,,0.000000,0.000000,0.456720,0.372925,-0.573364,0.568848,0.948846,-0.309608,0.070321,-37.989929,-30.629431,44.553474,,,,,,,,,,,,,,,,,,,,,,,,,,,,,,,,,,,,,,,,,,,,,,,,,,,,,,,,,,,,,,,,,,,,,,,,,,,,,,,,,,,,,,,,,,,,,,,,,,,,,
1739354829.061447,1739354829.062419,1.000000,0.000000,4258.974121,4253.974121,4293.077148,4291.794922,4234.230957,4243.077148,4208.589844,4279.871582,4232.820313,4230.256348,4538.589844,4475.128418,4383.717773,4475.384766,5519.000000,1.000000,16.000000,,,,0.000000,4.000000,4.000000,4.000000,4.000000,4.000000,4.000000,4.000000,4.000000,4.000000,4.000000,4.000000,4.000000,4.000000,4.000000,100.000000,,,,,,,,,,,,,,,,,,,,,,,,,,,,,,,,,,,,,,,,,,,,,,,,,,,,,,,,,,,,,,,,,,,,,,,,,,,,,,,,,,,,,,,,,,,,,,,,,,,,,,,,,,,,,,,,,,,,,,,,,,,,,,,,,
1739354829.069255,1739354829.070227,2.000000,0.000000,4268.974121,4257.948730,4304.102539,4294.871582,4236.282227,4240.128418,4202.948730,4279.230957,4234.487305,4234.487305,4540.384766,4480.384766,4389.743652,4482.179688,5544.000000,1.000000,16.000000,,,,0.000000,4.000000,4.000000,4.000000,4.000000,4.000000,4.000000,4.000000,4.000000,4.000000,4.000000,4.000000,4.000000,4.000000,4.000000,100.000000,,,,,,,,,,,,,,,,,,,,,,,,,,,,,,,,,,,,,,,,,,,,,,,,,,,,,,,,,,,,,,,,,,,,,,,,,,,,,,,,,,,,,,,,,,,,,,,,,,,,,,,,,,,,,,,,,,,,,,,,,,,,,,,,,
1739354829.077063,1739354829.077935,3.000000,0.000000,4263.589844,4248.974121,4311.538574,4294.743652,4236.794922,4241.538574,4207.948730,4282.948730,4240.128418,4234.358887,4538.846191,4487.692383,4394.743652,4485.000000,5462.000000,1.000000,16.000000,,,,0.000000,4.000000,4.000000,4.000000,4.000000,4.000000,4.000000,4.000000,4.000000,4.000000,4.000000,4.000000,4.000000,4.000000,4.000000,100.000000,,,,,,,,,,,,,,,,,,,,,,,,,,,,,,,,,,,,,,,,,,,,,,,,,,,,,,,,,,,,,,,,,,,,,,,,,,,,,,,,,,,,,,,,,,,,,,,,,,,,,,,,,,,,,,,,,,,,,,,,,,,,,,,,,
1739354829.084871,1739354829.085743,4.000000,0.000000,4262.948730,4250.128418,4313.589844,4300.769043,4242.307617,4247.563965,4210.897461,4283.461426,4246.794922,4233.461426,4539.102539,4493.333496,4392.307617,4486.025879,5444.000000,1.000000,16.000000,,,,0.000000,4.000000,4.000000,4.000000,4.000000,4.000000,4.000000,4.000000,4.000000,4.000000,4.000000,4.000000,4.000000,4.000000,4.000000,100.000000,,,,,,,,,,,,,,,,,1.000000,0.000000,0.456974,0.372986,-0.573303,0.568665,0.955195,-0.305213,0.077646,-38.074268,-30.533154,44.614792,,,,,,,,,,,,,,,,,,,,,,,,,,,,,,,,,,,,,,,,,,,,,,,,,,,,,,,,,,,,,,,,,,,,,,,,,,,,,,,,,,,,,,,,,,,,,,,,,,,,,
1739354829.092679,1739354829.093451,5.000000,0.000000,4271.410156,4265.000000,4313.589844,4310.897461,4245.256348,4245.641113,4202.179688,4282.051270,4246.922852,4234.871582,4542.948730,4491.922852,4385.512695,4486.922852,5462.000000,1.000000,16.000000,,,,0.000000,4.000000,4.000000,4.000000,4.000000,4.000000,4.000000,4.000000,4.000000,4.000000,4.000000,4.000000,4.000000,4.000000,4.000000,100.000000,,,,,,,,,,,,,,,,,,,,,,,,,,,,,,,,,,,,,,,,,,,,,,,,,,,,,,,,,,,,,,,,,,,,,,,,,,,,,,,,,,,,,,,,,,,,,,,,,,,,,,,,,,,,,,,,,,,,,,,,,,,,,,,,,
1739354829.100487,1739354829.101259,6.000000,0.000000,4269.871582,4268.205078,4313.717773,4307.179688,4241.922852,4243.205078,4205.256348,4282.563965,4242.051270,4231.538574,4540.641113,4486.025879,4379.743652,4481.922852,5434.000000,1.000000,16.000000,,,,0.000000,4.000000,4.000000,4.000000,4.000000,4.000000,4.000000,4.000000,4.000000,4.000000,4.000000,4.000000,4.000000,4.000000,4.000000,100.000000,,,,,,,,,,,,,,,,,,,,,,,,,,,,,,,,,,,,,,,,,,,,,,,,,,,,,,,,,,,,,,,,,,,,,,,,,,,,,,,,,,,,,,,,,,,,,,,,,,,,,,,,,,,,,,,,,,,,,,,,,,,,,,,,,
1739354829.108295,1739354829.108967,7.000000,0.000000,4262.692383,4264.358887,4309.230957,4297.051270,4237.563965,4246.153809,4213.589844,4279.230957,4233.589844,4217.948730,4526.922852,4477.179688,4372.436035,4474.487305,2458.000000,1.000000,16.000000,,,,0.000000,4.000000,4.000000,4.000000,4.000000,4.000000,4.000000,4.000000,4.000000,4.000000,4.000000,4.000000,4.000000,4.000000,4.000000,100.000000,,,,,,,,,,,,,,,,,,,,,,,,,,,,,,,,,,,,,,,,,,,,,,,,,,,,,,,,,,,,,,,,,,,,,,,,,,,,,,,,,,,,,,,,,,,,,,,,,,,,,,,,,,,,,,,,,,,,,,,,,,,,,,,,,
1739354829.116103,1739354829.116775,8.000000,0.000000,4257.179688,4265.000000,4298.846191,4294.615234,4235.769043,4243.333496,4204.358887,4273.077148,4219.615234,4203.205078,4513.846191,4466.282227,4360.769043,4468.205078,5232.000000,1.000000,16.000000,,,,0.000000,4.000000,4.000000,4.000000,4.000000,4.000000,4.000000,4.000000,4.000000,4.000000,4.000000,4.000000,4.000000,4.000000,4.000000,100.000000,,,,,,,,,,,,,,,,,2.000000,0.000000,0.457103,0.373108,-0.573242,0.568542,0.947381,-0.294470,0.073739,-38.050175,-30.463173,44.603313,,,,,,,,,,,,,,,,,,,,,,,,,,,,,,,,,,,,,,,,,,,,,,,,,,,,,,,,,,,,,,,,,,,,,,,,,,,,,,,,,,,,,,,,,,,,,,,,,,,,,
1739354829.123911,1739354829.124483,9.000000,0.000000,4252.436035,4262.307617,4293.974121,4296.410156,4235.256348,4242.436035,4199.358887,4274.615234,4214.230957,4199.743652,4513.974121,4460.128418,4352.307617,4458.974121,5561.000000,1.000000,16.000000,,,,0.000000,4.000000,4.000000,4.000000,4.000000,4.000000,4.000000,4.000000,4.000000,4.000000,4.000000,4.000000,4.000000,4.000000,4.000000,100.000000,,,,,,,,,,,,,,,,,,,,,,,,,,,,,,,,,,,,,,,,,,,,,,,,,,,,,,,,,,,,,,,,,,,,,,,,,,,,,,,,,,,,,,,,,,,,,,,,,,,,,,,,,,,,,,,,,,,,,,,,,,,,,,,,,
1739354829.131719,1739354829.132291,10.000000,0.000000,4247.948730,4259.358887,4292.436035,4289.743652,4233.333496,4245.897461,4205.256348,4276.282227,4216.538574,4200.769043,4513.333496,4459.358887,4352.051270,4455.512695,5015.000000,1.000000,16.000000,,,,0.000000,4.000000,4.000000,4.000000,4.000000,4.000000,4.000000,4.000000,4.000000,4.000000,4.000000,4.000000,4.000000,4.000000,4.000000,100.000000,1.000000,75.000000,4.000000,4.000000,4.000000,4.000000,4.000000,4.000000,4.000000,1.000000,4.000000,4.000000,4.000000,4.000000,4.000000,4.000000,,,,,,,,,,,,,,,,,,,,,,,,,,,,,,,,,,,,,,,,,,,,1.895313,3.257342,1.356818,0.493501,0.147167,3.491419,2.466076,1.568180,0.623840,0.112964,1.811132,2.266404,1.264686,0.533603,0.086023,1.063966,2.210925,1.182841,0.424330,0.102776,1.643519,0.470761,0.526396,0.094426,0.102043,0.846348,0.591516,0.243549,0.056457,0.051501,0.729478,2.036769,0.608476,0.140675,0.087238,0.147060,0.176995,0.080659,0.064116,0.042995,0.830990,1.727425,0.216783,0.187633,0.123429,0.917785,2.389776,0.878305,0.223367,0.109506,1.517834,2.519458,0.939017,0.210926,0.100401,2.942534,2.826428,1.248780,0.564974,0.086233,0.776480,2.703243,1.676000,0.192975,0.151162,2.076165,2.460294,1.107374,0.320157,0.085820
1739354829.139527,1739354829.139999,11.000000,0.000000,4247.692383,4259.743652,4290.641113,4279.487305,4232.948730,4242.692383,4202.692383,4273.846191,4212.820313,4195.512695,4508.077148,4457.307617,4357.051270,4461.666504,5499.000000,1.000000,16.000000,,,,0.000000,4.000000,4.000000,4.000000,4.000000,4.000000,4.000000,4.000000,4.000000,4.000000,4.000000,4.000000,4.000000,4.000000,4.000000,100.000000,,,,,,,,,,,,,,,,,,,,,,,,,,,,,,,,,,,,,,,,,,,,,,,,,,,,,,,,,,,,,,,,,,,,,,,,,,,,,,,,,,,,,,,,,,,,,,,,,,,,,,,,,,,,,,,,,,,,,,,,,,,,,,,,,
1739354829.147335,1739354829.147807,12.000000,0.000000,4248.717773,4253.974121,4290.769043,4276.282227,4233.974121,4236.153809,4201.153809,4273.589844,4212.948730,4195.641113,4510.512695,4456.922852,4362.563965,4462.307617,5566.000000,1.000000,16.000000,,,,0.000000,4.000000,4.000000,4.000000,4.000000,4.000000,4.000000,4.000000,4.000000,4.000000,4.000000,4.000000,4.000000,4.000000,4.000000,100.000000,,,,,,,,,,,,,,,,,3.000000,0.000000,0.457110,0.373474,-0.572998,0.568542,0.944940,-0.291539,0.058113,-37.928493,-30.533522,44.676315,,,,,,,,,,,,,,,,,,,,,,,,,,,,,,,,,,,,,,,,,,,,,,,,,,,,,,,,,,,,,,,,,,,,,,,,,,,,,,,,,,,,,,,,,,,,,,,,,,,,,
1739354829.155144,1739354829.155515,13.000000,0.000000,4247.820313,4247.307617,4288.717773,4277.307617,4227.307617,4231.538574,4201.025879,4273.461426,4216.794922,4201.282227,4512.179688,4458.461426,4366.794922,4457.051270,6553.000000,1.000000,16.000000,,,,0.000000,4.000000,4.000000,4.000000,4.000000,4.000000,4.000000,4.000000,4.000000,4.000000,4.000000,4.000000,4.000000,4.000000,4.000000,100.000000,,,,,,,,,,,,,,,,,,,,,,,,,,,,,,,,,,,,,,,,,,,,,,,,,,,,,,,,,,,,,,,,,,,,,,,,,,,,,,,,,,,,,,,,,,,,,,,,,,,,,,,,,,,,,,,,,,,,,,,,,,,,,,,,,
1739354829.162952,1739354829.163323,14.000000,0.000000,4246.666504,4248.205078,4286.282227,4275.512695,4220.897461,4229.743652,4190.384766,4272.051270,4214.743652,4199.871582,4510.256348,4456.153809,4369.487305,4460.256348,5015.000000,1.000000,16.000000,,,,0.000000,4.000000,4.000000,4.000000,4.000000,4.000000,4.000000,4.000000,4.000000,4.000000,4.000000,4.000000,4.000000,4.000000,4.000000,100.000000,,,,,,,,,,,,,,,,,,,,,,,,,,,,,,,,,,,,,,,,,,,,,,,,,,,,,,,,,,,,,,,,,,,,,,,,,,,,,,,,,,,,,,,,,,,,,,,,,,,,,,,,,,,,,,,,,,,,,,,,,,,,,,,,,
1739354829.170760,1739354829.171031,15.000000,0.000000,4255.641113,4254.743652,4297.948730,4284.102539,4226.666504,4230.769043,4187.436035,4276.410156,4222.436035,4204.615234,4521.666504,4462.948730,4372.307617,4478.589844,5499.000000,1.000000,16.000000,,,,0.000000,4.000000,4.000000,4.000000,4.000000,4.000000,4.000000,4.000000,4.000000,4.000000,4.000000,4.000000,4.000000,4.000000,4.000000,100.000000,,,,,,,,,,,,,,,,,,,,,,,,,,,,,,,,,,,,,,,,,,,,,,,,,,,,,,,,,,,,,,,,,,,,,,,,,,,,,,,,,,,,,,,,,,,,,,,,,,,,,,,,,,,,,,,,,,,,,,,,,,,,,,,,,
1739354829.178568,1739354829.178939,16.000000,0.000000,4274.871582,4264.743652,4314.871582,4302.948730,4235.256348,4232.307617,4193.205078,4281.410156,4235.000000,4219.358887,4540.256348,4483.461426,4382.051270,4494.615234,0.000000,1.000000,16.000000,,,,0.000000,4.000000,4.000000,4.000000,4.000000,4.000000,4.000000,4.000000,4.000000,4.000000,4.000000,4.000000,4.000000,4.000000,4.000000,100.000000,,,,,,,,,,,,,,,,,4.000000,0.000000,0.456990,0.373901,-0.572815,0.568542,0.952265,-0.286168,0.069344,-37.952309,-30.546837,44.742016,,,,,,,,,,,,,,,,,,,,,,,,,,,,,,,,,,,,,,,,,,,,,,,,,,,,,,,,,,,,,,,,,,,,,,,,,,,,,,,,,,,,,,,,,,,,,,,,,,,,,
1739354829.186376,1739354829.186747,17.000000,0.000000,4279.230957,4270.641113,4314.615234,4307.563965,4233.461426,4232.436035,4191.025879,4276.922852,4227.692383,4220.256348,4540.384766,4492.692383,4394.615234,4496.922852,0.000000,1.000000,16.000000,,,,0.000000,4.000000,4.000000,4.000000,4.000000,4.000000,4.000000,4.000000,4.000000,4.000000,4.000000,4.000000,4.000000,4.000000,4.000000,100.000000,,,,,,,,,,,,,,,,,,,,,,,,,,,,,,,,,,,,,,,,,,,,,,,,,,,,,,,,,,,,,,,,,,,,,,,,,,,,,,,,,,,,,,,,,,,,,,,,,,,,,,,,,,,,,,,,,,,,,,,,,,,,,,,,,
1739354829.194184,1739354829.194655,18.000000,0.000000,4269.871582,4263.974121,4304.230957,4295.384766,4229.871582,4231.666504,4190.256348,4273.589844,4213.205078,4206.794922,4527.436035,4481.410156,4395.384766,4491.666504,0.000000,1.000000,16.000000,,,,0.000000,4.000000,4.000000,4.000000,4.000000,4.000000,4.000000,4.000000,4.000000,4.000000,4.000000,4.000000,4.000000,4.000000,4.000000,100.000000,,,,,,,,,,,,,,,,,,,,,,,,,,,,,,,,,,,,,,,,,,,,,,,,,,,,,,,,,,,,,,,,,,,,,,,,,,,,,,,,,,,,,,,,,,,,,,,,,,,,,,,,,,,,,,,,,,,,,,,,,,,,,,,,,
1739354829.201992,1739354829.202464,19.000000,0.000000,4260.512695,4252.692383,4292.179688,4283.333496,4231.538574,4232.692383,4198.589844,4274.743652,4209.358887,4195.000000,4517.948730,4462.179688,4377.692383,4481.666504,0.000000,1.000000,16.000000,,,,0.000000,4.000000,4.000000,4.000000,4.000000,4.000000,4.000000,4.000000,4.000000,4.000000,4.000000,4.000000,4.000000,4.000000,4.000000,100.000000,,,,,,,,,,,,,,,,,,,,,,,,,,,,,,,,,,,,,,,,,,,,,,,,,,,,,,,,,,,,,,,,,,,,,,,,,,,,,,,,,,,,,,,,,,,,,,,,,,,,,,,,,,,,,,,,,,,,,,,,,,,,,,,,,
1739354829.209800,1739354829.210372,20.000000,0.000000,4249.615234,4247.692383,4281.025879,4279.871582,4230.641113,4235.384766,4204.102539,4275.384766,4210.769043,4190.641113,4511.282227,4448.717773,4361.922852,4474.230957,0.000000,1.000000,16.000000,,,,0.000000,4.000000,4.000000,4.000000,4.000000,4.000000,4.000000,4.000000,4.000000,4.000000,4.000000,4.000000,4.000000,4.000000,4.000000,100.000000,,,,,,,,,,,,,,,,,5.000000,0.000000,0.456844,0.374268,-0.572693,0.568542,0.957636,-0.298376,0.062508,-37.957077,-30.625486,44.617817,,,,,,,,,,,,,,,,,,,,,,,,,,,,,,,,,,,,,,,,,,,,,,,,,,,,,,,,,,,,,,,,,,,,,,,,,,,,,,,,,,,,,,,,,,,,,,,,,,,,,
1739354829.217608,1739354829.218180,21.000000,0.000000,4242.051270,4245.897461,4276.153809,4277.436035,4222.563965,4234.487305,4203.333496,4277.307617,4213.974121,4193.461426,4507.179688,4442.307617,4365.769043,4475.512695,0.000000,1.000000,16.000000,,,,0.000000,4.000000,4.000000,4.000000,4.000000,4.000000,4.000000,4.000000,4.000000,4.000000,4.000000,4.000000,4.000000,4.000000,4.000000,100.000000,,,,,,,,,,,,,,,,,,,,,,,,,,,,,,,,,,,,,,,,,,,,,,,,,,,,,,,,,,,,,,,,,,,,,,,,,,,,,,,,,,,,,,,,,,,,,,,,,,,,,,,,,,,,,,,,,,,,,,,,,,,,,,,,,
1739354829.225416,1739354829.226087,22.000000,0.000000,4242.820313,4242.307617,4276.025879,4273.589844,4215.384766,4227.692383,4198.333496,4278.205078,4217.051270,4199.102539,4512.820313,4441.025879,4374.871582,4476.282227,0.000000,1.000000,16.000000,,,,0.000000,4.000000,4.000000,4.000000,4.000000,4.000000,4.000000,4.000000,4.000000,4.000000,4.000000,4.000000,4.000000,4.000000,4.000000,100.000000,,,,,,,,,,,,,,,,,,,,,,,,,,,,,,,,,,,,,,,,,,,,,,,,,,,,,,,,,,,,,,,,,,,,,,,,,,,,,,,,,,,,,,,,,,,,,,,,,,,,,,,,,,,,,,,,,,,,,,,,,,,,,,,,,
1739354829.233224,1739354829.233895,23.000000,0.000000,4246.538574,4240.256348,4278.846191,4275.000000,4219.615234,4224.487305,4187.820313,4275.384766,4215.000000,4201.538574,4520.897461,4447.436035,4376.666504,4472.436035,0.000000,1.000000,16.000000,,,,0.000000,4.000000,4.000000,4.000000,4.000000,4.000000,4.000000,4.000000,4.000000,4.000000,4.000000,4.000000,4.000000,4.000000,4.000000,100.000000,,,,,,,,,,,,,,,,,,,,,,,,,,,,,,,,,,,,,,,,,,,,,,,,,,,,,,,,,,,,,,,,,,,,,,,,,,,,,,,,,,,,,,,,,,,,,,,,,,,,,,,,,,,,,,,,,,,,,,,,,,,,,,,,,
1739354829.241032,1739354829.241803,24.000000,0.000000,4255.256348,4249.487305,4287.820313,4284.358887,4230.000000,4227.563965,4183.846191,4273.974121,4214.871582,4201.025879,4526.282227,4462.051270,4378.461426,4480.897461,0.000000,1.000000,16.000000,,,,0.000000,4.000000,4.000000,4.000000,4.000000,4.000000,4.000000,4.000000,4.000000,4.000000,4.000000,4.000000,4.000000,4.000000,4.000000,100.000000,,,,,,,,,,,,,,,,,6.000000,0.000000,0.456668,0.374390,-0.572693,0.568604,0.952753,-0.293493,0.075693,-37.961372,-30.446270,44.622700,,,,,,,,,,,,,,,,,,,,,,,,,,,,,,,,,,,,,,,,,,,,,,,,,,,,,,,,,,,,,,,,,,,,,,,,,,,,,,,,,,,,,,,,,,,,,,,,,,,,,
1739354829.248840,1739354829.249611,25.000000,0.000000,4269.743652,4260.641113,4299.871582,4292.563965,4231.794922,4229.871582,4187.692383,4273.717773,4217.692383,4203.461426,4536.666504,4474.615234,4384.487305,4495.769043,0.000000,1.000000,16.000000,,,,0.000000,4.000000,4.000000,4.000000,4.000000,4.000000,4.000000,4.000000,4.000000,4.000000,4.000000,4.000000,4.000000,4.000000,4.000000,100.000000,,,,,,,,,,,,,,,,,,,,,,,,,,,,,,,,,,,,,,,,,,,,,,,,,,,,,,,,,,,,,,,,,,,,,,,,,,,,,,,,,,,,,,,,,,,,,,,,,,,,,,,,,,,,,,,,,,,,,,,,,,,,,,,,,
1739354829.256649,1739354829.257519,26.000000,0.000000,4275.897461,4264.871582,4303.589844,4294.871582,4228.461426,4227.820313,4186.410156,4271.666504,4217.436035,4209.358887,4542.179688,4479.487305,4390.256348,4498.333496,0.000000,1.000000,16.000000,,,,0.000000,4.000000,4.000000,4.000000,4.000000,4.000000,4.000000,4.000000,4.000000,4.000000,4.000000,4.000000,4.000000,4.000000,4.000000,100.000000,,,,,,,,,,,,,,,,,,,,,,,,,,,,,,,,,,,,,,,,,,,,,,,,,,,,,,,,,,,,2.019327,2.490058,1.453574,0.426623,0.142006,3.628145,1.731386,1.634234,0.547865,0.103366,1.993133,1.698809,1.325503,0.440583,0.099336,1.197351,1.530670,1.175438,0.354809,0.097920,1.601493,0.539069,0.584213,0.093264,0.097732,0.911263,0.747557,0.247901,0.057927,0.056449,0.813151,1.840073,0.605580,0.125149,0.078233,0.141009,0.202087,0.084552,0.066103,0.047812,0.855007,1.326470,0.221049,0.150787,0.128561,0.848239,1.944817,0.899648,0.187291,0.112171,1.589466,1.939401,1.037410,0.184301,0.093059,3.005421,2.136969,1.298562,0.468609,0.084386,0.818094,2.093374,1.698051,0.186170,0.171812,2.016790,1.924463,1.188121,0.295983,0.086904
1739354829.264457,1739354829.265327,27.000000,0.000000,4273.205078,4263.205078,4300.384766,4297.051270,4229.487305,4222.051270,4184.230957,4270.128418,4216.025879,4209.358887,4535.384766,4476.025879,4391.794922,4495.000000,0.000000,1.000000,16.000000,,,,0.000000,4.000000,4.000000,4.000000,4.000000,4.000000,4.000000,4.000000,4.000000,4.000000,4.000000,4.000000,4.000000,4.000000,4.000000,100.000000,,,,,,,,,,,,,,,,,,,,,,,,,,,,,,,,,,,,,,,,,,,,,,,,,,,,,,,,,,,,,,,,,,,,,,,,,,,,,,,,,,,,,,,,,,,,,,,,,,,,,,,,,,,,,,,,,,,,,,,,,,,,,,,,,
1739354829.272265,1739354829.273035,28.000000,0.000000,4264.615234,4256.794922,4293.205078,4291.794922,4228.717773,4216.282227,4184.487305,4268.589844,4213.205078,4200.897461,4523.974121,4464.871582,4385.512695,4486.153809,0.000000,1.000000,16.000000,,,,0.000000,4.000000,4.000000,4.000000,4.000000,4.000000,4.000000,4.000000,4.000000,4.000000,4.000000,4.000000,4.000000,4.000000,4.000000,100.000000,,,,,,,,,,,,,,,,,7.000000,0.000000,0.456542,0.374451,-0.572693,0.568665,0.947381,-0.300330,0.070321,-37.915234,-30.501644,44.760429,,,,,,,,,,,,,,,,,,,,,,,,,,,,,,,,,,,,,,,,,,,,,,,,,,,,,,,,,,,,,,,,,,,,,,,,,,,,,,,,,,,,,,,,,,,,,,,,,,,,,
1739354829.280073,1739354829.280843,29.000000,0.000000,4252.179688,4246.025879,4283.461426,4281.282227,4222.051270,4217.179688,4186.282227,4267.948730,4212.051270,4196.538574,4517.563965,4456.794922,4379.230957,4474.871582,0.000000,1.000000,16.000000,,,,0.000000,4.000000,4.000000,4.000000,4.000000,4.000000,4.000000,4.000000,4.000000,4.000000,4.000000,4.000000,4.000000,4.000000,4.000000,100.000000,,,,,,,,,,,,,,,,,,,,,,,,,,,,,,,,,,,,,,,,,,,,,,,,,,,,,,,,,,,,,,,,,,,,,,,,,,,,,,,,,,,,,,,,,,,,,,,,,,,,,,,,,,,,,,,,,,,,,,,,,,,,,,,,,
1739354829.287881,1739354829.288551,30.000000,0.000000,4246.538574,4236.538574,4278.461426,4276.538574,4217.948730,4224.615234,4194.230957,4272.179688,4215.384766,4199.487305,4515.641113,4457.179688,4381.538574,4467.948730,0.000000,1.000000,16.000000,,,,0.000000,4.000000,4.000000,4.000000,4.000000,4.000000,4.000000,4.000000,4.000000,4.000000,4.000000,4.000000,4.000000,4.000000,4.000000,100.000000,,,,,,,,,,,,,,,,,,,,,,,,,,,,,,,,,,,,,,,,,,,,,,,,,,,,,,,,,,,,,,,,,,,,,,,,,,,,,,,,,,,,,,,,,,,,,,,,,,,,,,,,,,,,,,,,,,,,,,,,,,,,,,,,,
1739354829.295689,1739354829.296359,31.000000,0.000000,4246.922852,4233.974121,4279.230957,4277.820313,4217.692383,4228.205078,4198.589844,4273.589844,4217.436035,4200.769043,4513.717773,4455.256348,4381.922852,4463.077148,0.000000,1.000000,16.000000,,,,0.000000,4.000000,4.000000,4.000000,4.000000,4.000000,4.000000,4.000000,4.000000,4.000000,4.000000,4.000000,4.000000,4.000000,4.000000,100.000000,,,,,,,,,,,,,,,,,,,,,,,,,,,,,,,,,,,,,,,,,,,,,,,,,,,,,,,,,,,,,,,,,,,,,,,,,,,,,,,,,,,,,,,,,,,,,,,,,,,,,,,,,,,,,,,,,,,,,,,,,,,,,,,,,
1739354829.303497,1739354829.304067,32.000000,0.000000,4244.358887,4233.974121,4278.974121,4272.692383,4217.436035,4226.538574,4190.769043,4266.794922,4215.641113,4196.922852,4507.820313,4450.512695,4372.436035,4463.846191,0.000000,1.000000,16.000000,,,,0.000000,4.000000,4.000000,4.000000,4.000000,4.000000,4.000000,4.000000,4.000000,4.000000,4.000000,4.000000,4.000000,4.000000,4.000000,100.000000,,,,,,,,,,,,,,,,,8.000000,0.000000,0.456388,0.374451,-0.572815,0.568665,0.951776,-0.298865,0.068368,-37.923710,-30.584812,44.884388,,,,,,,,,,,,,,,,,,,,,,,,,,,,,,,,,,,,,,,,,,,,,,,,,,,,,,,,,,,,,,,,,,,,,,,,,,,,,,,,,,,,,,,,,,,,,,,,,,,,,
1739354829.311305,1739354829.311875,33.000000,0.000000,4241.922852,4230.256348,4276.153809,4264.615234,4220.256348,4227.563965,4189.743652,4263.077148,4212.820313,4187.820313,4501.153809,4446.282227,4365.769043,4466.153809,0.000000,1.000000,16.000000,,,,0.000000,4.000000,4.000000,4.000000,4.000000,4.000000,4.000000,4.000000,4.000000,4.000000,4.000000,4.000000,4.000000,4.000000,4.000000,100.000000,,,,,,,,,,,,,,,,,,,,,,,,,,,,,,,,,,,,,,,,,,,,,,,,,,,,,,,,,,,,,,,,,,,,,,,,,,,,,,,,,,,,,,,,,,,,,,,,,,,,,,,,,,,,,,,,,,,,,,,,,,,,,,,,,
1739354829.319113,1739354829.319583,34.000000,0.000000,4241.410156,4227.436035,4275.512695,4267.436035,4220.512695,4228.461426,4201.410156,4267.820313,4213.461426,4181.922852,4498.205078,4444.102539,4368.846191,4464.487305,0.000000,1.000000,16.000000,,,,0.000000,4.000000,4.000000,4.000000,4.000000,4.000000,4.000000,4.000000,4.000000,4.000000,4.000000,4.000000,4.000000,4.000000,4.000000,100.000000,,,,,,,,,,,,,,,,,,,,,,,,,,,,,,,,,,,,,,,,,,,,,,,,,,,,,,,,,,,,,,,,,,,,,,,,,,,,,,,,,,,,,,,,,,,,,,,,,,,,,,,,,,,,,,,,,,,,,,,,,,,,,,,,,
1739354829.326921,1739354829.327491,35.000000,0.000000,4241.410156,4234.871582,4276.666504,4275.769043,4217.307617,4227.436035,4199.102539,4271.538574,4215.256348,4188.461426,4500.256348,4449.487305,4373.717773,4466.666504,0.000000,1.000000,16.000000,,,,0.000000,4.000000,4.000000,4.000000,4.000000,4.000000,4.000000,4.000000,4.000000,4.000000,4.000000,4.000000,4.000000,4.000000,4.000000,100.000000,,,,,,,,,,,,,,,,,,,,,,,,,,,,,,,,,,,,,,,,,,,,,,,,,,,,,,,,,,,,,,,,,,,,,,,,,,,,,,,,,,,,,,,,,,,,,,,,,,,,,,,,,,,,,,,,,,,,,,,,,,,,,,,,,
1739354829.334729,1739354829.335300,36.000000,0.000000,4251.282227,4247.436035,4282.436035,4280.384766,4223.974121,4227.051270,4187.179688,4270.384766,4219.102539,4206.538574,4515.128418,4459.487305,4382.179688,4477.436035,0.000000,1.000000,16.000000,,,,0.000000,4.000000,4.000000,4.000000,4.000000,4.000000,4.000000,4.000000,4.000000,4.000000,4.000000,4.000000,4.000000,4.000000,4.000000,100.000000,,,,,,,,,,,,,,,,,9.000000,0.000000,0.456312,0.374451,-0.572876,0.568665,0.934196,-0.312538,0.071298,-37.981339,-30.576332,44.779282,,,,,,,,,,,,,,,,,,,,,,,,,,,,,,,,,,,,,,,,,,,,,,,,,,,,,,,,,,,,,,,,,,,,,,,,,,,,,,,,,,,,,,,,,,,,,,,,,,,,,
1739354829.342538,1739354829.343208,37.000000,0.000000,4264.743652,4250.384766,4292.436035,4281.794922,4227.948730,4225.897461,4188.205078,4268.717773,4224.871582,4216.922852,4526.153809,4468.205078,4385.000000,4481.538574,0.000000,1.000000,16.000000,,,,0.000000,4.000000,4.000000,4.000000,4.000000,4.000000,4.000000,4.000000,4.000000,4.000000,4.000000,4.000000,4.000000,4.000000,4.000000,100.000000,,,,,,,,,,,,,,,,,,,,,,,,,,,,,,,,,,,,,,,,,,,,,,,,,,,,,,,,,,,,,,,,,,,,,,,,,,,,,,,,,,,,,,,,,,,,,,,,,,,,,,,,,,,,,,,,,,,,,,,,,,,,,,,,,
1739354829.350345,1739354829.351016,38.000000,0.000000,4261.025879,4245.641113,4296.666504,4284.230957,4219.743652,4219.487305,4188.333496,4269.615234,4223.846191,4207.307617,4518.077148,4472.820313,4371.410156,4472.307617,0.000000,1.000000,16.000000,,,,0.000000,4.000000,4.000000,4.000000,4.000000,4.000000,4.000000,4.000000,4.000000,4.000000,4.000000,4.000000,4.000000,4.000000,4.000000,100.000000,,,,,,,,,,,,,,,,,,,,,,,,,,,,,,,,,,,,,,,,,,,,,,,,,,,,,,,,,,,,,,,,,,,,,,,,,,,,,,,,,,,,,,,,,,,,,,,,,,,,,,,,,,,,,,,,,,,,,,,,,,,,,,,,,
1739354829.358154,1739354829.358824,39.000000,0.000000,4259.358887,4248.333496,4296.153809,4290.897461,4219.615234,4216.282227,4182.051270,4268.077148,4217.307617,4202.307617,4517.179688,4472.692383,4370.897461,4473.461426,0.000000,1.000000,16.000000,,,,0.000000,4.000000,4.000000,4.000000,4.000000,4.000000,4.000000,4.000000,4.000000,4.000000,4.000000,4.000000,4.000000,4.000000,4.000000,100.000000,,,,,,,,,,,,,,,,,,,,,,,,,,,,,,,,,,,,,,,,,,,,,,,,,,,,,,,,,,,,,,,,,,,,,,,,,,,,,,,,,,,,,,,,,,,,,,,,,,,,,,,,,,,,,,,,,,,,,,,,,,,,,,,,,
1739354829.365962,1739354829.366532,40.000000,0.000000,4272.307617,4249.871582,4298.461426,4295.000000,4229.230957,4223.589844,4188.846191,4266.922852,4218.461426,4216.282227,4529.487305,4476.282227,4391.794922,4491.538574,0.000000,1.000000,16.000000,,,,0.000000,4.000000,4.000000,4.000000,4.000000,4.000000,4.000000,4.000000,4.000000,4.000000,4.000000,4.000000,4.000000,4.000000,4.000000,100.000000,,,,,,,,,,,,,,,,,10.000000,0.000000,0.456082,0.374451,-0.572998,0.568726,0.944451,-0.305213,0.056159,-37.966537,-30.468699,44.834686,,,,,,,,,,,,,,,,,,,,,,,,,,,,,,,,,,,,,,,,,,,,,,,,,,,,,,,,,,,,,,,,,,,,,,,,,,,,,,,,,,,,,,,,,,,,,,,,,,,,,
1739354829.373770,1739354829.374340,41.000000,0.000000,4273.333496,4239.487305,4299.230957,4288.205078,4231.153809,4231.922852,4201.282227,4268.589844,4221.794922,4223.589844,4531.153809,4479.615234,4399.487305,4495.769043,0.000000,1.000000,16.000000,,,,0.000000,4.000000,4.000000,4.000000,4.000000,4.000000,4.000000,4.000000,4.000000,4.000000,4.000000,4.000000,4.000000,4.000000,4.000000,100.000000,,,,,,,,,,,,,,,,,,,,,,,,,,,,,,,,,,,,,,,,,,,,,,,,,,,,,,,,,,,,,,,,,,,,,,,,,,,,,,,,,,,,,,,,,,,,,,,,,,,,,,,,,,,,,,,,,,,,,,,,,,,,,,,,,
1739354829.381578,1739354829.382048,42.000000,0.000000,4261.153809,4232.051270,4293.461426,4281.025879,4228.974121,4233.333496,4203.589844,4264.743652,4218.589844,4210.897461,4522.179688,4471.538574,4393.333496,4481.538574,0.000000,1.000000,16.000000,,,,0.000000,4.000000,4.000000,4.000000,4.000000,4.000000,4.000000,4.000000,4.000000,4.000000,4.000000,4.000000,4.000000,4.000000,4.000000,100.000000,,,,,,,,,,,,,,,,,,,,,,,,,,,,,,,,,,,,,,,,,,,,,,,,,,,,,,,,,,,,2.312500,1.855615,1.406371,0.335459,0.140267,3.701555,1.140674,1.547780,0.429972,0.094514,2.216449,1.250373,1.316471,0.334963,0.113797,1.325487,1.007217,1.084766,0.271866,0.097397,1.565132,0.657144,0.601324,0.092711,0.089053,0.990943,0.971662,0.268705,0.061408,0.060865,0.916649,1.761047,0.598641,0.119534,0.066896,0.123274,0.219249,0.089335,0.071615,0.051107,0.869099,0.959761,0.244160,0.120455,0.127350,0.791405,1.553100,0.884793,0.166831,0.123021,1.714259,1.371698,1.035551,0.175311,0.087507,2.988658,1.531293,1.247836,0.367592,0.088499,0.940981,1.544713,1.552367,0.190656,0.201925,2.151877,1.361016,1.165103,0.271048,0.092232
1739354829.389386,1739354829.389956,43.000000,0.000000,4261.794922,4235.256348,4291.666504,4284.102539,4232.051270,4231.282227,4202.563965,4260.000000,4215.128418,4204.743652,4521.153809,4462.563965,4397.179688,4475.512695,0.000000,1.000000,16.000000,,,,0.000000,4.000000,4.000000,4.000000,4.000000,4.000000,4.000000,4.000000,4.000000,4.000000,4.000000,4.000000,4.000000,4.000000,4.000000,100.000000,,,,,,,,,,,,,,,,,,,,,,,,,,,,,,,,,,,,,,,,,,,,,,,,,,,,,,,,,,,,,,,,,,,,,,,,,,,,,,,,,,,,,,,,,,,,,,,,,,,,,,,,,,,,,,,,,,,,,,,,,,,,,,,,,
1739354829.397194,1739354829.397764,44.000000,0.000000,4263.077148,4235.128418,4292.436035,4284.487305,4231.410156,4231.538574,4203.589844,4263.205078,4217.307617,4211.153809,4522.692383,4463.205078,4397.436035,4472.051270,0.000000,1.000000,16.000000,,,,0.000000,4.000000,4.000000,4.000000,4.000000,4.000000,4.000000,4.000000,4.000000,4.000000,4.000000,4.000000,4.000000,4.000000,4.000000,100.000000,,,,,,,,,,,,,,,,,11.000000,0.000000,0.456029,0.374329,-0.573120,0.568726,0.941033,-0.302771,0.065438,-38.053219,-30.421829,44.901218,,,,,,,,,,,,,,,,,,,,,,,,,,,,,,,,,,,,,,,,,,,,,,,,,,,,,,,,,,,,,,,,,,,,,,,,,,,,,,,,,,,,,,,,,,,,,,,,,,,,,
1739354829.405002,1739354829.405672,45.000000,0.000000,4252.563965,4223.333496,4291.282227,4278.461426,4227.692383,4232.307617,4206.666504,4268.333496,4223.589844,4215.897461,4521.538574,4462.179688,4386.025879,4464.615234,0.000000,1.000000,16.000000,,,,0.000000,4.000000,4.000000,4.000000,4.000000,4.000000,4.000000,4.000000,4.000000,4.000000,4.000000,4.000000,4.000000,4.000000,4.000000,100.000000,,,,,,,,,,,,,,,,,,,,,,,,,,,,,,,,,,,,,,,,,,,,,,,,,,,,,,,,,,,,,,,,,,,,,,,,,,,,,,,,,,,,,,,,,,,,,,,,,,,,,,,,,,,,,,,,,,,,,,,,,,,,,,,,,
1739354829.412810,1739354829.413480,46.000000,0.000000,4247.948730,4215.769043,4288.589844,4275.769043,4227.307617,4230.512695,4213.974121,4270.512695,4231.025879,4216.794922,4523.205078,4457.563965,4379.358887,4463.974121,0.000000,1.000000,16.000000,,,,0.000000,4.000000,4.000000,4.000000,4.000000,4.000000,4.000000,4.000000,4.000000,4.000000,4.000000,4.000000,4.000000,4.000000,4.000000,100.000000,,,,,,,,,,,,,,,,,,,,,,,,,,,,,,,,,,,,,,,,,,,,,,,,,,,,,,,,,,,,,,,,,,,,,,,,,,,,,,,,,,,,,,,,,,,,,,,,,,,,,,,,,,,,,,,,,,,,,,,,,,,,,,,,,
1739354829.420618,1739354829.421388,47.000000,0.000000,4250.769043,4218.333496,4286.153809,4278.205078,4228.974121,4231.025879,4215.512695,4267.051270,4231.922852,4216.410156,4523.461426,4460.256348,4379.871582,4464.743652,0.000000,1.000000,16.000000,,,,0.000000,4.000000,4.000000,4.000000,4.000000,4.000000,4.000000,4.000000,4.000000,4.000000,4.000000,4.000000,4.000000,4.000000,4.000000,100.000000,,,,,,,,,,,,,,,,,,,,,,,,,,,,,,,,,,,,,,,,,,,,,,,,,,,,,,,,,,,,,,,,,,,,,,,,,,,,,,,,,,,,,,,,,,,,,,,,,,,,,,,,,,,,,,,,,,,,,,,,,,,,,,,,,
1739354829.428426,1739354829.429196,48.000000,0.000000,4251.922852,4219.358887,4287.307617,4278.974121,4230.769043,4230.769043,4206.410156,4262.948730,4230.512695,4218.974121,4520.384766,4465.384766,4379.743652,4465.641113,0.000000,1.000000,16.000000,,,,0.000000,4.000000,4.000000,4.000000,4.000000,4.000000,4.000000,4.000000,4.000000,4.000000,4.000000,4.000000,4.000000,4.000000,4.000000,100.000000,,,,,,,,,,,,,,,,,12.000000,0.000000,0.456227,0.373901,-0.573120,0.568848,0.950311,-0.309120,0.072763,-38.031231,-30.446312,44.911095,,,,,,,,,,,,,,,,,,,,,,,,,,,,,,,,,,,,,,,,,,,,,,,,,,,,,,,,,,,,,,,,,,,,,,,,,,,,,,,,,,,,,,,,,,,,,,,,,,,,,
1739354829.436234,1739354829.437104,49.000000,0.000000,4252.948730,4217.948730,4291.153809,4278.333496,4229.102539,4229.102539,4198.846191,4262.051270,4226.153809,4217.692383,4521.025879,4466.794922,4377.948730,4472.563965,0.000000,1.000000,16.000000,,,,0.000000,4.000000,4.000000,4.000000,4.000000,4.000000,4.000000,4.000000,4.000000,4.000000,4.000000,4.000000,4.000000,4.000000,4.000000,100.000000,,,,,,,,,,,,,,,,,,,,,,,,,,,,,,,,,,,,,,,,,,,,,,,,,,,,,,,,,,,,,,,,,,,,,,,,,,,,,,,,,,,,,,,,,,,,,,,,,,,,,,,,,,,,,,,,,,,,,,,,,,,,,,,,,
1739354829.444043,1739354829.444912,50.000000,0.000000,4258.846191,4227.179688,4296.666504,4282.051270,4230.641113,4229.102539,4201.538574,4252.051270,4218.205078,4216.538574,4528.974121,4470.128418,4378.846191,4477.436035,0.000000,1.000000,16.000000,,,,0.000000,4.000000,4.000000,4.000000,4.000000,4.000000,4.000000,4.000000,4.000000,4.000000,4.000000,4.000000,4.000000,4.000000,4.000000,100.000000,,,,,,,,,,,,,,,,,,,,,,,,,,,,,,,,,,,,,,,,,,,,,,,,,,,,,,,,,,,,,,,,,,,,,,,,,,,,,,,,,,,,,,,,,,,,,,,,,,,,,,,,,,,,,,,,,,,,,,,,,,,,,,,,,
1739354829.451851,1739354829.452620,51.000000,0.000000,4272.307617,4241.922852,4304.871582,4291.538574,4239.102539,4234.743652,4209.487305,4238.974121,4222.692383,4224.871582,4535.384766,4473.846191,4383.077148,4484.102539,0.000000,1.000000,16.000000,,,,0.000000,4.000000,4.000000,4.000000,4.000000,4.000000,4.000000,4.000000,4.000000,4.000000,4.000000,4.000000,4.000000,4.000000,4.000000,100.000000,,,,,,,,,,,,,,,,,,,,,,,,,,,,,,,,,,,,,,,,,,,,,,,,,,,,,,,,,,,,,,,,,,,,,,,,,,,,,,,,,,,,,,,,,,,,,,,,,,,,,,,,,,,,,,,,,,,,,,,,,,,,,,,,,
1739354829.459659,1739354829.460528,52.000000,0.000000,4276.922852,4241.922852,4310.256348,4295.897461,4246.410156,4242.563965,4215.512695,4251.153809,4232.563965,4232.692383,4535.641113,4477.563965,4384.102539,4496.922852,0.000000,1.000000,16.000000,,,,0.000000,4.000000,4.000000,4.000000,4.000000,4.000000,4.000000,4.000000,4.000000,4.000000,4.000000,4.000000,4.000000,4.000000,4.000000,100.000000,,,,,,,,,,,,,,,,,13.000000,0.000000,0.456022,0.373779,-0.573242,0.568970,0.959590,-0.314492,0.062508,-38.111439,-30.501680,44.936653,,,,,,,,,,,,,,,,,,,,,,,,,,,,,,,,,,,,,,,,,,,,,,,,,,,,,,,,,,,,,,,,,,,,,,,,,,,,,,,,,,,,,,,,,,,,,,,,,,,,,
1739354829.467467,1739354829.468336,53.000000,0.000000,4269.743652,4238.333496,4309.102539,4294.230957,4246.922852,4248.717773,4223.333496,4279.102539,4233.333496,4230.641113,4540.641113,4483.717773,4379.102539,4502.051270,0.000000,1.000000,16.000000,,,,0.000000,4.000000,4.000000,4.000000,4.000000,4.000000,4.000000,4.000000,4.000000,4.000000,4.000000,4.000000,4.000000,4.000000,4.000000,100.000000,,,,,,,,,,,,,,,,,,,,,,,,,,,,,,,,,,,,,,,,,,,,,,,,,,,,,,,,,,,,,,,,,,,,,,,,,,,,,,,,,,,,,,,,,,,,,,,,,,,,,,,,,,,,,,,,,,,,,,,,,,,,,,,,,
1739354829.475275,1739354829.476244,54.000000,0.000000,4272.051270,4244.358887,4310.256348,4295.384766,4248.589844,4254.102539,4234.487305,4290.769043,4241.538574,4229.615234,4551.538574,4491.153809,4379.102539,4506.025879,0.000000,1.000000,16.000000,,,,0.000000,4.000000,4.000000,4.000000,4.000000,4.000000,4.000000,4.000000,4.000000,4.000000,4.000000,4.000000,4.000000,4.000000,4.000000,100.000000,,,,,,,,,,,,,,,,,,,,,,,,,,,,,,,,,,,,,,,,,,,,,,,,,,,,,,,,,,,,,,,,,,,,,,,,,,,,,,,,,,,,,,,,,,,,,,,,,,,,,,,,,,,,,,,,,,,,,,,,,,,,,,,,,
1739354829.483083,1739354829.484053,55.000000,0.000000,4281.794922,4250.384766,4317.051270,4295.897461,4251.794922,4256.538574,4239.230957,4288.974121,4249.615234,4235.128418,4555.769043,4497.948730,4389.102539,4516.538574,0.000000,1.000000,16.000000,,,,0.000000,4.000000,4.000000,4.000000,4.000000,4.000000,4.000000,4.000000,4.000000,4.000000,4.000000,4.000000,4.000000,4.000000,4.000000,100.000000,,,,,,,,,,,,,,,,,,,,,,,,,,,,,,,,,,,,,,,,,,,,,,,,,,,,,,,,,,,,,,,,,,,,,,,,,,,,,,,,,,,,,,,,,,,,,,,,,,,,,,,,,,,,,,,,,,,,,,,,,,,,,,,,,
1739354829.490891,1739354829.491861,56.000000,0.000000,4282.820313,4250.641113,4321.666504,4296.153809,4253.461426,4257.179688,4236.922852,4286.025879,4241.538574,4235.512695,4554.487305,4500.512695,4397.563965,4519.871582,0.000000,1.000000,16.000000,,,,0.000000,4.000000,4.000000,4.000000,4.000000,4.000000,4.000000,4.000000,4.000000,4.000000,4.000000,4.000000,4.000000,4.000000,4.000000,100.000000,,,,,,,,,,,,,,,,,14.000000,0.000000,0.455824,0.374207,-0.573242,0.568848,0.941033,-0.303748,0.057624,-38.183628,-30.418179,45.042988,,,,,,,,,,,,,,,,,,,,,,,,,,,,,,,,,,,,,,,,,,,,,,,,,,,,,,,,,,,,,,,,,,,,,,,,,,,,,,,,,,,,,,,,,,,,,,,,,,,,,
1739354829.498699,1739354829.499569,57.000000,0.000000,4283.077148,4249.871582,4320.384766,4297.692383,4255.384766,4256.410156,4233.205078,4283.717773,4235.769043,4234.871582,4556.538574,4498.846191,4405.769043,4520.128418,0.000000,1.000000,16.000000,,,,0.000000,4.000000,4.000000,4.000000,4.000000,4.000000,4.000000,4.000000,4.000000,4.000000,4.000000,4.000000,4.000000,4.000000,4.000000,100.000000,,,,,,,,,,,,,,,,,,,,,,,,,,,,,,,,,,,,,,,,,,,,,,,,,,,,,,,,,,,,,,,,,,,,,,,,,,,,,,,,,,,,,,,,,,,,,,,,,,,,,,,,,,,,,,,,,,,,,,,,,,,,,,,,,
1739354829.506507,1739354829.507377,58.000000,0.000000,4283.205078,4248.589844,4314.487305,4295.256348,4254.871582,4252.820313,4228.333496,4279.102539,4238.333496,4236.666504,4555.769043,4492.436035,4406.794922,4518.461426,0.000000,1.000000,16.000000,,,,0.000000,4.000000,4.000000,4.000000,4.000000,4.000000,4.000000,4.000000,4.000000,4.000000,4.000000,4.000000,4.000000,4.000000,4.000000,100.000000,,,,,,,,,,,,,,,,,,,,,,,,,,,,,,,,,,,,,,,,,,,,,,,,,,,,,,,,,,,,2.691694,1.449667,1.270901,0.249535,0.137945,3.668904,0.738049,1.356790,0.310282,0.087850,2.383062,1.005547,1.317174,0.249842,0.123195,1.400386,0.711037,0.981531,0.204475,0.098089,1.550112,0.798345,0.586713,0.096156,0.079738,1.059982,1.183404,0.298165,0.065657,0.062533,1.001978,1.782670,0.594125,0.121476,0.057658,0.101554,0.222765,0.095551,0.078837,0.052031,0.881369,0.710390,0.318045,0.100623,0.118456,0.799332,1.379415,0.900684,0.166835,0.139513,1.850673,0.988279,0.968038,0.185858,0.084002,2.867880,1.187837,1.186923,0.293804,0.093543,1.150110,1.246774,1.313347,0.205649,0.233575,2.504546,0.940279,1.073594,0.253961,0.099177
1739354829.514315,1739354829.515085,59.000000,0.000000,4278.333496,4247.436035,4314.487305,4298.077148,4251.025879,4249.358887,4223.461426,4271.025879,4233.205078,4233.077148,4552.692383,4488.974121,4398.589844,4511.410156,0.000000,1.000000,16.000000,,,,0.000000,4.000000,4.000000,4.000000,4.000000,4.000000,4.000000,4.000000,4.000000,4.000000,4.000000,4.000000,4.000000,4.000000,4.000000,100.000000,,,,,,,,,,,,,,,,,,,,,,,,,,,,,,,,,,,,,,,,,,,,,,,,,,,,,,,,,,,,,,,,,,,,,,,,,,,,,,,,,,,,,,,,,,,,,,,,,,,,,,,,,,,,,,,,,,,,,,,,,,,,,,,,,
1739354829.522123,1739354829.522893,60.000000,0.000000,4280.641113,4250.769043,4319.871582,4304.871582,4248.333496,4248.589844,4220.897461,4269.871582,4230.000000,4232.436035,4554.615234,4491.153809,4402.307617,4515.256348,0.000000,1.000000,16.000000,,,,0.000000,4.000000,4.000000,4.000000,4.000000,4.000000,4.000000,4.000000,4.000000,4.000000,4.000000,4.000000,4.000000,4.000000,4.000000,100.000000,,,,,,,,,,,,,,,,,15.000000,0.000000,0.455703,0.374634,-0.572998,0.568909,0.936149,-0.311561,0.062019,-38.215267,-30.376362,44.922024,,,,,,,,,,,,,,,,,,,,,,,,,,,,,,,,,,,,,,,,,,,,,,,,,,,,,,,,,,,,,,,,,,,,,,,,,,,,,,,,,,,,,,,,,,,,,,,,,,,,,
1739354829.529931,1739354829.530601,61.000000,0.000000,4285.512695,4246.538574,4320.000000,4299.358887,4246.666504,4248.333496,4218.205078,4273.846191,4237.436035,4244.487305,4556.794922,4493.077148,4414.230957,4519.871582,0.000000,1.000000,16.000000,,,,0.000000,4.000000,4.000000,4.000000,4.000000,4.000000,4.000000,4.000000,4.000000,4.000000,4.000000,4.000000,4.000000,4.000000,4.000000,100.000000,,,,,,,,,,,,,,,,,,,,,,,,,,,,,,,,,,,,,,,,,,,,,,,,,,,,,,,,,,,,,,,,,,,,,,,,,,,,,,,,,,,,,,,,,,,,,,,,,,,,,,,,,,,,,,,,,,,,,,,,,,,,,,,,,
1739354829.537739,1739354829.538409,62.000000,0.000000,4278.589844,4236.025879,4316.922852,4290.897461,4247.948730,4248.333496,4219.615234,4273.077148,4244.358887,4251.666504,4555.769043,4491.794922,4408.974121,4508.333496,0.000000,1.000000,16.000000,,,,0.000000,4.000000,4.000000,4.000000,4.000000,4.000000,4.000000,4.000000,4.000000,4.000000,4.000000,4.000000,4.000000,4.000000,4.000000,100.000000,,,,,,,,,,,,,,,,,,,,,,,,,,,,,,,,,,,,,,,,,,,,,,,,,,,,,,,,,,,,,,,,,,,,,,,,,,,,,,,,,,,,,,,,,,,,,,,,,,,,,,,,,,,,,,,,,,,,,,,,,,,,,,,,,
1739354829.545547,1739354829.546117,63.000000,0.000000,4269.102539,4234.102539,4314.871582,4289.102539,4244.358887,4248.974121,4225.769043,4272.692383,4246.794922,4240.384766,4550.512695,4490.256348,4397.051270,4497.820313,0.000000,1.000000,16.000000,,,,0.000000,4.000000,4.000000,4.000000,4.000000,4.000000,4.000000,4.000000,4.000000,4.000000,4.000000,4.000000,4.000000,4.000000,4.000000,100.000000,,,,,,,,,,,,,,,,,,,,,,,,,,,,,,,,,,,,,,,,,,,,,,,,,,,,,,,,,,,,,,,,,,,,,,,,,,,,,,,,,,,,,,,,,,,,,,,,,,,,,,,,,,,,,,,,,,,,,,,,,,,,,,,,,
1739354829.553356,1739354829.553925,64.000000,0.000000,4263.974121,4232.820313,4311.410156,4285.000000,4236.922852,4246.410156,4230.512695,4278.846191,4247.307617,4232.307617,4543.077148,4491.282227,4397.948730,4494.871582,5158.000000,1.000000,16.000000,,,,0.000000,4.000000,4.000000,4.000000,4.000000,4.000000,4.000000,4.000000,4.000000,4.000000,4.000000,4.000000,4.000000,4.000000,4.000000,100.000000,,,,,,,,,,,,,,,,,16.000000,0.000000,0.455815,0.375244,-0.572510,0.568909,0.942498,-0.301795,0.067879,-38.177074,-30.372059,44.846489,,,,,,,,,,,,,,,,,,,,,,,,,,,,,,,,,,,,,,,,,,,,,,,,,,,,,,,,,,,,,,,,,,,,,,,,,,,,,,,,,,,,,,,,,,,,,,,,,,,,,
1739354829.561164,1739354829.561633,65.000000,0.000000,4257.179688,4221.025879,4310.897461,4276.666504,4238.461426,4245.897461,4235.000000,4283.846191,4243.205078,4233.974121,4540.769043,4487.563965,4396.538574,4489.102539,5521.000000,1.000000,16.000000,,,,0.000000,4.000000,4.000000,4.000000,4.000000,4.000000,4.000000,4.000000,4.000000,4.000000,4.000000,4.000000,4.000000,4.000000,4.000000,100.000000,,,,,,,,,,,,,,,,,,,,,,,,,,,,,,,,,,,,,,,,,,,,,,,,,,,,,,,,,,,,,,,,,,,,,,,,,,,,,,,,,,,,,,,,,,,,,,,,,,,,,,,,,,,,,,,,,,,,,,,,,,,,,,,,,
1739354829.568972,1739354829.569541,66.000000,0.000000,4248.333496,4212.051270,4311.153809,4269.487305,4240.769043,4245.000000,4230.641113,4283.974121,4233.717773,4223.846191,4536.025879,4477.563965,4383.461426,4482.179688,5554.000000,1.000000,16.000000,,,,0.000000,4.000000,4.000000,4.000000,4.000000,4.000000,4.000000,4.000000,4.000000,4.000000,4.000000,4.000000,4.000000,4.000000,4.000000,100.000000,,,,,,,,,,,,,,,,,,,,,,,,,,,,,,,,,,,,,,,,,,,,,,,,,,,,,,,,,,,,,,,,,,,,,,,,,,,,,,,,,,,,,,,,,,,,,,,,,,,,,,,,,,,,,,,,,,,,,,,,,,,,,,,,,
1739354829.576780,1739354829.577349,67.000000,0.000000,4245.641113,4215.769043,4301.922852,4266.025879,4234.871582,4238.333496,4219.487305,4282.820313,4228.974121,4214.230957,4526.025879,4469.358887,4382.692383,4478.846191,5464.000000,1.000000,16.000000,,,,0.000000,4.000000,4.000000,4.000000,4.000000,4.000000,4.000000,4.000000,4.000000,4.000000,4.000000,4.000000,4.000000,4.000000,4.000000,100.000000,,,,,,,,,,,,,,,,,,,,,,,,,,,,,,,,,,,,,,,,,,,,,,,,,,,,,,,,,,,,,,,,,,,,,,,,,,,,,,,,,,,,,,,,,,,,,,,,,,,,,,,,,,,,,,,,,,,,,,,,,,,,,,,,,
1739354829.584588,1739354829.585158,68.000000,0.000000,4250.897461,4220.512695,4297.307617,4266.794922,4233.846191,4234.871582,4219.358887,4280.256348,4235.641113,4224.871582,4525.769043,4468.717773,4397.948730,4479.102539,5444.000000,1.000000,16.000000,,,,0.000000,4.000000,4.000000,4.000000,4.000000,4.000000,4.000000,4.000000,4.000000,4.000000,4.000000,4.000000,4.000000,4.000000,4.000000,100.000000,,,,,,,,,,,,,,,,,17.000000,0.000000,0.456073,0.375488,-0.572266,0.568787,0.953241,-0.329142,0.076670,-38.009365,-30.401520,44.895172,,,,,,,,,,,,,,,,,,,,,,,,,,,,,,,,,,,,,,,,,,,,,,,,,,,,,,,,,,,,,,,,,,,,,,,,,,,,,,,,,,,,,,,,,,,,,,,,,,,,,
1739354829.592396,1739354829.592966,69.000000,0.000000,4245.000000,4214.230957,4293.846191,4258.717773,4233.974121,4234.230957,4216.794922,4272.563965,4230.641113,4223.846191,4517.179688,4459.871582,4390.128418,4473.589844,5459.000000,1.000000,16.000000,,,,0.000000,4.000000,4.000000,4.000000,4.000000,4.000000,4.000000,4.000000,4.000000,4.000000,4.000000,4.000000,4.000000,4.000000,4.000000,100.000000,,,,,,,,,,,,,,,,,,,,,,,,,,,,,,,,,,,,,,,,,,,,,,,,,,,,,,,,,,,,,,,,,,,,,,,,,,,,,,,,,,,,,,,,,,,,,,,,,,,,,,,,,,,,,,,,,,,,,,,,,,,,,,,,,
1739354829.600204,1739354829.600874,70.000000,0.000000,4231.282227,4207.820313,4281.538574,4246.153809,4227.948730,4226.538574,4202.436035,4267.307617,4214.358887,4203.589844,4495.256348,4445.512695,4366.153809,4462.820313,5434.000000,1.000000,16.000000,,,,0.000000,4.000000,4.000000,4.000000,4.000000,4.000000,4.000000,4.000000,4.000000,4.000000,4.000000,4.000000,4.000000,4.000000,4.000000,100.000000,,,,,,,,,,,,,,,,,,,,,,,,,,,,,,,,,,,,,,,,,,,,,,,,,,,,,,,,,,,,,,,,,,,,,,,,,,,,,,,,,,,,,,,,,,,,,,,,,,,,,,,,,,,,,,,,,,,,,,,,,,,,,,,,,
1739354829.608012,1739354829.608682,71.000000,0.000000,4237.820313,4211.922852,4280.769043,4247.948730,4228.717773,4218.974121,4197.179688,4273.846191,4217.436035,4206.794922,4496.153809,4451.794922,4383.077148,4472.051270,2456.000000,1.000000,16.000000,,,,0.000000,4.000000,4.000000,4.000000,4.000000,4.000000,4.000000,4.000000,4.000000,4.000000,4.000000,4.000000,4.000000,4.000000,4.000000,100.000000,,,,,,,,,,,,,,,,,,,,,,,,,,,,,,,,,,,,,,,,,,,,,,,,,,,,,,,,,,,,,,,,,,,,,,,,,,,,,,,,,,,,,,,,,,,,,,,,,,,,,,,,,,,,,,,,,,,,,,,,,,,,,,,,,
1739354829.615820,1739354829.616590,72.000000,0.000000,4254.230957,4221.025879,4295.641113,4254.871582,4234.230957,4217.948730,4201.794922,4282.051270,4234.615234,4229.871582,4516.922852,4467.051270,4420.897461,4493.717773,5232.000000,1.000000,16.000000,,,,0.000000,4.000000,4.000000,4.000000,4.000000,4.000000,4.000000,4.000000,4.000000,4.000000,4.000000,4.000000,4.000000,4.000000,4.000000,100.000000,,,,,,,,,,,,,,,,,18.000000,0.000000,0.456356,0.375793,-0.572021,0.568604,0.953730,-0.315468,0.057136,-37.991764,-30.344702,44.738987,,,,,,,,,,,,,,,,,,,,,,,,,,,,,,,,,,,,,,,,,,,,,,,,,,,,,,,,,,,,,,,,,,,,,,,,,,,,,,,,,,,,,,,,,,,,,,,,,,,,,
1739354829.623628,1739354829.624398,73.000000,0.000000,4253.333496,4224.871582,4297.948730,4250.000000,4231.538574,4216.666504,4199.230957,4279.615234,4235.384766,4230.384766,4513.717773,4464.743652,4417.563965,4491.794922,5561.000000,1.000000,16.000000,,,,0.000000,4.000000,4.000000,4.000000,4.000000,4.000000,4.000000,4.000000,4.000000,4.000000,4.000000,4.000000,4.000000,4.000000,4.000000,100.000000,,,,,,,,,,,,,,,,,,,,,,,,,,,,,,,,,,,,,,,,,,,,,,,,,,,,,,,,,,,,,,,,,,,,,,,,,,,,,,,,,,,,,,,,,,,,,,,,,,,,,,,,,,,,,,,,,,,,,,,,,,,,,,,,,
1739354829.631436,1739354829.632305,74.000000,0.000000,4246.922852,4226.794922,4291.794922,4240.641113,4229.487305,4215.384766,4194.871582,4275.384766,4221.922852,4210.128418,4492.692383,4455.641113,4395.897461,4475.000000,5004.000000,1.000000,16.000000,,,,0.000000,4.000000,4.000000,4.000000,4.000000,4.000000,4.000000,4.000000,4.000000,4.000000,4.000000,4.000000,4.000000,4.000000,4.000000,100.000000,1.000000,91.666664,4.000000,4.000000,4.000000,4.000000,4.000000,4.000000,4.000000,3.000000,4.000000,4.000000,4.000000,4.000000,4.000000,4.000000,,,,,,,,,,,,,,,,,,,,,,,,,,,,,,,,,,,,,,,,,,,,3.009710,1.339256,1.167937,0.197611,0.134343,3.492031,0.560030,1.176438,0.226536,0.085583,2.386850,1.015878,1.420359,0.210922,0.123927,1.390701,0.668054,0.954893,0.173265,0.098229,1.522957,0.909204,0.558128,0.105838,0.073219,1.084973,1.307669,0.318828,0.071458,0.060559,1.019448,1.833678,0.584863,0.129372,0.055536,0.087125,0.209660,0.107625,0.085161,0.050802,0.879775,0.616675,0.459641,0.095132,0.103750,0.885838,1.510492,0.988934,0.188612,0.159794,1.954788,0.909386,0.907570,0.215091,0.083954,2.616479,1.242424,1.234996,0.274905,0.095907,1.415807,1.305261,1.084616,0.228305,0.259820,3.032307,0.807380,0.997719,0.251586,0.107384
1739354829.639244,1739354829.640113,75.000000,0.000000,4255.769043,4232.051270,4300.256348,4240.256348,4232.179688,4217.307617,4199.230957,4278.717773,4218.077148,4201.025879,4490.256348,4462.307617,4402.563965,4477.820313,5495.000000,1.000000,16.000000,,,,0.000000,4.000000,4.000000,4.000000,4.000000,4.000000,4.000000,4.000000,4.000000,4.000000,4.000000,4.000000,4.000000,4.000000,4.000000,100.000000,,,,,,,,,,,,,,,,,,,,,,,,,,,,,,,,,,,,,,,,,,,,,,,,,,,,,,,,,,,,,,,,,,,,,,,,,,,,,,,,,,,,,,,,,,,,,,,,,,,,,,,,,,,,,,,,,,,,,,,,,,,,,,,,,
1739354829.647052,1739354829.647821,76.000000,0.000000,4262.563965,4235.128418,4307.820313,4243.461426,4233.461426,4219.743652,4203.077148,4279.615234,4220.769043,4204.358887,4491.666504,4467.820313,4410.128418,4488.974121,5564.000000,1.000000,16.000000,,,,0.000000,4.000000,4.000000,4.000000,4.000000,4.000000,4.000000,4.000000,4.000000,4.000000,4.000000,4.000000,4.000000,4.000000,4.000000,100.000000,,,,,,,,,,,,,,,,,19.000000,0.000000,0.456944,0.376282,-0.571716,0.568115,0.926383,-0.291539,0.066414,-38.042587,-30.360231,44.815090,,,,,,,,,,,,,,,,,,,,,,,,,,,,,,,,,,,,,,,,,,,,,,,,,,,,,,,,,,,,,,,,,,,,,,,,,,,,,,,,,,,,,,,,,,,,,,,,,,,,,
1739354829.654861,1739354829.655629,77.000000,0.000000,4253.846191,4230.256348,4299.615234,4238.846191,4234.358887,4219.615234,4203.461426,4271.153809,4218.077148,4201.410156,4476.282227,4457.563965,4399.487305,4483.333496,6553.000000,1.000000,16.000000,,,,0.000000,4.000000,4.000000,4.000000,4.000000,4.000000,4.000000,4.000000,4.000000,4.000000,4.000000,4.000000,4.000000,4.000000,4.000000,100.000000,,,,,,,,,,,,,,,,,,,,,,,,,,,,,,,,,,,,,,,,,,,,,,,,,,,,,,,,,,,,,,,,,,,,,,,,,,,,,,,,,,,,,,,,,,,,,,,,,,,,,,,,,,,,,,,,,,,,,,,,,,,,,,,,,
1739354829.662669,1739354829.663338,78.000000,0.000000,4240.384766,4220.897461,4286.410156,4226.666504,4233.974121,4219.230957,4203.077148,4268.077148,4213.077148,4191.025879,4461.025879,4444.743652,4388.461426,4469.487305,5004.000000,1.000000,16.000000,,,,0.000000,4.000000,4.000000,4.000000,4.000000,4.000000,4.000000,4.000000,4.000000,4.000000,4.000000,4.000000,4.000000,4.000000,4.000000,100.000000,,,,,,,,,,,,,,,,,,,,,,,,,,,,,,,,,,,,,,,,,,,,,,,,,,,,,,,,,,,,,,,,,,,,,,,,,,,,,,,,,,,,,,,,,,,,,,,,,,,,,,,,,,,,,,,,,,,,,,,,,,,,,,,,,
1739354829.670477,1739354829.671145,79.000000,0.000000,4231.153809,4215.641113,4277.563965,4215.256348,4227.820313,4217.563965,4201.153809,4269.487305,4212.051270,4183.077148,4453.461426,4437.820313,4381.538574,4463.333496,5495.000000,1.000000,16.000000,,,,0.000000,4.000000,4.000000,4.000000,4.000000,4.000000,4.000000,4.000000,4.000000,4.000000,4.000000,4.000000,4.000000,4.000000,4.000000,100.000000,,,,,,,,,,,,,,,,,,,,,,,,,,,,,,,,,,,,,,,,,,,,,,,,,,,,,,,,,,,,,,,,,,,,,,,,,,,,,,,,,,,,,,,,,,,,,,,,,,,,,,,,,,,,,,,,,,,,,,,,,,,,,,,,,
1739354829.678285,1739354829.678854,80.000000,0.000000,4230.384766,4216.025879,4276.538574,4212.948730,4225.384766,4214.102539,4198.077148,4267.563965,4213.333496,4180.512695,4448.333496,4438.205078,4381.538574,4466.666504,5564.000000,1.000000,16.000000,,,,0.000000,4.000000,4.000000,4.000000,4.000000,4.000000,4.000000,4.000000,4.000000,4.000000,4.000000,4.000000,4.000000,4.000000,4.000000,100.000000,,,,,,,,,,,,,,,,,20.000000,0.000000,0.457758,0.376587,-0.571167,0.567810,0.960078,-0.292516,0.062019,-37.904995,-30.424208,44.800247,,,,,,,,,,,,,,,,,,,,,,,,,,,,,,,,,,,,,,,,,,,,,,,,,,,,,,,,,,,,,,,,,,,,,,,,,,,,,,,,,,,,,,,,,,,,,,,,,,,,,
1739354829.686093,1739354829.686662,81.000000,0.000000,4237.820313,4215.128418,4282.692383,4216.153809,4225.897461,4213.589844,4199.743652,4268.974121,4217.948730,4189.230957,4453.077148,4443.077148,4396.794922,4471.410156,6553.000000,1.000000,16.000000,,,,0.000000,4.000000,4.000000,4.000000,4.000000,4.000000,4.000000,4.000000,4.000000,4.000000,4.000000,4.000000,4.000000,4.000000,4.000000,100.000000,,,,,,,,,,,,,,,,,,,,,,,,,,,,,,,,,,,,,,,,,,,,,,,,,,,,,,,,,,,,,,,,,,,,,,,,,,,,,,,,,,,,,,,,,,,,,,,,,,,,,,,,,,,,,,,,,,,,,,,,,,,,,,,,,
1739354829.693901,1739354829.694370,82.000000,0.000000,4246.794922,4217.563965,4290.769043,4215.000000,4222.051270,4214.871582,4203.461426,4270.641113,4225.128418,4199.230957,4460.512695,4446.410156,4414.102539,4473.589844,5004.000000,1.000000,16.000000,,,,0.000000,4.000000,4.000000,4.000000,4.000000,4.000000,4.000000,4.000000,4.000000,4.000000,4.000000,4.000000,4.000000,4.000000,4.000000,100.000000,,,,,,,,,,,,,,,,,,,,,,,,,,,,,,,,,,,,,,,,,,,,,,,,,,,,,,,,,,,,,,,,,,,,,,,,,,,,,,,,,,,,,,,,,,,,,,,,,,,,,,,,,,,,,,,,,,,,,,,,,,,,,,,,,
1739354829.701709,1739354829.702178,83.000000,0.000000,4247.051270,4224.358887,4291.153809,4210.641113,4222.692383,4213.589844,4201.025879,4265.641113,4222.307617,4193.461426,4455.769043,4447.692383,4413.205078,4471.922852,5495.000000,1.000000,16.000000,,,,0.000000,4.000000,4.000000,4.000000,4.000000,4.000000,4.000000,4.000000,4.000000,4.000000,4.000000,4.000000,4.000000,4.000000,4.000000,100.000000,,,,,,,,,,,,,,,,,,,,,,,,,,,,,,,,,,,,,,,,,,,,,,,,,,,,,,,,,,,,,,,,,,,,,,,,,,,,,,,,,,,,,,,,,,,,,,,,,,,,,,,,,,,,,,,,,,,,,,,,,,,,,,,,,
1739354829.709517,1739354829.709886,84.000000,0.000000,4246.666504,4230.128418,4290.384766,4213.461426,4230.384766,4216.025879,4200.000000,4264.230957,4215.769043,4184.487305,4455.000000,4454.358887,4409.743652,4474.615234,5564.000000,1.000000,16.000000,,,,0.000000,4.000000,4.000000,4.000000,4.000000,4.000000,4.000000,4.000000,4.000000,4.000000,4.000000,4.000000,4.000000,4.000000,4.000000,100.000000,,,,,,,,,,,,,,,,,21.000000,0.000000,0.457910,0.376770,-0.571106,0.567627,0.955683,-0.285679,0.062996,-38.064495,-30.448454,44.903557,,,,,,,,,,,,,,,,,,,,,,,,,,,,,,,,,,,,,,,,,,,,,,,,,,,,,,,,,,,,,,,,,,,,,,,,,,,,,,,,,,,,,,,,,,,,,,,,,,,,,
1739354829.717325,1739354829.717694,85.000000,0.000000,4258.589844,4235.769043,4298.846191,4220.000000,4233.077148,4219.615234,4204.871582,4267.563965,4218.461426,4185.769043,4459.743652,4461.025879,4413.205078,4485.897461,6553.000000,1.000000,16.000000,,,,0.000000,4.000000,4.000000,4.000000,4.000000,4.000000,4.000000,4.000000,4.000000,4.000000,4.000000,4.000000,4.000000,4.000000,4.000000,100.000000,,,,,,,,,,,,,,,,,,,,,,,,,,,,,,,,,,,,,,,,,,,,,,,,,,,,,,,,,,,,,,,,,,,,,,,,,,,,,,,,,,,,,,,,,,,,,,,,,,,,,,,,,,,,,,,,,,,,,,,,,,,,,,,,,
1739354829.725133,1739354829.725402,86.000000,0.000000,4276.794922,4248.846191,4308.589844,4226.025879,4235.384766,4218.589844,4203.333496,4266.538574,4222.820313,4186.282227,4458.461426,4464.743652,4414.871582,4498.205078,5004.000000,1.000000,16.000000,,,,0.000000,4.000000,4.000000,4.000000,4.000000,4.000000,4.000000,4.000000,4.000000,4.000000,4.000000,4.000000,4.000000,4.000000,4.000000,100.000000,,,,,,,,,,,,,,,,,,,,,,,,,,,,,,,,,,,,,,,,,,,,,,,,,,,,,,,,,,,,,,,,,,,,,,,,,,,,,,,,,,,,,,,,,,,,,,,,,,,,,,,,,,,,,,,,,,,,,,,,,,,,,,,,,
1739354829.732941,1739354829.733310,87.000000,0.000000,4285.769043,4263.333496,4311.410156,4231.794922,4240.641113,4223.846191,4200.256348,4266.153809,4221.410156,4185.128418,4455.000000,4470.256348,4416.153809,4508.205078,5495.000000,1.000000,16.000000,,,,0.000000,4.000000,4.000000,4.000000,4.000000,4.000000,4.000000,4.000000,4.000000,4.000000,4.000000,4.000000,4.000000,4.000000,4.000000,100.000000,,,,,,,,,,,,,,,,,,,,,,,,,,,,,,,,,,,,,,,,,,,,,,,,,,,,,,,,,,,,,,,,,,,,,,,,,,,,,,,,,,,,,,,,,,,,,,,,,,,,,,,,,,,,,,,,,,,,,,,,,,,,,,,,,
1739354829.740749,1739354829.741118,88.000000,0.000000,4284.615234,4262.051270,4311.282227,4235.000000,4237.179688,4231.025879,4207.563965,4269.487305,4218.717773,4187.948730,4451.025879,4469.102539,4413.717773,4507.692383,5564.000000,1.000000,16.000000,,,,0.000000,4.000000,4.000000,4.000000,4.000000,4.000000,4.000000,4.000000,4.000000,4.000000,4.000000,4.000000,4.000000,4.000000,4.000000,100.000000,,,,,,,,,,,,,,,,,22.000000,0.000000,0.457964,0.377075,-0.570862,0.567627,0.937126,-0.300818,0.053717,-38.174713,-30.520275,44.863201,,,,,,,,,,,,,,,,,,,,,,,,,,,,,,,,,,,,,,,,,,,,,,,,,,,,,,,,,,,,,,,,,,,,,,,,,,,,,,,,,,,,,,,,,,,,,,,,,,,,,
1739354829.748557,1739354829.748926,89.000000,0.000000,4281.282227,4252.820313,4309.871582,4234.487305,4233.077148,4230.641113,4215.256348,4270.384766,4221.282227,4188.589844,4444.743652,4463.077148,4410.384766,4494.358887,6553.000000,1.000000,16.000000,,,,0.000000,4.000000,4.000000,4.000000,4.000000,4.000000,4.000000,4.000000,4.000000,4.000000,4.000000,4.000000,4.000000,4.000000,4.000000,100.000000,,,,,,,,,,,,,,,,,,,,,,,,,,,,,,,,,,,,,,,,,,,,,,,,,,,,,,,,,,,,,,,,,,,,,,,,,,,,,,,,,,,,,,,,,,,,,,,,,,,,,,,,,,,,,,,,,,,,,,,,,,,,,,,,,
1739354829.756366,1739354829.756634,90.000000,0.000000,4275.000000,4246.666504,4304.615234,4225.256348,4236.410156,4227.820313,4212.436035,4271.794922,4224.615234,4186.538574,4439.230957,4461.538574,4411.794922,4481.538574,5004.000000,1.000000,16.000000,,,,0.000000,4.000000,4.000000,4.000000,4.000000,4.000000,4.000000,4.000000,4.000000,4.000000,4.000000,4.000000,4.000000,4.000000,4.000000,100.000000,,,,,,,,,,,,,,,,,,,,,,,,,,,,,,,,,,,,,,,,,,,,,,,,,,,,,,,,,,,,3.164451,1.520169,1.185399,0.192574,0.132347,3.210710,0.610234,1.100869,0.195031,0.089524,2.195930,1.256414,1.648482,0.224296,0.116477,1.322833,0.847377,1.045342,0.180012,0.098104,1.440308,0.936164,0.530051,0.120864,0.071233,1.045103,1.307386,0.317470,0.080429,0.055715,0.951701,1.844977,0.560926,0.141200,0.063267,0.097671,0.191180,0.148229,0.093440,0.049663,0.844627,0.652714,0.652135,0.106980,0.087853,1.040992,1.885806,1.123292,0.230337,0.183190,2.030785,1.139877,0.908326,0.258928,0.089260,2.275797,1.698175,1.437458,0.319576,0.094803,1.684298,1.688816,0.937861,0.257232,0.278124,3.660018,1.010340,0.999909,0.265853,0.118059
1739354829.764174,1739354829.764542,91.000000,0.000000,4265.000000,4238.717773,4297.307617,4215.000000,4235.256348,4222.692383,4209.487305,4272.948730,4221.410156,4185.769043,4435.897461,4459.358887,4411.282227,4477.051270,5495.000000,1.000000,16.000000,,,,0.000000,4.000000,4.000000,4.000000,4.000000,4.000000,4.000000,4.000000,4.000000,4.000000,4.000000,4.000000,4.000000,4.000000,4.000000,100.000000,,,,,,,,,,,,,,,,,,,,,,,,,,,,,,,,,,,,,,,,,,,,,,,,,,,,,,,,,,,,,,,,,,,,,,,,,,,,,,,,,,,,,,,,,,,,,,,,,,,,,,,,,,,,,,,,,,,,,,,,,,,,,,,,,
1739354829.771982,1739354829.772351,92.000000,0.000000,4260.769043,4233.461426,4294.871582,4221.922852,4230.000000,4217.563965,4213.333496,4269.743652,4214.230957,4182.436035,4432.692383,4455.769043,4405.384766,4475.512695,5564.000000,1.000000,16.000000,,,,0.000000,4.000000,4.000000,4.000000,4.000000,4.000000,4.000000,4.000000,4.000000,4.000000,4.000000,4.000000,4.000000,4.000000,4.000000,100.000000,,,,,,,,,,,,,,,,,23.000000,0.000000,0.458293,0.377136,-0.570618,0.567566,0.950800,-0.308143,0.067391,-38.040573,-30.534914,44.793545,,,,,,,,,,,,,,,,,,,,,,,,,,,,,,,,,,,,,,,,,,,,,,,,,,,,,,,,,,,,,,,,,,,,,,,,,,,,,,,,,,,,,,,,,,,,,,,,,,,,,
1739354829.779790,1739354829.780258,93.000000,0.000000,4259.615234,4235.641113,4297.307617,4228.589844,4230.897461,4219.487305,4211.922852,4268.974121,4214.230957,4177.563965,4436.794922,4460.128418,4401.410156,4468.717773,6553.000000,1.000000,16.000000,,,,0.000000,4.000000,4.000000,4.000000,4.000000,4.000000,4.000000,4.000000,4.000000,4.000000,4.000000,4.000000,4.000000,4.000000,4.000000,100.000000,,,,,,,,,,,,,,,,,,,,,,,,,,,,,,,,,,,,,,,,,,,,,,,,,,,,,,,,,,,,,,,,,,,,,,,,,,,,,,,,,,,,,,,,,,,,,,,,,,,,,,,,,,,,,,,,,,,,,,,,,,,,,,,,,
1739354829.787598,1739354829.788066,94.000000,0.000000,4249.230957,4234.102539,4295.256348,4219.102539,4227.692383,4219.358887,4201.666504,4270.769043,4214.102539,4171.922852,4438.333496,4459.102539,4396.794922,4458.846191,5004.000000,1.000000,16.000000,,,,0.000000,4.000000,4.000000,4.000000,4.000000,4.000000,4.000000,4.000000,4.000000,4.000000,4.000000,4.000000,4.000000,4.000000,4.000000,100.000000,,,,,,,,,,,,,,,,,,,,,,,,,,,,,,,,,,,,,,,,,,,,,,,,,,,,,,,,,,,,,,,,,,,,,,,,,,,,,,,,,,,,,,,,,,,,,,,,,,,,,,,,,,,,,,,,,,,,,,,,,,,,,,,,,
1739354829.795406,1739354829.795974,95.000000,0.000000,4238.717773,4223.974121,4290.769043,4212.051270,4218.717773,4213.589844,4193.717773,4268.974121,4208.461426,4167.563965,4429.615234,4448.077148,4389.230957,4456.666504,5495.000000,1.000000,16.000000,,,,0.000000,4.000000,4.000000,4.000000,4.000000,4.000000,4.000000,4.000000,4.000000,4.000000,4.000000,4.000000,4.000000,4.000000,4.000000,100.000000,,,,,,,,,,,,,,,,,,,,,,,,,,,,,,,,,,,,,,,,,,,,,,,,,,,,,,,,,,,,,,,,,,,,,,,,,,,,,,,,,,,,,,,,,,,,,,,,,,,,,,,,,,,,,,,,,,,,,,,,,,,,,,,,,
1739354829.803214,1739354829.803782,96.000000,0.000000,4243.077148,4222.563965,4296.410156,4218.077148,4221.282227,4212.820313,4196.282227,4265.256348,4209.615234,4168.077148,4429.487305,4451.153809,4391.538574,4467.051270,5564.000000,1.000000,16.000000,,,,0.000000,4.000000,4.000000,4.000000,4.000000,4.000000,4.000000,4.000000,4.000000,4.000000,4.000000,4.000000,4.000000,4.000000,4.000000,100.000000,,,,,,,,,,,,,,,,,24.000000,0.000000,0.458621,0.377014,-0.570496,0.567505,0.956660,-0.305701,0.059578,-38.086517,-30.581423,44.914192,,,,,,,,,,,,,,,,,,,,,,,,,,,,,,,,,,,,,,,,,,,,,,,,,,,,,,,,,,,,,,,,,,,,,,,,,,,,,,,,,,,,,,,,,,,,,,,,,,,,,
1739354829.811022,1739354829.811690,97.000000,0.000000,4249.615234,4228.974121,4303.461426,4226.282227,4228.461426,4218.077148,4205.000000,4263.333496,4212.563965,4168.846191,4431.922852,4458.333496,4395.897461,4474.358887,6553.000000,1.000000,16.000000,,,,0.000000,4.000000,4.000000,4.000000,4.000000,4.000000,4.000000,4.000000,4.000000,4.000000,4.000000,4.000000,4.000000,4.000000,4.000000,100.000000,,,,,,,,,,,,,,,,,,,,,,,,,,,,,,,,,,,,,,,,,,,,,,,,,,,,,,,,,,,,,,,,,,,,,,,,,,,,,,,,,,,,,,,,,,,,,,,,,,,,,,,,,,,,,,,,,,,,,,,,,,,,,,,,,
1739354829.818830,1739354829.819498,98.000000,0.000000,4245.384766,4228.974121,4298.461426,4228.333496,4230.256348,4224.358887,4206.666504,4264.743652,4210.128418,4167.307617,4422.307617,4448.333496,4392.436035,4468.974121,5004.000000,1.000000,16.000000,,,,0.000000,4.000000,4.000000,4.000000,4.000000,4.000000,4.000000,4.000000,4.000000,4.000000,4.000000,4.000000,4.000000,4.000000,4.000000,100.000000,,,,,,,,,,,,,,,,,,,,,,,,,,,,,,,,,,,,,,,,,,,,,,,,,,,,,,,,,,,,,,,,,,,,,,,,,,,,,,,,,,,,,,,,,,,,,,,,,,,,,,,,,,,,,,,,,,,,,,,,,,,,,,,,,
1739354829.826638,1739354829.827206,99.000000,0.000000,4245.128418,4228.333496,4291.794922,4227.436035,4230.000000,4226.410156,4203.846191,4268.461426,4213.205078,4168.846191,4423.846191,4441.538574,4394.871582,4467.436035,5495.000000,1.000000,16.000000,,,,0.000000,4.000000,4.000000,4.000000,4.000000,4.000000,4.000000,4.000000,4.000000,4.000000,4.000000,4.000000,4.000000,4.000000,4.000000,100.000000,,,,,,,,,,,,,,,,,,,,,,,,,,,,,,,,,,,,,,,,,,,,,,,,,,,,,,,,,,,,,,,,,,,,,,,,,,,,,,,,,,,,,,,,,,,,,,,,,,,,,,,,,,,,,,,,,,,,,,,,,,,,,,,,,
1739354829.834446,1739354829.835014,100.000000,0.000000,4256.794922,4234.102539,4294.102539,4230.769043,4226.794922,4225.256348,4203.846191,4270.000000,4218.589844,4173.589844,4438.333496,4446.922852,4402.436035,4472.948730,5564.000000,1.000000,16.000000,,,,0.000000,4.000000,4.000000,4.000000,4.000000,4.000000,4.000000,4.000000,4.000000,4.000000,4.000000,4.000000,4.000000,4.000000,4.000000,100.000000,,,,,,,,,,,,,,,,,25.000000,0.000000,0.459327,0.376892,-0.570251,0.567261,0.954706,-0.294470,0.070809,-38.161198,-30.573280,44.939438,,,,,,,,,,,,,,,,,,,,,,,,,,,,,,,,,,,,,,,,,,,,,,,,,,,,,,,,,,,,,,,,,,,,,,,,,,,,,,,,,,,,,,,,,,,,,,,,,,,,,
1739354829.842255,1739354829.842722,101.000000,0.000000,4264.871582,4236.666504,4296.538574,4235.897461,4223.205078,4227.051270,4205.128418,4265.641113,4216.794922,4180.000000,4437.179688,4448.205078,4404.871582,4475.000000,6553.000000,1.000000,16.000000,,,,0.000000,4.000000,4.000000,4.000000,4.000000,4.000000,4.000000,4.000000,4.000000,4.000000,4.000000,4.000000,4.000000,4.000000,4.000000,100.000000,,,,,,,,,,,,,,,,,,,,,,,,,,,,,,,,,,,,,,,,,,,,,,,,,,,,,,,,,,,,,,,,,,,,,,,,,,,,,,,,,,,,,,,,,,,,,,,,,,,,,,,,,,,,,,,,,,,,,,,,,,,,,,,,,
1739354829.850062,1739354829.850530,102.000000,0.000000,4262.179688,4235.512695,4295.000000,4238.077148,4225.384766,4230.000000,4203.333496,4265.256348,4214.615234,4184.102539,4431.922852,4448.205078,4407.563965,4472.179688,5004.000000,1.000000,16.000000,,,,0.000000,4.000000,4.000000,4.000000,4.000000,4.000000,4.000000,4.000000,4.000000,4.000000,4.000000,4.000000,4.000000,4.000000,4.000000,100.000000,,,,,,,,,,,,,,,,,,,,,,,,,,,,,,,,,,,,,,,,,,,,,,,,,,,,,,,,,,,,,,,,,,,,,,,,,,,,,,,,,,,,,,,,,,,,,,,,,,,,,,,,,,,,,,,,,,,,,,,,,,,,,,,,,
1739354829.857871,1739354829.858238,103.000000,0.000000,4263.205078,4241.538574,4299.487305,4242.948730,4226.922852,4229.358887,4199.871582,4267.179688,4213.333496,4178.717773,4440.256348,4454.358887,4413.589844,4472.948730,5495.000000,1.000000,16.000000,,,,0.000000,4.000000,4.000000,4.000000,4.000000,4.000000,4.000000,4.000000,4.000000,4.000000,4.000000,4.000000,4.000000,4.000000,4.000000,100.000000,,,,,,,,,,,,,,,,,,,,,,,,,,,,,,,,,,,,,,,,,,,,,,,,,,,,,,,,,,,,,,,,,,,,,,,,,,,,,,,,,,,,,,,,,,,,,,,,,,,,,,,,,,,,,,,,,,,,,,,,,,,,,,,,,
1739354829.865679,1739354829.866046,104.000000,0.000000,4273.974121,4248.717773,4309.102539,4256.282227,4223.077148,4227.820313,4198.846191,4264.230957,4210.000000,4172.820313,4446.025879,4459.358887,4414.358887,4476.410156,5564.000000,1.000000,16.000000,,,,0.000000,4.000000,4.000000,4.000000,4.000000,4.000000,4.000000,4.000000,4.000000,4.000000,4.000000,4.000000,4.000000,4.000000,4.000000,100.000000,,,,,,,,,,,,,,,,,26.000000,0.000000,0.460181,0.376587,-0.570007,0.567017,0.958613,-0.292028,0.075204,-38.161747,-30.465952,44.812160,,,,,,,,,,,,,,,,,,,,,,,,,,,,,,,,,,,,,,,,,,,,,,,,,,,,,,,,,,,,,,,,,,,,,,,,,,,,,,,,,,,,,,,,,,,,,,,,,,,,,
1739354829.873487,1739354829.873754,105.000000,0.000000,4282.051270,4250.256348,4313.461426,4263.717773,4226.794922,4228.717773,4200.641113,4262.692383,4210.769043,4179.615234,4445.128418,4461.538574,4408.205078,4480.000000,6553.000000,1.000000,16.000000,,,,0.000000,4.000000,4.000000,4.000000,4.000000,4.000000,4.000000,4.000000,4.000000,4.000000,4.000000,4.000000,4.000000,4.000000,4.000000,100.000000,,,,,,,,,,,,,,,,,,,,,,,,,,,,,,,,,,,,,,,,,,,,,,,,,,,,,,,,,,,,,,,,,,,,,,,,,,,,,,,,,,,,,,,,,,,,,,,,,,,,,,,,,,,,,,,,,,,,,,,,,,,,,,,,,
1739354829.881295,1739354829.881562,106.000000,0.000000,4276.282227,4244.230957,4311.025879,4256.666504,4227.436035,4227.820313,4197.563965,4262.820313,4210.384766,4186.538574,4445.897461,4460.000000,4404.358887,4480.000000,5004.000000,1.000000,16.000000,,,,0.000000,4.000000,4.000000,4.000000,4.000000,4.000000,4.000000,4.000000,4.000000,4.000000,4.000000,4.000000,4.000000,4.000000,4.000000,100.000000,,,,,,,,,,,,,,,,,,,,,,,,,,,,,,,,,,,,,,,,,,,,,,,,,,,,,,,,,,,,3.201489,1.911692,1.315013,0.224431,0.136770,2.971409,0.835624,1.138039,0.204225,0.099923,1.902213,1.618277,1.924345,0.273531,0.105142,1.278385,1.150832,1.210116,0.208192,0.099944,1.300745,0.854628,0.505340,0.136591,0.073416,0.965994,1.200384,0.292707,0.093337,0.049734,0.823157,1.812476,0.530759,0.154116,0.079474,0.147096,0.193346,0.254767,0.109705,0.051849,0.774622,0.740533,0.860606,0.134786,0.077500,1.228292,2.336329,1.229743,0.285613,0.211187,2.106397,1.576467,0.968151,0.308650,0.102377,1.979239,2.399428,1.730315,0.408090,0.092592,1.943770,2.246365,0.876461,0.292153,0.294276,4.422745,1.463606,1.078048,0.291368,0.134226
1739354829.889103,1739354829.889270,107.000000,0.000000,4266.794922,4239.230957,4308.846191,4250.000000,4222.948730,4228.205078,4193.461426,4263.846191,4206.922852,4185.512695,4447.051270,4458.589844,4406.538574,4470.641113,5495.000000,1.000000,16.000000,,,,0.000000,4.000000,4.000000,4.000000,4.000000,4.000000,4.000000,4.000000,4.000000,4.000000,4.000000,4.000000,4.000000,4.000000,4.000000,100.000000,,,,,,,,,,,,,,,,,,,,,,,,,,,,,,,,,,,,,,,,,,,,,,,,,,,,,,,,,,,,,,,,,,,,,,,,,,,,,,,,,,,,,,,,,,,,,,,,,,,,,,,,,,,,,,,,,,,,,,,,,,,,,,,,,
1739354829.896911,1739354829.897178,108.000000,0.000000,4266.794922,4246.153809,4310.000000,4252.436035,4225.128418,4230.769043,4196.282227,4266.282227,4210.384766,4187.436035,4450.641113,4459.871582,4410.384766,4466.025879,5564.000000,1.000000,16.000000,,,,0.000000,4.000000,4.000000,4.000000,4.000000,4.000000,4.000000,4.000000,4.000000,4.000000,4.000000,4.000000,4.000000,4.000000,4.000000,100.000000,,,,,,,,,,,,,,,,,27.000000,0.000000,0.460531,0.376343,-0.570007,0.566895,0.956171,-0.279819,0.087901,-38.012238,-30.419357,44.680946,,,,,,,,,,,,,,,,,,,,,,,,,,,,,,,,,,,,,,,,,,,,,,,,,,,,,,,,,,,,,,,,,,,,,,,,,,,,,,,,,,,,,,,,,,,,,,,,,,,,,
1739354829.904719,1739354829.904987,109.000000,0.000000,4267.436035,4248.205078,4305.641113,4253.846191,4226.410156,4230.769043,4200.000000,4265.256348,4216.025879,4190.641113,4452.563965,4452.692383,4409.487305,4471.666504,6553.000000,1.000000,16.000000,,,,0.000000,4.000000,4.000000,4.000000,4.000000,4.000000,4.000000,4.000000,4.000000,4.000000,4.000000,4.000000,4.000000,4.000000,4.000000,100.000000,,,,,,,,,,,,,,,,,,,,,,,,,,,,,,,,,,,,,,,,,,,,,,,,,,,,,,,,,,,,,,,,,,,,,,,,,,,,,,,,,,,,,,,,,,,,,,,,,,,,,,,,,,,,,,,,,,,,,,,,,,,,,,,,,
1739354829.912527,1739354829.912895,110.000000,0.000000,4261.025879,4235.512695,4296.666504,4247.563965,4225.256348,4231.410156,4204.230957,4260.897461,4214.743652,4186.410156,4446.410156,4442.051270,4404.743652,4473.333496,5004.000000,1.000000,16.000000,,,,0.000000,4.000000,4.000000,4.000000,4.000000,4.000000,4.000000,4.000000,4.000000,4.000000,4.000000,4.000000,4.000000,4.000000,4.000000,100.000000,,,,,,,,,,,,,,,,,,,,,,,,,,,,,,,,,,,,,,,,,,,,,,,,,,,,,,,,,,,,,,,,,,,,,,,,,,,,,,,,,,,,,,,,,,,,,,,,,,,,,,,,,,,,,,,,,,,,,,,,,,,,,,,,,
1739354829.920335,1739354829.920703,111.000000,0.000000,4259.358887,4229.743652,4296.922852,4248.717773,4227.820313,4241.153809,4214.615234,4260.897461,4214.743652,4182.563965,4443.589844,4448.846191,4399.230957,4475.256348,5495.000000,1.000000,16.000000,,,,0.000000,4.000000,4.000000,4.000000,4.000000,4.000000,4.000000,4.000000,4.000000,4.000000,4.000000,4.000000,4.000000,4.000000,4.000000,100.000000,,,,,,,,,,,,,,,,,,,,,,,,,,,,,,,,,,,,,,,,,,,,,,,,,,,,,,,,,,,,,,,,,,,,,,,,,,,,,,,,,,,,,,,,,,,,,,,,,,,,,,,,,,,,,,,,,,,,,,,,,,,,,,,,,
1739354829.928143,1739354829.928511,112.000000,0.000000,4263.333496,4235.641113,4307.692383,4253.974121,4231.666504,4250.000000,4219.102539,4261.282227,4218.589844,4186.282227,4448.333496,4461.025879,4393.333496,4483.333496,5564.000000,1.000000,16.000000,,,,0.000000,4.000000,4.000000,4.000000,4.000000,4.000000,4.000000,4.000000,4.000000,4.000000,4.000000,4.000000,4.000000,4.000000,4.000000,100.000000,,,,,,,,,,,,,,,,,28.000000,0.000000,0.461007,0.376221,-0.569763,0.566833,0.943475,-0.293493,0.081553,-37.894348,-30.277422,44.662853,,,,,,,,,,,,,,,,,,,,,,,,,,,,,,,,,,,,,,,,,,,,,,,,,,,,,,,,,,,,,,,,,,,,,,,,,,,,,,,,,,,,,,,,,,,,,,,,,,,,,
1739354829.935951,1739354829.936219,113.000000,0.000000,4264.743652,4233.846191,4307.820313,4252.051270,4231.282227,4245.128418,4212.563965,4256.410156,4217.948730,4188.846191,4447.692383,4456.025879,4391.153809,4484.871582,6553.000000,1.000000,16.000000,,,,0.000000,4.000000,4.000000,4.000000,4.000000,4.000000,4.000000,4.000000,4.000000,4.000000,4.000000,4.000000,4.000000,4.000000,4.000000,100.000000,,,,,,,,,,,,,,,,,,,,,,,,,,,,,,,,,,,,,,,,,,,,,,,,,,,,,,,,,,,,,,,,,,,,,,,,,,,,,,,,,,,,,,,,,,,,,,,,,,,,,,,,,,,,,,,,,,,,,,,,,,,,,,,,,
1739354829.943760,1739354829.944127,114.000000,0.000000,4263.077148,4224.743652,4298.717773,4247.563965,4225.769043,4240.897461,4210.384766,4256.922852,4215.897461,4185.897461,4447.563965,4446.282227,4394.743652,4483.717773,5004.000000,1.000000,16.000000,,,,0.000000,4.000000,4.000000,4.000000,4.000000,4.000000,4.000000,4.000000,4.000000,4.000000,4.000000,4.000000,4.000000,4.000000,4.000000,100.000000,,,,,,,,,,,,,,,,,,,,,,,,,,,,,,,,,,,,,,,,,,,,,,,,,,,,,,,,,,,,,,,,,,,,,,,,,,,,,,,,,,,,,,,,,,,,,,,,,,,,,,,,,,,,,,,,,,,,,,,,,,,,,,,,,
1739354829.951568,1739354829.951936,115.000000,0.000000,4259.871582,4219.230957,4293.205078,4245.769043,4218.846191,4244.102539,4214.487305,4261.666504,4216.922852,4186.666504,4456.025879,4444.230957,4392.820313,4488.205078,5495.000000,1.000000,16.000000,,,,0.000000,4.000000,4.000000,4.000000,4.000000,4.000000,4.000000,4.000000,4.000000,4.000000,4.000000,4.000000,4.000000,4.000000,4.000000,100.000000,,,,,,,,,,,,,,,,,,,,,,,,,,,,,,,,,,,,,,,,,,,,,,,,,,,,,,,,,,,,,,,,,,,,,,,,,,,,,,,,,,,,,,,,,,,,,,,,,,,,,,,,,,,,,,,,,,,,,,,,,,,,,,,,,
1739354829.959376,1739354829.959843,116.000000,0.000000,4258.205078,4227.563965,4294.615234,4253.974121,4222.179688,4246.282227,4211.794922,4265.256348,4219.743652,4194.615234,4461.282227,4444.230957,4389.102539,4488.589844,5564.000000,1.000000,16.000000,,,,0.000000,4.000000,4.000000,4.000000,4.000000,4.000000,4.000000,4.000000,4.000000,4.000000,4.000000,4.000000,4.000000,4.000000,4.000000,100.000000,,,,,,,,,,,,,,,,,29.000000,0.000000,0.461283,0.376160,-0.569641,0.566772,0.953730,-0.290563,0.085460,-37.788246,-30.316345,44.646564,,,,,,,,,,,,,,,,,,,,,,,,,,,,,,,,,,,,,,,,,,,,,,,,,,,,,,,,,,,,,,,,,,,,,,,,,,,,,,,,,,,,,,,,,,,,,,,,,,,,,
1739354829.967184,1739354829.967651,117.000000,0.000000,4265.384766,4244.615234,4301.666504,4265.256348,4230.897461,4244.743652,4204.102539,4270.256348,4221.153809,4201.282227,4465.769043,4448.461426,4394.230957,4487.051270,6553.000000,1.000000,16.000000,,,,0.000000,4.000000,4.000000,4.000000,4.000000,4.000000,4.000000,4.000000,4.000000,4.000000,4.000000,4.000000,4.000000,4.000000,4.000000,100.000000,,,,,,,,,,,,,,,,,,,,,,,,,,,,,,,,,,,,,,,,,,,,,,,,,,,,,,,,,,,,,,,,,,,,,,,,,,,,,,,,,,,,,,,,,,,,,,,,,,,,,,,,,,,,,,,,,,,,,,,,,,,,,,,,,
1739354829.974992,1739354829.975559,118.000000,0.000000,4271.410156,4248.077148,4306.410156,4265.384766,4223.589844,4241.794922,4199.743652,4271.410156,4219.358887,4201.666504,4475.256348,4455.641113,4400.641113,4488.077148,5004.000000,1.000000,16.000000,,,,0.000000,4.000000,4.000000,4.000000,4.000000,4.000000,4.000000,4.000000,4.000000,4.000000,4.000000,4.000000,4.000000,4.000000,4.000000,100.000000,,,,,,,,,,,,,,,,,,,,,,,,,,,,,,,,,,,,,,,,,,,,,,,,,,,,,,,,,,,,,,,,,,,,,,,,,,,,,,,,,,,,,,,,,,,,,,,,,,,,,,,,,,,,,,,,,,,,,,,,,,,,,,,,,
1739354829.982800,1739354829.983367,119.000000,0.000000,4269.487305,4241.153809,4306.282227,4260.256348,4216.666504,4241.153809,4201.666504,4270.897461,4216.794922,4199.743652,4475.897461,4456.922852,4403.077148,4486.666504,5495.000000,1.000000,16.000000,,,,0.000000,4.000000,4.000000,4.000000,4.000000,4.000000,4.000000,4.000000,4.000000,4.000000,4.000000,4.000000,4.000000,4.000000,4.000000,100.000000,,,,,,,,,,,,,,,,,,,,,,,,,,,,,,,,,,,,,,,,,,,,,,,,,,,,,,,,,,,,,,,,,,,,,,,,,,,,,,,,,,,,,,,,,,,,,,,,,,,,,,,,,,,,,,,,,,,,,,,,,,,,,,,,,
1739354829.990608,1739354829.991275,120.000000,0.000000,4267.692383,4244.615234,4309.230957,4263.077148,4225.000000,4243.974121,4207.948730,4270.128418,4216.538574,4199.358887,4472.179688,4459.102539,4400.897461,4484.102539,5564.000000,1.000000,16.000000,,,,0.000000,4.000000,4.000000,4.000000,4.000000,4.000000,4.000000,4.000000,4.000000,4.000000,4.000000,4.000000,4.000000,4.000000,4.000000,100.000000,,,,,,,,,,,,,,,,,30.000000,0.000000,0.461132,0.375977,-0.569702,0.566956,0.951776,-0.300818,0.065438,-37.759422,-30.334711,44.731911,,,,,,,,,,,,,,,,,,,,,,,,,,,,,,,,,,,,,,,,,,,,,,,,,,,,,,,,,,,,,,,,,,,,,,,,,,,,,,,,,,,,,,,,,,,,,,,,,,,,,
1739354829.998416,1739354829.999083,121.000000,0.000000,4268.846191,4246.538574,4312.307617,4267.820313,4230.128418,4248.846191,4217.563965,4270.641113,4219.615234,4203.974121,4479.871582,4464.743652,4398.461426,4482.692383,6553.000000,1.000000,16.000000,,,,0.000000,4.000000,4.000000,4.000000,4.000000,4.000000,4.000000,4.000000,4.000000,4.000000,4.000000,4.000000,4.000000,4.000000,4.000000,100.000000,,,,,,,,,,,,,,,,,,,,,,,,,,,,,,,,,,,,,,,,,,,,,,,,,,,,,,,,,,,,,,,,,,,,,,,,,,,,,,,,,,,,,,,,,,,,,,,,,,,,,,,,,,,,,,,,,,,,,,,,,,,,,,,,,
1739354830.006224,1739354830.006991,122.000000,0.000000,4263.077148,4236.922852,4304.615234,4264.487305,4227.051270,4249.871582,4221.025879,4271.794922,4213.717773,4199.358887,4477.307617,4454.615234,4391.410156,4472.948730,5004.000000,1.000000,16.000000,,,,0.000000,4.000000,4.000000,4.000000,4.000000,4.000000,4.000000,4.000000,4.000000,4.000000,4.000000,4.000000,4.000000,4.000000,4.000000,100.000000,,,,,,,,,,,,,,,,,,,,,,,,,,,,,,,,,,,,,,,,,,,,,,,,,,,,,,,,,,,,3.299879,2.471037,1.459524,0.270450,0.150840,2.980225,1.230485,1.217179,0.226551,0.114582,1.662495,1.998600,2.116777,0.330339,0.095843,1.312951,1.497603,1.349827,0.235100,0.105627,1.157993,0.698083,0.476784,0.146960,0.077657,0.910709,1.047781,0.253332,0.107929,0.044220,0.705247,1.780555,0.503567,0.164883,0.099373,0.239500,0.239314,0.449234,0.137659,0.059416,0.700981,0.803038,1.049685,0.171006,0.078422,1.396014,2.677255,1.244165,0.342325,0.245600,2.223642,2.068807,1.041450,0.351671,0.124965,1.898507,3.131450,1.983941,0.500809,0.093394,2.186249,2.827104,0.861382,0.331977,0.319480,5.369280,2.068100,1.165570,0.319871,0.159205
1739354830.014032,1739354830.014799,123.000000,0.000000,4251.922852,4231.282227,4292.692383,4262.051270,4226.282227,4248.333496,4216.794922,4271.153809,4202.436035,4185.641113,4462.051270,4436.538574,4380.000000,4463.333496,5495.000000,1.000000,16.000000,,,,0.000000,4.000000,4.000000,4.000000,4.000000,4.000000,4.000000,4.000000,4.000000,4.000000,4.000000,4.000000,4.000000,4.000000,4.000000,100.000000,,,,,,,,,,,,,,,,,,,,,,,,,,,,,,,,,,,,,,,,,,,,,,,,,,,,,,,,,,,,,,,,,,,,,,,,,,,,,,,,,,,,,,,,,,,,,,,,,,,,,,,,,,,,,,,,,,,,,,,,,,,,,,,,,
1739354830.021840,1739354830.022607,124.000000,0.000000,4246.410156,4228.333496,4292.436035,4260.128418,4225.256348,4251.922852,4219.358887,4272.563965,4206.922852,4186.282227,4463.205078,4437.436035,4376.666504,4462.692383,5564.000000,1.000000,16.000000,,,,0.000000,4.000000,4.000000,4.000000,4.000000,4.000000,4.000000,4.000000,4.000000,4.000000,4.000000,4.000000,4.000000,4.000000,4.000000,100.000000,,,,,,,,,,,,,,,,,31.000000,0.000000,0.460982,0.375977,-0.569702,0.567078,0.947381,-0.295935,0.076670,-37.950146,-30.267906,44.858719,,,,,,,,,,,,,,,,,,,,,,,,,,,,,,,,,,,,,,,,,,,,,,,,,,,,,,,,,,,,,,,,,,,,,,,,,,,,,,,,,,,,,,,,,,,,,,,,,,,,,
1739354830.029648,1739354830.030415,125.000000,0.000000,4253.077148,4227.179688,4300.128418,4261.410156,4225.641113,4257.948730,4228.333496,4277.820313,4216.025879,4198.205078,4476.153809,4448.846191,4386.153809,4466.153809,6553.000000,1.000000,16.000000,,,,0.000000,4.000000,4.000000,4.000000,4.000000,4.000000,4.000000,4.000000,4.000000,4.000000,4.000000,4.000000,4.000000,4.000000,4.000000,100.000000,,,,,,,,,,,,,,,,,,,,,,,,,,,,,,,,,,,,,,,,,,,,,,,,,,,,,,,,,,,,,,,,,,,,,,,,,,,,,,,,,,,,,,,,,,,,,,,,,,,,,,,,,,,,,,,,,,,,,,,,,,,,,,,,,
1739354830.037456,1739354830.038123,126.000000,0.000000,4270.384766,4242.307617,4311.282227,4274.230957,4232.179688,4263.333496,4230.512695,4282.307617,4217.948730,4210.128418,4488.974121,4463.589844,4401.794922,4482.948730,5004.000000,1.000000,16.000000,,,,0.000000,4.000000,4.000000,4.000000,4.000000,4.000000,4.000000,4.000000,4.000000,4.000000,4.000000,4.000000,4.000000,4.000000,4.000000,100.000000,,,,,,,,,,,,,,,,,,,,,,,,,,,,,,,,,,,,,,,,,,,,,,,,,,,,,,,,,,,,,,,,,,,,,,,,,,,,,,,,,,,,,,,,,,,,,,,,,,,,,,,,,,,,,,,,,,,,,,,,,,,,,,,,,
1739354830.045265,1739354830.045931,127.000000,0.000000,4280.000000,4253.974121,4322.436035,4284.615234,4235.769043,4263.205078,4222.563965,4278.333496,4220.384766,4217.563965,4493.589844,4474.871582,4400.512695,4497.179688,16.000000,1.000000,16.000000,,,,0.000000,4.000000,4.000000,4.000000,4.000000,4.000000,4.000000,4.000000,4.000000,4.000000,4.000000,4.000000,4.000000,4.000000,4.000000,100.000000,,,,,,,,,,,,,,,,,,,,,,,,,,,,,,,,,,,,,,,,,,,,,,,,,,,,,,,,,,,,,,,,,,,,,,,,,,,,,,,,,,,,,,,,,,,,,,,,,,,,,,,,,,,,,,,,,,,,,,,,,,,,,,,,,
1739354830.053073,1739354830.053639,0.000000,0.000000,4278.077148,4251.922852,4325.641113,4282.948730,4234.102539,4258.205078,4215.000000,4276.922852,4226.025879,4218.846191,4489.615234,4473.333496,4392.948730,4496.153809,5158.000000,1.000000,16.000000,,,,0.000000,4.000000,4.000000,4.000000,4.000000,4.000000,4.000000,4.000000,4.000000,4.000000,4.000000,4.000000,4.000000,4.000000,4.000000,100.000000,,,,,,,,,,,,,,,,,0.000000,0.000000,0.460729,0.375732,-0.569946,0.567200,0.958125,-0.301306,0.082041,-38.005131,-30.341116,44.922848,,,,,,,,,,,,,,,,,,,,,,,,,,,,,,,,,,,,,,,,,,,,,,,,,,,,,,,,,,,,,,,,,,,,,,,,,,,,,,,,,,,,,,,,,,,,,,,,,,,,,
1739354830.060881,1739354830.061447,1.000000,0.000000,4280.897461,4255.256348,4321.410156,4281.794922,4237.692383,4257.692383,4218.589844,4282.820313,4231.410156,4225.384766,4491.025879,4472.563965,4401.153809,4498.974121,5521.000000,1.000000,16.000000,,,,0.000000,4.000000,4.000000,4.000000,4.000000,4.000000,4.000000,4.000000,4.000000,4.000000,4.000000,4.000000,4.000000,4.000000,4.000000,100.000000,,,,,,,,,,,,,,,,,,,,,,,,,,,,,,,,,,,,,,,,,,,,,,,,,,,,,,,,,,,,,,,,,,,,,,,,,,,,,,,,,,,,,,,,,,,,,,,,,,,,,,,,,,,,,,,,,,,,,,,,,,,,,,,,,
1739354830.068689,1739354830.069155,2.000000,0.000000,4276.922852,4257.436035,4314.743652,4278.077148,4244.358887,4262.436035,4227.051270,4282.820313,4232.820313,4231.666504,4485.769043,4470.897461,4399.615234,4499.871582,5551.000000,1.000000,16.000000,,,,0.000000,4.000000,4.000000,4.000000,4.000000,4.000000,4.000000,4.000000,4.000000,4.000000,4.000000,4.000000,4.000000,4.000000,4.000000,100.000000,,,,,,,,,,,,,,,,,,,,,,,,,,,,,,,,,,,,,,,,,,,,,,,,,,,,,,,,,,,,,,,,,,,,,,,,,,,,,,,,,,,,,,,,,,,,,,,,,,,,,,,,,,,,,,,,,,,,,,,,,,,,,,,,,
1739354830.076497,1739354830.077063,3.000000,0.000000,4264.871582,4247.051270,4312.179688,4267.436035,4243.717773,4266.153809,4234.615234,4280.256348,4233.461426,4231.794922,4477.948730,4463.461426,4389.615234,4494.743652,5462.000000,1.000000,16.000000,,,,0.000000,4.000000,4.000000,4.000000,4.000000,4.000000,4.000000,4.000000,4.000000,4.000000,4.000000,4.000000,4.000000,4.000000,4.000000,100.000000,,,,,,,,,,,,,,,,,,,,,,,,,,,,,,,,,,,,,,,,,,,,,,,,,,,,,,,,,,,,,,,,,,,,,,,,,,,,,,,,,,,,,,,,,,,,,,,,,,,,,,,,,,,,,,,,,,,,,,,,,,,,,,,,,
1739354830.084305,1739354830.084871,4.000000,0.000000,4265.512695,4239.871582,4315.128418,4261.922852,4237.948730,4262.179688,4235.384766,4280.128418,4234.615234,4233.461426,4481.282227,4463.846191,4397.948730,4498.589844,5439.000000,1.000000,16.000000,,,,0.000000,4.000000,4.000000,4.000000,4.000000,4.000000,4.000000,4.000000,4.000000,4.000000,4.000000,4.000000,4.000000,4.000000,4.000000,100.000000,,,,,,,,,,,,,,,,,1.000000,0.000000,0.460272,0.375366,-0.570435,0.567322,0.962031,-0.299841,0.080088,-37.954617,-30.440338,44.863895,,,,,,,,,,,,,,,,,,,,,,,,,,,,,,,,,,,,,,,,,,,,,,,,,,,,,,,,,,,,,,,,,,,,,,,,,,,,,,,,,,,,,,,,,,,,,,,,,,,,,
1739354830.092113,1739354830.092680,5.000000,0.000000,4261.282227,4231.922852,4305.128418,4251.666504,4230.128418,4250.769043,4223.461426,4274.102539,4221.538574,4220.641113,4464.871582,4453.846191,4397.179688,4491.794922,5454.000000,1.000000,16.000000,,,,0.000000,4.000000,4.000000,4.000000,4.000000,4.000000,4.000000,4.000000,4.000000,4.000000,4.000000,4.000000,4.000000,4.000000,4.000000,100.000000,,,,,,,,,,,,,,,,,,,,,,,,,,,,,,,,,,,,,,,,,,,,,,,,,,,,,,,,,,,,,,,,,,,,,,,,,,,,,,,,,,,,,,,,,,,,,,,,,,,,,,,,,,,,,,,,,,,,,,,,,,,,,,,,,
1739354830.099921,1739354830.100488,6.000000,0.000000,4240.512695,4222.948730,4289.102539,4232.051270,4225.769043,4242.948730,4210.897461,4264.102539,4203.461426,4194.615234,4434.743652,4429.615234,4375.769043,4470.384766,5425.000000,1.000000,16.000000,,,,0.000000,4.000000,4.000000,4.000000,4.000000,4.000000,4.000000,4.000000,4.000000,4.000000,4.000000,4.000000,4.000000,4.000000,4.000000,100.000000,,,,,,,,,,,,,,,,,,,,,,,,,,,,,,,,,,,,,,,,,,,,,,,,,,,,,,,,,,,,,,,,,,,,,,,,,,,,,,,,,,,,,,,,,,,,,,,,,,,,,,,,,,,,,,,,,,,,,,,,,,,,,,,,,
1739354830.107729,1739354830.108296,7.000000,0.000000,4242.820313,4228.461426,4294.230957,4228.077148,4229.102539,4246.025879,4214.358887,4266.666504,4210.128418,4200.897461,4440.256348,4432.820313,4381.666504,4474.358887,2453.000000,1.000000,16.000000,,,,0.000000,4.000000,4.000000,4.000000,4.000000,4.000000,4.000000,4.000000,4.000000,4.000000,4.000000,4.000000,4.000000,4.000000,4.000000,100.000000,,,,,,,,,,,,,,,,,,,,,,,,,,,,,,,,,,,,,,,,,,,,,,,,,,,,,,,,,,,,,,,,,,,,,,,,,,,,,,,,,,,,,,,,,,,,,,,,,,,,,,,,,,,,,,,,,,,,,,,,,,,,,,,,,
1739354830.115537,1739354830.116004,8.000000,0.000000,4266.922852,4236.538574,4307.436035,4236.410156,4233.077148,4247.820313,4220.128418,4271.794922,4223.974121,4221.025879,4456.794922,4454.615234,4402.051270,4494.102539,5230.000000,1.000000,16.000000,,,,0.000000,4.000000,4.000000,4.000000,4.000000,4.000000,4.000000,4.000000,4.000000,4.000000,4.000000,4.000000,4.000000,4.000000,4.000000,100.000000,,,,,,,,,,,,,,,,,2.000000,0.000000,0.459663,0.375000,-0.571045,0.567444,0.951776,-0.305701,0.069833,-38.009155,-30.529638,44.894173,,,,,,,,,,,,,,,,,,,,,,,,,,,,,,,,,,,,,,,,,,,,,,,,,,,,,,,,,,,,,,,,,,,,,,,,,,,,,,,,,,,,,,,,,,,,,,,,,,,,,
1739354830.123345,1739354830.123812,9.000000,0.000000,4264.358887,4234.743652,4299.743652,4235.384766,4230.769043,4244.102539,4213.846191,4265.512695,4216.410156,4208.077148,4445.128418,4446.282227,4391.922852,4488.077148,5561.000000,1.000000,16.000000,,,,0.000000,4.000000,4.000000,4.000000,4.000000,4.000000,4.000000,4.000000,4.000000,4.000000,4.000000,4.000000,4.000000,4.000000,4.000000,100.000000,,,,,,,,,,,,,,,,,,,,,,,,,,,,,,,,,,,,,,,,,,,,,,,,,,,,,,,,,,,,,,,,,,,,,,,,,,,,,,,,,,,,,,,,,,,,,,,,,,,,,,,,,,,,,,,,,,,,,,,,,,,,,,,,,
1739354830.131153,1739354830.131520,10.000000,0.000000,4245.897461,4229.743652,4289.871582,4227.692383,4226.922852,4244.358887,4209.102539,4263.205078,4209.615234,4194.230957,4435.897461,4430.000000,4380.512695,4473.974121,5015.000000,1.000000,16.000000,,,,0.000000,4.000000,4.000000,4.000000,4.000000,4.000000,4.000000,4.000000,4.000000,4.000000,4.000000,4.000000,4.000000,4.000000,4.000000,100.000000,1.000000,100.000000,4.000000,4.000000,4.000000,4.000000,4.000000,4.000000,4.000000,4.000000,4.000000,4.000000,4.000000,4.000000,4.000000,4.000000,,,,,,,,,,,,,,,,,,,,,,,,,,,,,,,,,,,,,,,,,,,,3.624754,3.169370,1.506734,0.308926,0.173871,3.359068,1.793628,1.255197,0.238699,0.129996,1.598990,2.320150,2.121504,0.370045,0.093392,1.475601,1.832843,1.374964,0.246797,0.115731,1.071077,0.543279,0.438683,0.148025,0.081657,0.939954,0.922459,0.213161,0.119085,0.040207,0.681143,1.793000,0.480543,0.170288,0.117011,0.368655,0.333938,0.713874,0.174606,0.071652,0.657891,0.796559,1.186317,0.203555,0.091871,1.516888,2.776727,1.144844,0.383713,0.285027,2.449889,2.471941,1.075242,0.374373,0.155864,2.113268,3.688072,2.081943,0.558296,0.100900,2.390155,3.301986,0.858800,0.373792,0.360366,6.437073,2.750061,1.187460,0.343731,0.193123
1739354830.138961,1739354830.139428,11.000000,0.000000,4248.717773,4229.615234,4297.051270,4228.205078,4228.974121,4247.307617,4213.846191,4268.589844,4212.692383,4197.179688,4438.717773,4434.230957,4385.384766,4478.205078,5487.000000,1.000000,16.000000,,,,0.000000,4.000000,4.000000,4.000000,4.000000,4.000000,4.000000,4.000000,4.000000,4.000000,4.000000,4.000000,4.000000,4.000000,4.000000,100.000000,,,,,,,,,,,,,,,,,,,,,,,,,,,,,,,,,,,,,,,,,,,,,,,,,,,,,,,,,,,,,,,,,,,,,,,,,,,,,,,,,,,,,,,,,,,,,,,,,,,,,,,,,,,,,,,,,,,,,,,,,,,,,,,,,
1739354830.146769,1739354830.147236,12.000000,0.000000,4264.102539,4239.487305,4309.102539,4241.538574,4238.205078,4256.025879,4225.256348,4273.333496,4221.025879,4201.794922,4447.179688,4447.563965,4392.692383,4492.820313,5564.000000,1.000000,16.000000,,,,0.000000,4.000000,4.000000,4.000000,4.000000,4.000000,4.000000,4.000000,4.000000,4.000000,4.000000,4.000000,4.000000,4.000000,4.000000,100.000000,,,,,,,,,,,,,,,,,3.000000,0.000000,0.459512,0.375183,-0.571228,0.567261,0.954218,-0.308143,0.062508,-37.924908,-30.576674,44.954754,,,,,,,,,,,,,,,,,,,,,,,,,,,,,,,,,,,,,,,,,,,,,,,,,,,,,,,,,,,,,,,,,,,,,,,,,,,,,,,,,,,,,,,,,,,,,,,,,,,,,
1739354830.154578,1739354830.155144,13.000000,0.000000,4267.563965,4249.230957,4313.974121,4250.128418,4248.205078,4265.128418,4232.436035,4277.563965,4232.692383,4211.538574,4462.692383,4458.077148,4396.410156,4498.461426,6551.000000,1.000000,16.000000,,,,0.000000,4.000000,4.000000,4.000000,4.000000,4.000000,4.000000,4.000000,4.000000,4.000000,4.000000,4.000000,4.000000,4.000000,4.000000,100.000000,,,,,,,,,,,,,,,,,,,,,,,,,,,,,,,,,,,,,,,,,,,,,,,,,,,,,,,,,,,,,,,,,,,,,,,,,,,,,,,,,,,,,,,,,,,,,,,,,,,,,,,,,,,,,,,,,,,,,,,,,,,,,,,,,
1739354830.162386,1739354830.162952,14.000000,0.000000,4261.025879,4246.282227,4310.128418,4244.743652,4249.358887,4264.615234,4228.717773,4278.333496,4232.051270,4213.589844,4462.179688,4454.487305,4388.333496,4491.538574,5015.000000,1.000000,16.000000,,,,0.000000,4.000000,4.000000,4.000000,4.000000,4.000000,4.000000,4.000000,4.000000,4.000000,4.000000,4.000000,4.000000,4.000000,4.000000,100.000000,,,,,,,,,,,,,,,,,,,,,,,,,,,,,,,,,,,,,,,,,,,,,,,,,,,,,,,,,,,,,,,,,,,,,,,,,,,,,,,,,,,,,,,,,,,,,,,,,,,,,,,,,,,,,,,,,,,,,,,,,,,,,,,,,
1739354830.170194,1739354830.170860,15.000000,0.000000,4265.512695,4244.871582,4314.358887,4248.717773,4249.102539,4269.358887,4234.615234,4277.948730,4232.436035,4213.461426,4456.410156,4455.128418,4387.692383,4495.256348,5487.000000,1.000000,16.000000,,,,0.000000,4.000000,4.000000,4.000000,4.000000,4.000000,4.000000,4.000000,4.000000,4.000000,4.000000,4.000000,4.000000,4.000000,4.000000,100.000000,,,,,,,,,,,,,,,,,,,,,,,,,,,,,,,,,,,,,,,,,,,,,,,,,,,,,,,,,,,,,,,,,,,,,,,,,,,,,,,,,,,,,,,,,,,,,,,,,,,,,,,,,,,,,,,,,,,,,,,,,,,,,,,,,
1739354830.178002,1739354830.178668,16.000000,0.000000,4280.128418,4256.025879,4328.589844,4268.333496,4257.820313,4281.153809,4250.000000,4281.282227,4249.743652,4225.897461,4468.974121,4470.000000,4400.641113,4511.410156,0.000000,1.000000,16.000000,,,,0.000000,4.000000,4.000000,4.000000,4.000000,4.000000,4.000000,4.000000,4.000000,4.000000,4.000000,4.000000,4.000000,4.000000,4.000000,100.000000,,,,,,,,,,,,,,,,,4.000000,0.000000,0.459484,0.374939,-0.571411,0.567261,0.939568,-0.300818,0.062508,-37.915749,-30.585672,44.909279,,,,,,,,,,,,,,,,,,,,,,,,,,,,,,,,,,,,,,,,,,,,,,,,,,,,,,,,,,,,,,,,,,,,,,,,,,,,,,,,,,,,,,,,,,,,,,,,,,,,,
1739354830.185810,1739354830.186576,17.000000,0.000000,4283.333496,4259.487305,4328.974121,4275.000000,4260.512695,4282.051270,4247.948730,4277.051270,4253.205078,4223.589844,4470.000000,4472.436035,4399.615234,4515.256348,0.000000,1.000000,16.000000,,,,0.000000,4.000000,4.000000,4.000000,4.000000,4.000000,4.000000,4.000000,4.000000,4.000000,4.000000,4.000000,4.000000,4.000000,4.000000,100.000000,,,,,,,,,,,,,,,,,,,,,,,,,,,,,,,,,,,,,,,,,,,,,,,,,,,,,,,,,,,,,,,,,,,,,,,,,,,,,,,,,,,,,,,,,,,,,,,,,,,,,,,,,,,,,,,,,,,,,,,,,,,,,,,,,
1739354830.193618,1739354830.194384,18.000000,0.000000,4280.769043,4256.153809,4321.538574,4273.846191,4259.358887,4285.897461,4247.307617,4268.461426,4241.794922,4212.051270,4459.358887,4466.666504,4388.974121,4508.717773,0.000000,1.000000,16.000000,,,,0.000000,4.000000,4.000000,4.000000,4.000000,4.000000,4.000000,4.000000,4.000000,4.000000,4.000000,4.000000,4.000000,4.000000,4.000000,100.000000,,,,,,,,,,,,,,,,,,,,,,,,,,,,,,,,,,,,,,,,,,,,,,,,,,,,,,,,,,,,,,,,,,,,,,,,,,,,,,,,,,,,,,,,,,,,,,,,,,,,,,,,,,,,,,,,,,,,,,,,,,,,,,,,,
1739354830.201426,1739354830.202292,19.000000,0.000000,4295.512695,4267.563965,4331.922852,4288.589844,4273.846191,4304.358887,4271.410156,4277.820313,4255.512695,4229.487305,4473.717773,4481.666504,4401.410156,4516.153809,0.000000,1.000000,16.000000,,,,0.000000,4.000000,4.000000,4.000000,4.000000,4.000000,4.000000,4.000000,4.000000,4.000000,4.000000,4.000000,4.000000,4.000000,4.000000,100.000000,,,,,,,,,,,,,,,,,,,,,,,,,,,,,,,,,,,,,,,,,,,,,,,,,,,,,,,,,,,,,,,,,,,,,,,,,,,,,,,,,,,,,,,,,,,,,,,,,,,,,,,,,,,,,,,,,,,,,,,,,,,,,,,,,
1739354830.209234,1739354830.210100,20.000000,0.000000,4316.666504,4290.256348,4352.307617,4306.025879,4292.692383,4312.051270,4285.641113,4289.871582,4278.717773,4249.230957,4493.589844,4501.538574,4423.333496,4533.589844,0.000000,1.000000,16.000000,,,,0.000000,4.000000,4.000000,4.000000,4.000000,4.000000,4.000000,4.000000,4.000000,4.000000,4.000000,4.000000,4.000000,4.000000,4.000000,100.000000,,,,,,,,,,,,,,,,,5.000000,0.000000,0.458589,0.374268,-0.572327,0.567505,0.965450,-0.317910,0.060066,-38.040840,-30.643772,44.918350,,,,,,,,,,,,,,,,,,,,,,,,,,,,,,,,,,,,,,,,,,,,,,,,,,,,,,,,,,,,,,,,,,,,,,,,,,,,,,,,,,,,,,,,,,,,,,,,,,,,,
1739354830.217042,1739354830.217808,21.000000,0.000000,4327.563965,4306.282227,4358.461426,4320.641113,4299.487305,4312.051270,4282.948730,4286.153809,4282.051270,4252.179688,4497.692383,4506.666504,4430.769043,4541.666504,0.000000,1.000000,16.000000,,,,0.000000,4.000000,4.000000,4.000000,4.000000,4.000000,4.000000,4.000000,4.000000,4.000000,4.000000,4.000000,4.000000,4.000000,4.000000,100.000000,,,,,,,,,,,,,,,,,,,,,,,,,,,,,,,,,,,,,,,,,,,,,,,,,,,,,,,,,,,,,,,,,,,,,,,,,,,,,,,,,,,,,,,,,,,,,,,,,,,,,,,,,,,,,,,,,,,,,,,,,,,,,,,,,
1739354830.224850,1739354830.225616,22.000000,0.000000,4337.692383,4314.743652,4352.307617,4337.820313,4299.871582,4320.769043,4286.666504,4285.641113,4282.563965,4261.666504,4510.256348,4513.205078,4434.871582,4547.820313,0.000000,1.000000,16.000000,,,,0.000000,4.000000,4.000000,4.000000,4.000000,4.000000,4.000000,4.000000,4.000000,4.000000,4.000000,4.000000,4.000000,4.000000,4.000000,100.000000,,,,,,,,,,,,,,,,,,,,,,,,,,,,,,,,,,,,,,,,,,,,,,,,,,,,,,,,,,,,,,,,,,,,,,,,,,,,,,,,,,,,,,,,,,,,,,,,,,,,,,,,,,,,,,,,,,,,,,,,,,,,,,,,,
1739354830.232658,1739354830.233324,23.000000,0.000000,4354.743652,4328.205078,4351.538574,4354.230957,4305.769043,4325.769043,4291.153809,4288.589844,4283.974121,4264.487305,4522.051270,4522.948730,4436.794922,4556.922852,0.000000,1.000000,16.000000,,,,0.000000,4.000000,4.000000,4.000000,4.000000,4.000000,4.000000,4.000000,4.000000,4.000000,4.000000,4.000000,4.000000,4.000000,4.000000,100.000000,,,,,,,,,,,,,,,,,,,,,,,,,,,,,,,,,,,,,,,,,,,,,,,,,,,,,,,,,,,,,,,,,,,,,,,,,,,,,,,,,,,,,,,,,,,,,,,,,,,,,,,,,,,,,,,,,,,,,,,,,,,,,,,,,
1739354830.240466,1739354830.241132,24.000000,0.000000,4365.769043,4340.641113,4358.077148,4368.333496,4316.922852,4328.974121,4295.384766,4285.641113,4279.615234,4253.589844,4517.307617,4525.000000,4435.769043,4561.282227,0.000000,1.000000,16.000000,,,,0.000000,4.000000,4.000000,4.000000,4.000000,4.000000,4.000000,4.000000,4.000000,4.000000,4.000000,4.000000,4.000000,4.000000,4.000000,100.000000,,,,,,,,,,,,,,,,,6.000000,0.000000,0.458381,0.374146,-0.572815,0.567261,0.946893,-0.300330,0.052252,-38.186756,-30.562729,44.843182,,,,,,,,,,,,,,,,,,,,,,,,,,,,,,,,,,,,,,,,,,,,,,,,,,,,,,,,,,,,,,,,,,,,,,,,,,,,,,,,,,,,,,,,,,,,,,,,,,,,,
1739354830.248274,1739354830.248840,25.000000,0.000000,4368.077148,4346.410156,4361.153809,4383.846191,4327.307617,4347.563965,4308.846191,4287.948730,4287.436035,4261.794922,4523.846191,4526.538574,4442.820313,4564.615234,0.000000,1.000000,16.000000,,,,0.000000,4.000000,4.000000,4.000000,4.000000,4.000000,4.000000,4.000000,4.000000,4.000000,4.000000,4.000000,4.000000,4.000000,4.000000,100.000000,,,,,,,,,,,,,,,,,,,,,,,,,,,,,,,,,,,,,,,,,,,,,,,,,,,,,,,,,,,,,,,,,,,,,,,,,,,,,,,,,,,,,,,,,,,,,,,,,,,,,,,,,,,,,,,,,,,,,,,,,,,,,,,,,
1739354830.256083,1739354830.256648,26.000000,0.000000,4367.692383,4348.205078,4355.000000,4388.205078,4327.563965,4358.205078,4312.820313,4295.384766,4303.717773,4276.410156,4535.512695,4523.846191,4444.615234,4567.820313,0.000000,1.000000,16.000000,,,,0.000000,4.000000,4.000000,4.000000,4.000000,4.000000,4.000000,4.000000,4.000000,4.000000,4.000000,4.000000,4.000000,4.000000,4.000000,100.000000,,,,,,,,,,,,,,,,,,,,,,,,,,,,,,,,,,,,,,,,,,,,,,,,,,,,,,,,,,,,4.202485,3.895056,1.390931,0.328052,0.201372,4.039780,2.436771,1.203453,0.233455,0.143596,1.722375,2.499444,1.912609,0.383770,0.099563,1.720576,2.065387,1.241702,0.242345,0.129140,1.049879,0.443238,0.387281,0.139520,0.084321,1.062504,0.869441,0.182417,0.121629,0.038106,0.772312,1.854036,0.467524,0.168968,0.128015,0.509058,0.455695,0.989666,0.210097,0.084918,0.648319,0.722323,1.249527,0.219119,0.113117,1.523094,2.611772,0.970333,0.392835,0.322882,2.708623,2.672488,1.037735,0.367035,0.190170,2.535274,3.896975,1.971002,0.561640,0.116676,2.527805,3.583702,0.854132,0.409749,0.412050,7.379013,3.424650,1.105324,0.356787,0.231203
1739354830.263891,1739354830.264356,27.000000,0.000000,4368.717773,4347.820313,4354.230957,4383.077148,4323.077148,4347.692383,4307.307617,4301.025879,4308.974121,4277.051270,4535.384766,4517.436035,4444.230957,4573.077148,0.000000,1.000000,16.000000,,,,0.000000,4.000000,4.000000,4.000000,4.000000,4.000000,4.000000,4.000000,4.000000,4.000000,4.000000,4.000000,4.000000,4.000000,4.000000,100.000000,,,,,,,,,,,,,,,,,,,,,,,,,,,,,,,,,,,,,,,,,,,,,,,,,,,,,,,,,,,,,,,,,,,,,,,,,,,,,,,,,,,,,,,,,,,,,,,,,,,,,,,,,,,,,,,,,,,,,,,,,,,,,,,,,
1739354830.271699,1739354830.272264,28.000000,0.000000,4382.307617,4355.000000,4370.128418,4396.666504,4329.743652,4351.153809,4317.563965,4303.974121,4320.256348,4292.051270,4547.820313,4526.538574,4465.384766,4588.589844,0.000000,1.000000,16.000000,,,,0.000000,4.000000,4.000000,4.000000,4.000000,4.000000,4.000000,4.000000,4.000000,4.000000,4.000000,4.000000,4.000000,4.000000,4.000000,100.000000,,,,,,,,,,,,,,,,,7.000000,0.000000,0.458403,0.374023,-0.572998,0.567139,0.946405,-0.314003,0.047857,-38.218082,-30.556456,44.958866,,,,,,,,,,,,,,,,,,,,,,,,,,,,,,,,,,,,,,,,,,,,,,,,,,,,,,,,,,,,,,,,,,,,,,,,,,,,,,,,,,,,,,,,,,,,,,,,,,,,,
1739354830.279507,1739354830.280072,29.000000,0.000000,4396.282227,4361.538574,4381.153809,4411.794922,4336.153809,4364.615234,4328.717773,4305.384766,4332.948730,4313.589844,4563.205078,4540.641113,4482.948730,4598.974121,0.000000,1.000000,16.000000,,,,0.000000,4.000000,4.000000,4.000000,4.000000,4.000000,4.000000,4.000000,4.000000,4.000000,4.000000,4.000000,4.000000,4.000000,4.000000,100.000000,,,,,,,,,,,,,,,,,,,,,,,,,,,,,,,,,,,,,,,,,,,,,,,,,,,,,,,,,,,,,,,,,,,,,,,,,,,,,,,,,,,,,,,,,,,,,,,,,,,,,,,,,,,,,,,,,,,,,,,,,,,,,,,,,
1739354830.287315,1739354830.287880,30.000000,0.000000,4398.974121,4360.000000,4384.615234,4410.641113,4334.871582,4363.077148,4327.948730,4305.512695,4331.410156,4311.153809,4561.666504,4542.307617,4475.641113,4597.436035,0.000000,1.000000,16.000000,,,,0.000000,4.000000,4.000000,4.000000,4.000000,4.000000,4.000000,4.000000,4.000000,4.000000,4.000000,4.000000,4.000000,4.000000,4.000000,100.000000,,,,,,,,,,,,,,,,,,,,,,,,,,,,,,,,,,,,,,,,,,,,,,,,,,,,,,,,,,,,,,,,,,,,,,,,,,,,,,,,,,,,,,,,,,,,,,,,,,,,,,,,,,,,,,,,,,,,,,,,,,,,,,,,,
1739354830.295123,1739354830.295589,31.000000,0.000000,4401.025879,4362.307617,4395.128418,4415.897461,4335.512695,4357.563965,4327.820313,4306.538574,4327.948730,4300.769043,4561.282227,4544.358887,4477.563965,4602.307617,0.000000,1.000000,16.000000,,,,0.000000,4.000000,4.000000,4.000000,4.000000,4.000000,4.000000,4.000000,4.000000,4.000000,4.000000,4.000000,4.000000,4.000000,4.000000,100.000000,,,,,,,,,,,,,,,,,,,,,,,,,,,,,,,,,,,,,,,,,,,,,,,,,,,,,,,,,,,,,,,,,,,,,,,,,,,,,,,,,,,,,,,,,,,,,,,,,,,,,,,,,,,,,,,,,,,,,,,,,,,,,,,,,
1739354830.302931,1739354830.303397,32.000000,0.000000,4400.384766,4365.128418,4396.410156,4420.512695,4332.692383,4357.948730,4326.153809,4304.230957,4322.307617,4295.641113,4560.897461,4546.153809,4485.256348,4605.256348,0.000000,1.000000,16.000000,,,,0.000000,4.000000,4.000000,4.000000,4.000000,4.000000,4.000000,4.000000,4.000000,4.000000,4.000000,4.000000,4.000000,4.000000,4.000000,100.000000,,,,,,,,,,,,,,,,,8.000000,0.000000,0.458707,0.374023,-0.572815,0.567078,0.960566,-0.306190,0.051764,-38.196274,-30.600811,44.846313,,,,,,,,,,,,,,,,,,,,,,,,,,,,,,,,,,,,,,,,,,,,,,,,,,,,,,,,,,,,,,,,,,,,,,,,,,,,,,,,,,,,,,,,,,,,,,,,,,,,,
1739354830.310739,1739354830.311105,33.000000,0.000000,4395.512695,4361.666504,4386.794922,4411.153809,4326.922852,4357.436035,4322.948730,4297.820313,4309.358887,4285.256348,4550.512695,4534.871582,4478.205078,4596.025879,0.000000,1.000000,16.000000,,,,0.000000,4.000000,4.000000,4.000000,4.000000,4.000000,4.000000,4.000000,4.000000,4.000000,4.000000,4.000000,4.000000,4.000000,4.000000,100.000000,,,,,,,,,,,,,,,,,,,,,,,,,,,,,,,,,,,,,,,,,,,,,,,,,,,,,,,,,,,,,,,,,,,,,,,,,,,,,,,,,,,,,,,,,,,,,,,,,,,,,,,,,,,,,,,,,,,,,,,,,,,,,,,,,
1739354830.318547,1739354830.319013,34.000000,0.000000,4398.077148,4362.436035,4392.051270,4407.820313,4329.358887,4356.794922,4324.487305,4297.179688,4302.692383,4276.025879,4548.974121,4528.205078,4476.794922,4593.846191,0.000000,1.000000,16.000000,,,,0.000000,4.000000,4.000000,4.000000,4.000000,4.000000,4.000000,4.000000,4.000000,4.000000,4.000000,4.000000,4.000000,4.000000,4.000000,100.000000,,,,,,,,,,,,,,,,,,,,,,,,,,,,,,,,,,,,,,,,,,,,,,,,,,,,,,,,,,,,,,,,,,,,,,,,,,,,,,,,,,,,,,,,,,,,,,,,,,,,,,,,,,,,,,,,,,,,,,,,,,,,,,,,,
1739354830.326355,1739354830.326821,35.000000,0.000000,4402.692383,4366.025879,4400.769043,4415.769043,4332.436035,4359.102539,4323.974121,4302.051270,4308.846191,4279.487305,4554.615234,4532.179688,4477.948730,4598.717773,0.000000,1.000000,16.000000,,,,0.000000,4.000000,4.000000,4.000000,4.000000,4.000000,4.000000,4.000000,4.000000,4.000000,4.000000,4.000000,4.000000,4.000000,4.000000,100.000000,,,,,,,,,,,,,,,,,,,,,,,,,,,,,,,,,,,,,,,,,,,,,,,,,,,,,,,,,,,,,,,,,,,,,,,,,,,,,,,,,,,,,,,,,,,,,,,,,,,,,,,,,,,,,,,,,,,,,,,,,,,,,,,,,
1739354830.334163,1739354830.334729,36.000000,0.000000,4394.871582,4358.974121,4389.743652,4411.153809,4326.666504,4357.179688,4318.846191,4302.563965,4311.153809,4277.563965,4547.948730,4522.307617,4464.230957,4593.974121,0.000000,1.000000,16.000000,,,,0.000000,4.000000,4.000000,4.000000,4.000000,4.000000,4.000000,4.000000,4.000000,4.000000,4.000000,4.000000,4.000000,4.000000,4.000000,100.000000,,,,,,,,,,,,,,,,,9.000000,0.000000,0.458716,0.374390,-0.572327,0.567322,0.949335,-0.290074,0.084971,-38.259979,-30.590729,44.745014,,,,,,,,,,,,,,,,,,,,,,,,,,,,,,,,,,,,,,,,,,,,,,,,,,,,,,,,,,,,,,,,,,,,,,,,,,,,,,,,,,,,,,,,,,,,,,,,,,,,,
1739354830.341972,1739354830.342537,37.000000,0.000000,4387.307617,4351.794922,4381.282227,4401.666504,4320.641113,4353.333496,4316.922852,4301.025879,4310.000000,4271.794922,4539.743652,4507.563965,4463.205078,4587.436035,0.000000,1.000000,16.000000,,,,0.000000,4.000000,4.000000,4.000000,4.000000,4.000000,4.000000,4.000000,4.000000,4.000000,4.000000,4.000000,4.000000,4.000000,4.000000,100.000000,,,,,,,,,,,,,,,,,,,,,,,,,,,,,,,,,,,,,,,,,,,,,,,,,,,,,,,,,,,,,,,,,,,,,,,,,,,,,,,,,,,,,,,,,,,,,,,,,,,,,,,,,,,,,,,,,,,,,,,,,,,,,,,,,
1739354830.349779,1739354830.350445,38.000000,0.000000,4381.025879,4348.333496,4382.051270,4393.974121,4318.333496,4350.769043,4317.179688,4305.512695,4314.358887,4275.512695,4533.717773,4505.000000,4471.666504,4583.333496,0.000000,1.000000,16.000000,,,,0.000000,4.000000,4.000000,4.000000,4.000000,4.000000,4.000000,4.000000,4.000000,4.000000,4.000000,4.000000,4.000000,4.000000,4.000000,100.000000,,,,,,,,,,,,,,,,,,,,,,,,,,,,,,,,,,,,,,,,,,,,,,,,,,,,,,,,,,,,,,,,,,,,,,,,,,,,,,,,,,,,,,,,,,,,,,,,,,,,,,,,,,,,,,,,,,,,,,,,,,,,,,,,,
1739354830.357588,1739354830.358253,39.000000,0.000000,4373.205078,4342.692383,4379.102539,4387.436035,4318.589844,4351.666504,4320.256348,4312.051270,4322.436035,4279.743652,4527.307617,4506.922852,4467.820313,4579.102539,0.000000,1.000000,16.000000,,,,0.000000,4.000000,4.000000,4.000000,4.000000,4.000000,4.000000,4.000000,4.000000,4.000000,4.000000,4.000000,4.000000,4.000000,4.000000,100.000000,,,,,,,,,,,,,,,,,,,,,,,,,,,,,,,,,,,,,,,,,,,,,,,,,,,,,,,,,,,,,,,,,,,,,,,,,,,,,,,,,,,,,,,,,,,,,,,,,,,,,,,,,,,,,,,,,,,,,,,,,,,,,,,,,
1739354830.365396,1739354830.366161,40.000000,0.000000,4378.461426,4344.615234,4384.102539,4391.794922,4319.102539,4353.589844,4325.641113,4313.461426,4330.128418,4281.410156,4528.717773,4507.948730,4463.846191,4580.256348,0.000000,1.000000,16.000000,,,,0.000000,4.000000,4.000000,4.000000,4.000000,4.000000,4.000000,4.000000,4.000000,4.000000,4.000000,4.000000,4.000000,4.000000,4.000000,100.000000,,,,,,,,,,,,,,,,,10.000000,0.000000,0.458625,0.374878,-0.571716,0.567688,0.962520,-0.300330,0.060066,-38.150650,-30.531656,44.653847,,,,,,,,,,,,,,,,,,,,,,,,,,,,,,,,,,,,,,,,,,,,,,,,,,,,,,,,,,,,,,,,,,,,,,,,,,,,,,,,,,,,,,,,,,,,,,,,,,,,,
1739354830.373204,1739354830.373969,41.000000,0.000000,4382.948730,4346.282227,4390.384766,4393.589844,4316.025879,4350.897461,4323.333496,4314.358887,4329.230957,4285.000000,4526.025879,4508.333496,4465.384766,4583.205078,0.000000,1.000000,16.000000,,,,0.000000,4.000000,4.000000,4.000000,4.000000,4.000000,4.000000,4.000000,4.000000,4.000000,4.000000,4.000000,4.000000,4.000000,4.000000,100.000000,,,,,,,,,,,,,,,,,,,,,,,,,,,,,,,,,,,,,,,,,,,,,,,,,,,,,,,,,,,,,,,,,,,,,,,,,,,,,,,,,,,,,,,,,,,,,,,,,,,,,,,,,,,,,,,,,,,,,,,,,,,,,,,,,
1739354830.381012,1739354830.381877,42.000000,0.000000,4371.025879,4337.563965,4382.563965,4382.051270,4309.230957,4344.487305,4313.846191,4311.666504,4320.128418,4277.436035,4517.307617,4499.358887,4462.563965,4575.897461,0.000000,1.000000,16.000000,,,,0.000000,4.000000,4.000000,4.000000,4.000000,4.000000,4.000000,4.000000,4.000000,4.000000,4.000000,4.000000,4.000000,4.000000,4.000000,100.000000,,,,,,,,,,,,,,,,,,,,,,,,,,,,,,,,,,,,,,,,,,,,,,,,,,,,,,,,,,,,5.024510,4.541135,1.141223,0.328220,0.229295,4.882974,3.071781,1.083238,0.214998,0.155540,1.999254,2.510690,1.567614,0.378280,0.114541,2.239108,2.182584,0.989330,0.228581,0.144668,1.121298,0.422773,0.327183,0.124853,0.086418,1.307570,0.892191,0.163421,0.114594,0.038761,1.044849,1.920119,0.476862,0.164174,0.132772,0.652922,0.567314,1.195022,0.231824,0.094899,0.725895,0.625861,1.235001,0.213548,0.136231,1.502617,2.282259,0.798141,0.368478,0.352967,3.139430,2.672669,0.942864,0.332701,0.223891,3.127004,3.742406,1.703619,0.518876,0.142000,2.616208,3.643715,0.844216,0.430184,0.461433,8.008727,4.024171,0.942933,0.358006,0.266994
1739354830.388820,1739354830.389685,43.000000,0.000000,4357.692383,4323.589844,4371.922852,4364.871582,4301.282227,4333.974121,4303.333496,4303.205078,4306.538574,4258.077148,4517.307617,4480.512695,4451.410156,4555.897461,0.000000,1.000000,16.000000,,,,0.000000,4.000000,4.000000,4.000000,4.000000,4.000000,4.000000,4.000000,4.000000,4.000000,4.000000,4.000000,4.000000,4.000000,4.000000,100.000000,,,,,,,,,,,,,,,,,,,,,,,,,,,,,,,,,,,,,,,,,,,,,,,,,,,,,,,,,,,,,,,,,,,,,,,,,,,,,,,,,,,,,,,,,,,,,,,,,,,,,,,,,,,,,,,,,,,,,,,,,,,,,,,,,
1739354830.396628,1739354830.397393,44.000000,0.000000,4345.897461,4311.922852,4363.461426,4349.230957,4290.897461,4327.948730,4291.666504,4297.820313,4292.051270,4245.000000,4514.358887,4461.538574,4435.512695,4536.025879,0.000000,1.000000,16.000000,,,,0.000000,4.000000,4.000000,4.000000,4.000000,4.000000,4.000000,4.000000,4.000000,4.000000,4.000000,4.000000,4.000000,4.000000,4.000000,100.000000,,,,,,,,,,,,,,,,,11.000000,0.000000,0.458302,0.375183,-0.571472,0.567993,0.945916,-0.315468,0.062996,-38.135582,-30.578491,44.655128,,,,,,,,,,,,,,,,,,,,,,,,,,,,,,,,,,,,,,,,,,,,,,,,,,,,,,,,,,,,,,,,,,,,,,,,,,,,,,,,,,,,,,,,,,,,,,,,,,,,,
1739354830.404436,1739354830.405201,45.000000,0.000000,4331.666504,4304.615234,4350.641113,4341.410156,4283.717773,4324.102539,4282.692383,4294.358887,4277.948730,4234.871582,4497.307617,4446.153809,4425.897461,4528.717773,0.000000,1.000000,16.000000,,,,0.000000,4.000000,4.000000,4.000000,4.000000,4.000000,4.000000,4.000000,4.000000,4.000000,4.000000,4.000000,4.000000,4.000000,4.000000,100.000000,,,,,,,,,,,,,,,,,,,,,,,,,,,,,,,,,,,,,,,,,,,,,,,,,,,,,,,,,,,,,,,,,,,,,,,,,,,,,,,,,,,,,,,,,,,,,,,,,,,,,,,,,,,,,,,,,,,,,,,,,,,,,,,,,
1739354830.412244,1739354830.412909,46.000000,0.000000,4320.641113,4298.846191,4340.384766,4337.692383,4277.563965,4315.256348,4274.743652,4287.436035,4266.922852,4217.820313,4488.974121,4435.128418,4423.205078,4526.153809,0.000000,1.000000,16.000000,,,,0.000000,4.000000,4.000000,4.000000,4.000000,4.000000,4.000000,4.000000,4.000000,4.000000,4.000000,4.000000,4.000000,4.000000,4.000000,100.000000,,,,,,,,,,,,,,,,,,,,,,,,,,,,,,,,,,,,,,,,,,,,,,,,,,,,,,,,,,,,,,,,,,,,,,,,,,,,,,,,,,,,,,,,,,,,,,,,,,,,,,,,,,,,,,,,,,,,,,,,,,,,,,,,,
1739354830.420052,1739354830.420717,47.000000,0.000000,4314.615234,4289.615234,4336.153809,4326.025879,4268.974121,4307.307617,4267.179688,4283.974121,4258.333496,4205.512695,4494.230957,4424.615234,4413.717773,4520.128418,0.000000,1.000000,16.000000,,,,0.000000,4.000000,4.000000,4.000000,4.000000,4.000000,4.000000,4.000000,4.000000,4.000000,4.000000,4.000000,4.000000,4.000000,4.000000,100.000000,,,,,,,,,,,,,,,,,,,,,,,,,,,,,,,,,,,,,,,,,,,,,,,,,,,,,,,,,,,,,,,,,,,,,,,,,,,,,,,,,,,,,,,,,,,,,,,,,,,,,,,,,,,,,,,,,,,,,,,,,,,,,,,,,
1739354830.427860,1739354830.428425,48.000000,0.000000,4308.974121,4281.538574,4328.205078,4314.230957,4259.743652,4301.410156,4263.589844,4283.333496,4246.794922,4197.179688,4488.461426,4412.179688,4398.717773,4511.282227,0.000000,1.000000,16.000000,,,,0.000000,4.000000,4.000000,4.000000,4.000000,4.000000,4.000000,4.000000,4.000000,4.000000,4.000000,4.000000,4.000000,4.000000,4.000000,100.000000,,,,,,,,,,,,,,,,,12.000000,0.000000,0.458124,0.374939,-0.571472,0.568298,0.960566,-0.305701,0.058601,-38.055359,-30.503975,44.689613,,,,,,,,,,,,,,,,,,,,,,,,,,,,,,,,,,,,,,,,,,,,,,,,,,,,,,,,,,,,,,,,,,,,,,,,,,,,,,,,,,,,,,,,,,,,,,,,,,,,,
1739354830.435668,1739354830.436233,49.000000,0.000000,4302.179688,4274.102539,4324.358887,4309.871582,4252.436035,4294.871582,4261.410156,4281.794922,4240.769043,4187.179688,4477.307617,4405.128418,4391.538574,4502.820313,0.000000,1.000000,16.000000,,,,0.000000,4.000000,4.000000,4.000000,4.000000,4.000000,4.000000,4.000000,4.000000,4.000000,4.000000,4.000000,4.000000,4.000000,4.000000,100.000000,,,,,,,,,,,,,,,,,,,,,,,,,,,,,,,,,,,,,,,,,,,,,,,,,,,,,,,,,,,,,,,,,,,,,,,,,,,,,,,,,,,,,,,,,,,,,,,,,,,,,,,,,,,,,,,,,,,,,,,,,,,,,,,,,
1739354830.443477,1739354830.443941,50.000000,0.000000,4296.153809,4265.769043,4327.948730,4301.794922,4251.922852,4294.230957,4256.794922,4282.436035,4243.333496,4184.102539,4476.666504,4405.256348,4387.692383,4495.641113,0.000000,1.000000,16.000000,,,,0.000000,4.000000,4.000000,4.000000,4.000000,4.000000,4.000000,4.000000,4.000000,4.000000,4.000000,4.000000,4.000000,4.000000,4.000000,100.000000,,,,,,,,,,,,,,,,,,,,,,,,,,,,,,,,,,,,,,,,,,,,,,,,,,,,,,,,,,,,,,,,,,,,,,,,,,,,,,,,,,,,,,,,,,,,,,,,,,,,,,,,,,,,,,,,,,,,,,,,,,,,,,,,,
1739354830.451285,1739354830.451849,51.000000,0.000000,4290.897461,4260.000000,4323.205078,4291.538574,4248.846191,4294.871582,4252.692383,4284.102539,4239.871582,4187.948730,4474.230957,4398.846191,4380.256348,4489.615234,0.000000,1.000000,16.000000,,,,0.000000,4.000000,4.000000,4.000000,4.000000,4.000000,4.000000,4.000000,4.000000,4.000000,4.000000,4.000000,4.000000,4.000000,4.000000,100.000000,,,,,,,,,,,,,,,,,,,,,,,,,,,,,,,,,,,,,,,,,,,,,,,,,,,,,,,,,,,,,,,,,,,,,,,,,,,,,,,,,,,,,,,,,,,,,,,,,,,,,,,,,,,,,,,,,,,,,,,,,,,,,,,,,
1739354830.459093,1739354830.459657,52.000000,0.000000,4280.256348,4254.358887,4310.128418,4282.051270,4239.871582,4287.051270,4245.897461,4283.077148,4230.128418,4182.692383,4465.641113,4387.820313,4371.794922,4482.820313,0.000000,1.000000,16.000000,,,,0.000000,4.000000,4.000000,4.000000,4.000000,4.000000,4.000000,4.000000,4.000000,4.000000,4.000000,4.000000,4.000000,4.000000,4.000000,100.000000,,,,,,,,,,,,,,,,,13.000000,0.000000,0.457740,0.374573,-0.571716,0.568604,0.951288,-0.299353,0.063973,-38.049824,-30.370243,44.653988,,,,,,,,,,,,,,,,,,,,,,,,,,,,,,,,,,,,,,,,,,,,,,,,,,,,,,,,,,,,,,,,,,,,,,,,,,,,,,,,,,,,,,,,,,,,,,,,,,,,,
1739354830.466901,1739354830.467565,53.000000,0.000000,4265.512695,4246.538574,4300.512695,4270.641113,4230.641113,4276.025879,4236.922852,4277.948730,4227.820313,4170.769043,4462.307617,4379.871582,4370.000000,4472.820313,0.000000,1.000000,16.000000,,,,0.000000,4.000000,4.000000,4.000000,4.000000,4.000000,4.000000,4.000000,4.000000,4.000000,4.000000,4.000000,4.000000,4.000000,4.000000,100.000000,,,,,,,,,,,,,,,,,,,,,,,,,,,,,,,,,,,,,,,,,,,,,,,,,,,,,,,,,,,,,,,,,,,,,,,,,,,,,,,,,,,,,,,,,,,,,,,,,,,,,,,,,,,,,,,,,,,,,,,,,,,,,,,,,
1739354830.474709,1739354830.475374,54.000000,0.000000,4262.563965,4245.128418,4295.256348,4267.563965,4220.256348,4266.025879,4228.461426,4272.563965,4228.589844,4173.333496,4464.871582,4373.333496,4377.692383,4462.436035,0.000000,1.000000,16.000000,,,,0.000000,4.000000,4.000000,4.000000,4.000000,4.000000,4.000000,4.000000,4.000000,4.000000,4.000000,4.000000,4.000000,4.000000,4.000000,100.000000,,,,,,,,,,,,,,,,,,,,,,,,,,,,,,,,,,,,,,,,,,,,,,,,,,,,,,,,,,,,,,,,,,,,,,,,,,,,,,,,,,,,,,,,,,,,,,,,,,,,,,,,,,,,,,,,,,,,,,,,,,,,,,,,,
1739354830.482517,1739354830.483282,55.000000,0.000000,4260.512695,4245.000000,4288.846191,4273.589844,4213.589844,4261.538574,4220.384766,4273.077148,4222.820313,4183.333496,4460.769043,4364.743652,4382.051270,4455.000000,0.000000,1.000000,16.000000,,,,0.000000,4.000000,4.000000,4.000000,4.000000,4.000000,4.000000,4.000000,4.000000,4.000000,4.000000,4.000000,4.000000,4.000000,4.000000,100.000000,,,,,,,,,,,,,,,,,,,,,,,,,,,,,,,,,,,,,,,,,,,,,,,,,,,,,,,,,,,,,,,,,,,,,,,,,,,,,,,,,,,,,,,,,,,,,,,,,,,,,,,,,,,,,,,,,,,,,,,,,,,,,,,,,
1739354830.490325,1739354830.491090,56.000000,0.000000,4248.589844,4238.205078,4290.128418,4281.922852,4215.512695,4265.512695,4215.897461,4273.205078,4219.230957,4184.102539,4457.563965,4357.692383,4377.307617,4452.179688,0.000000,1.000000,16.000000,,,,0.000000,4.000000,4.000000,4.000000,4.000000,4.000000,4.000000,4.000000,4.000000,4.000000,4.000000,4.000000,4.000000,4.000000,4.000000,100.000000,,,,,,,,,,,,,,,,,14.000000,0.000000,0.457310,0.374634,-0.571777,0.568848,0.942498,-0.299841,0.071786,-37.978172,-30.283220,44.555256,,,,,,,,,,,,,,,,,,,,,,,,,,,,,,,,,,,,,,,,,,,,,,,,,,,,,,,,,,,,,,,,,,,,,,,,,,,,,,,,,,,,,,,,,,,,,,,,,,,,,
1739354830.498133,1739354830.498898,57.000000,0.000000,4241.538574,4234.487305,4294.871582,4290.128418,4217.307617,4265.769043,4217.051270,4269.358887,4220.000000,4183.846191,4461.025879,4354.230957,4372.307617,4448.205078,0.000000,1.000000,16.000000,,,,0.000000,4.000000,4.000000,4.000000,4.000000,4.000000,4.000000,4.000000,4.000000,4.000000,4.000000,4.000000,4.000000,4.000000,4.000000,100.000000,,,,,,,,,,,,,,,,,,,,,,,,,,,,,,,,,,,,,,,,,,,,,,,,,,,,,,,,,,,,,,,,,,,,,,,,,,,,,,,,,,,,,,,,,,,,,,,,,,,,,,,,,,,,,,,,,,,,,,,,,,,,,,,,,
1739354830.505941,1739354830.506606,58.000000,0.000000,4236.538574,4230.641113,4286.794922,4289.487305,4210.897461,4260.512695,4216.922852,4269.102539,4218.589844,4182.436035,4456.666504,4348.974121,4369.615234,4437.436035,0.000000,1.000000,16.000000,,,,0.000000,4.000000,4.000000,4.000000,4.000000,4.000000,4.000000,4.000000,4.000000,4.000000,4.000000,4.000000,4.000000,4.000000,4.000000,100.000000,,,,,,,,,,,,,,,,,,,,,,,,,,,,,,,,,,,,,,,,,,,,,,,,,,,,,,,,,,,,5.919837,4.961225,0.872827,0.320176,0.256428,5.698160,3.564946,0.971721,0.193565,0.167431,2.335016,2.370573,1.229828,0.368566,0.138297,3.342764,2.192650,0.716431,0.214669,0.161952,1.312645,0.453458,0.271514,0.111082,0.089918,1.712277,0.949031,0.151072,0.102656,0.043985,1.514122,1.923168,0.504512,0.162806,0.135617,0.796403,0.629940,1.261081,0.231721,0.098794,0.919022,0.565753,1.152479,0.194096,0.158134,1.626161,1.933120,0.697510,0.328943,0.371926,3.771110,2.535171,0.839043,0.287774,0.255526,3.862402,3.315912,1.419243,0.461034,0.177935,2.692795,3.486902,0.848552,0.430760,0.494070,8.124954,4.458758,0.774686,0.351012,0.295931
1739354830.513749,1739354830.514514,59.000000,0.000000,4227.820313,4218.077148,4277.307617,4279.871582,4206.410156,4259.102539,4212.307617,4270.384766,4213.205078,4171.922852,4447.051270,4342.563965,4365.897461,4428.077148,0.000000,1.000000,16.000000,,,,0.000000,4.000000,4.000000,4.000000,4.000000,4.000000,4.000000,4.000000,4.000000,4.000000,4.000000,4.000000,4.000000,4.000000,4.000000,100.000000,,,,,,,,,,,,,,,,,,,,,,,,,,,,,,,,,,,,,,,,,,,,,,,,,,,,,,,,,,,,,,,,,,,,,,,,,,,,,,,,,,,,,,,,,,,,,,,,,,,,,,,,,,,,,,,,,,,,,,,,,,,,,,,,,
1739354830.521557,1739354830.522322,60.000000,0.000000,4227.563965,4214.871582,4278.589844,4275.384766,4205.256348,4261.410156,4212.307617,4265.128418,4206.025879,4165.897461,4446.538574,4340.641113,4358.974121,4431.153809,0.000000,1.000000,16.000000,,,,0.000000,4.000000,4.000000,4.000000,4.000000,4.000000,4.000000,4.000000,4.000000,4.000000,4.000000,4.000000,4.000000,4.000000,4.000000,100.000000,,,,,,,,,,,,,,,,,15.000000,0.000000,0.456877,0.374512,-0.572021,0.569031,0.938103,-0.300818,0.067391,-38.063690,-30.254898,44.616398,,,,,,,,,,,,,,,,,,,,,,,,,,,,,,,,,,,,,,,,,,,,,,,,,,,,,,,,,,,,,,,,,,,,,,,,,,,,,,,,,,,,,,,,,,,,,,,,,,,,,
1739354830.529365,1739354830.530230,61.000000,0.000000,4231.922852,4219.358887,4282.179688,4277.563965,4201.410156,4258.717773,4217.179688,4262.307617,4202.307617,4168.333496,4447.436035,4341.794922,4355.897461,4433.846191,0.000000,1.000000,16.000000,,,,0.000000,4.000000,4.000000,4.000000,4.000000,4.000000,4.000000,4.000000,4.000000,4.000000,4.000000,4.000000,4.000000,4.000000,4.000000,100.000000,,,,,,,,,,,,,,,,,,,,,,,,,,,,,,,,,,,,,,,,,,,,,,,,,,,,,,,,,,,,,,,,,,,,,,,,,,,,,,,,,,,,,,,,,,,,,,,,,,,,,,,,,,,,,,,,,,,,,,,,,,,,,,,,,
1739354830.537173,1739354830.538038,62.000000,0.000000,4225.000000,4211.153809,4279.102539,4283.333496,4198.974121,4252.179688,4214.102539,4266.410156,4201.153809,4158.974121,4439.871582,4338.974121,4350.512695,4424.487305,0.000000,1.000000,16.000000,,,,0.000000,4.000000,4.000000,4.000000,4.000000,4.000000,4.000000,4.000000,4.000000,4.000000,4.000000,4.000000,4.000000,4.000000,4.000000,100.000000,,,,,,,,,,,,,,,,,,,,,,,,,,,,,,,,,,,,,,,,,,,,,,,,,,,,,,,,,,,,,,,,,,,,,,,,,,,,,,,,,,,,,,,,,,,,,,,,,,,,,,,,,,,,,,,,,,,,,,,,,,,,,,,,,
1739354830.544982,1739354830.545946,63.000000,0.000000,4216.282227,4200.512695,4271.794922,4291.922852,4196.794922,4248.589844,4205.641113,4269.615234,4196.410156,4148.846191,4434.358887,4335.256348,4339.743652,4415.384766,0.000000,1.000000,16.000000,,,,0.000000,4.000000,4.000000,4.000000,4.000000,4.000000,4.000000,4.000000,4.000000,4.000000,4.000000,4.000000,4.000000,4.000000,4.000000,100.000000,,,,,,,,,,,,,,,,,,,,,,,,,,,,,,,,,,,,,,,,,,,,,,,,,,,,,,,,,,,,,,,,,,,,,,,,,,,,,,,,,,,,,,,,,,,,,,,,,,,,,,,,,,,,,,,,,,,,,,,,,,,,,,,,,
1739354830.552790,1739354830.553754,64.000000,0.000000,4215.641113,4200.897461,4264.743652,4300.769043,4190.256348,4248.589844,4202.307617,4268.077148,4193.077148,4154.487305,4441.538574,4333.589844,4336.794922,4415.769043,5156.000000,1.000000,16.000000,,,,0.000000,4.000000,4.000000,4.000000,4.000000,4.000000,4.000000,4.000000,4.000000,4.000000,4.000000,4.000000,4.000000,4.000000,4.000000,100.000000,,,,,,,,,,,,,,,,,16.000000,0.000000,0.456516,0.374207,-0.572449,0.569092,0.959590,-0.296911,0.064949,-37.973988,-30.279408,44.454758,,,,,,,,,,,,,,,,,,,,,,,,,,,,,,,,,,,,,,,,,,,,,,,,,,,,,,,,,,,,,,,,,,,,,,,,,,,,,,,,,,,,,,,,,,,,,,,,,,,,,
1739354830.560598,1739354830.561662,65.000000,0.000000,4214.358887,4199.102539,4264.871582,4308.717773,4183.717773,4245.641113,4203.333496,4265.512695,4194.871582,4158.589844,4445.384766,4333.077148,4341.538574,4418.846191,5519.000000,1.000000,16.000000,,,,0.000000,4.000000,4.000000,4.000000,4.000000,4.000000,4.000000,4.000000,4.000000,4.000000,4.000000,4.000000,4.000000,4.000000,4.000000,100.000000,,,,,,,,,,,,,,,,,,,,,,,,,,,,,,,,,,,,,,,,,,,,,,,,,,,,,,,,,,,,,,,,,,,,,,,,,,,,,,,,,,,,,,,,,,,,,,,,,,,,,,,,,,,,,,,,,,,,,,,,,,,,,,,,,
1739354830.568406,1739354830.569470,66.000000,0.000000,4213.205078,4195.769043,4273.589844,4317.563965,4185.897461,4243.461426,4201.666504,4269.615234,4194.743652,4154.230957,4441.666504,4335.128418,4341.538574,4419.230957,5547.000000,1.000000,16.000000,,,,0.000000,4.000000,4.000000,4.000000,4.000000,4.000000,4.000000,4.000000,4.000000,4.000000,4.000000,4.000000,4.000000,4.000000,4.000000,100.000000,,,,,,,,,,,,,,,,,,,,,,,,,,,,,,,,,,,,,,,,,,,,,,,,,,,,,,,,,,,,,,,,,,,,,,,,,,,,,,,,,,,,,,,,,,,,,,,,,,,,,,,,,,,,,,,,,,,,,,,,,,,,,,,,,
1739354830.576214,1739354830.577178,67.000000,0.000000,4215.384766,4200.256348,4277.692383,4326.666504,4188.846191,4242.692383,4200.128418,4272.948730,4192.436035,4156.410156,4441.794922,4337.436035,4331.282227,4412.307617,5475.000000,1.000000,16.000000,,,,0.000000,4.000000,4.000000,4.000000,4.000000,4.000000,4.000000,4.000000,4.000000,4.000000,4.000000,4.000000,4.000000,4.000000,4.000000,100.000000,,,,,,,,,,,,,,,,,,,,,,,,,,,,,,,,,,,,,,,,,,,,,,,,,,,,,,,,,,,,,,,,,,,,,,,,,,,,,,,,,,,,,,,,,,,,,,,,,,,,,,,,,,,,,,,,,,,,,,,,,,,,,,,,,
