Timestamp,OriginalTimestamp,EEG.Counter,EEG.Interpolated,EEG.AF3,EEG.F7,EEG.F3,EEG.FC5,EEG.T7,EEG.P7,EEG.O1,EEG.O2,EEG.P8,EEG.T8,EEG.FC6,EEG.F4,EEG.F8,EEG.AF4,EEG.RawCq,EEG.Battery,EEG.BatteryPercent,MarkerIndex,MarkerType,MarkerValueInt,EEG.MarkerHardware,CQ.AF3,CQ.F7,CQ.F3,CQ.FC5,CQ.T7,CQ.P7,CQ.O1,CQ.O2,CQ.P8,CQ.T8,CQ.FC6,CQ.F4,CQ.F8,CQ.AF4,CQ.Overall,EQ.SampleRateQuality,EQ.OVERALL,EQ.AF3,EQ.F7,EQ.F3,EQ.FC5,EQ.T7,EQ.P7,EQ.O1,EQ.O2,EQ.P8,EQ.T8,EQ.FC6,EQ.F4,EQ.F8,EQ.AF4,MOT.CounterMems,MOT.InterpolatedMems,MOT.Q0,MOT.Q1,MOT.Q2,MOT.Q3,MOT.AccX,MOT.AccY,MOT.AccZ,MOT.MagX,MOT.MagY,MOT.MagZ,PM.Attention.IsActive,PM.Attention.Scaled,PM.Attention.Raw,PM.Attention.Min,PM.Attention.Max,PM.Engagement.IsActive,PM.Engagement.Scaled,PM.Engagement.Raw,PM.Engagement.Min,PM.Engagement.Max,PM.Excitement.IsActive,PM.Excitement.Scaled,PM.Excitement.Raw,PM.Excitement.Min,PM.Excitement.Max,PM.LongTermExcitement,PM.Stress.IsActive,PM.Stress.Scaled,PM.Stress.Raw,PM.Stress.Min,PM.Stress.Max,PM.Relaxation.IsActive,PM.Relaxation.Scaled,PM.Relaxation.Raw,PM.Relaxation.Min,PM.Relaxation.Max,PM.Interest.IsActive,PM.Interest.Scaled,PM.Interest.Raw,PM.Interest.Min,PM.Interest.Max,POW.AF3.Theta,POW.AF3.Alpha,POW.AF3.BetaL,POW.AF3.BetaH,POW.AF3.Gamma,POW.F7.Theta,POW.F7.Alpha,POW.F7.BetaL,POW.F7.BetaH,POW.F7.Gamma,POW.F3.Theta,POW.F3.Alpha,POW.F3.BetaL,POW.F3.BetaH,POW.F3.Gamma,POW.FC5.Theta,POW.FC5.Alpha,POW.FC5.BetaL,POW.FC5.BetaH,POW.FC5.Gamma,POW.T7.Theta,POW.T7.Alpha,POW.T7.BetaL,POW.T7.BetaH,POW.T7.Gamma,POW.P7.Theta,POW.P7.Alpha,POW.P7.BetaL,POW.P7.BetaH,POW.P7.Gamma,POW.O1.Theta,POW.O1.Alpha,POW.O1.BetaL,POW.O1.BetaH,POW.O1.Gamma,POW.O2.Theta,POW.O2.Alpha,POW.O2.BetaL,POW.O2.BetaH,POW.O2.Gamma,POW.P8.Theta,POW.P8.Alpha,POW.P8.BetaL,POW.P8.BetaH,POW.P8.Gamma,POW.T8.Theta,POW.T8.Alpha,POW.T8.BetaL,POW.T8.BetaH,POW.T8.Gamma,POW.FC6.Theta,POW.FC6.Alpha,POW.FC6.BetaL,POW.FC6.BetaH,POW.FC6.Gamma,POW.F4.Theta,POW.F4.Alpha,POW.F4.BetaL,POW.F4.BetaH,POW.F4.Gamma,POW.F8.Theta,POW.F8.Alpha,POW.F8.BetaL,POW.F8.BetaH,POW.F8.Gamma,POW.AF4.Theta,POW.AF4.Alpha,POW.AF4.BetaL,POW.AF4.BetaH,POW.AF4.Gamma
1739356264.874027,1739356264.874545,81.000000,0.000000,4306.922852,4260.256348,4258.461426,4180.256348,4245.000000,4330.769043,4255.256348,4251.794922,4245.128418,4227.692383,4372.692383,4541.538574,4409.487305,4426.666504,6676.000000,0.000000,11.000000,,,,0.000000,4.000000,4.000000,4.000000,4.000000,4.000000,4.000000,4.000000,4.000000,4.000000,4.000000,4.000000,4.000000,4.000000,4.000000,100.000000,,,,,,,,,,,,,,,,,,,,,,,,,,,,,,,,,,,,,,,,,,,,,,,,,,,,,,,,,,,,,,,,,,,,,,,,,,,,,,,,,,,,,,,,,,,,,,,,,,,,,,,,,,,,,,,,,,,,,,,,,,,,,,,,,
1739356264.881835,1739356264.882253,82.000000,0.000000,4298.589844,4244.358887,4253.205078,4170.512695,4230.512695,4317.692383,4237.307617,4250.384766,4227.948730,4215.897461,4364.230957,4535.256348,4403.717773,4417.436035,5038.000000,0.000000,11.000000,,,,0.000000,4.000000,4.000000,4.000000,4.000000,4.000000,4.000000,4.000000,4.000000,4.000000,4.000000,4.000000,4.000000,4.000000,4.000000,100.000000,,,,,,,,,,,,,,,,,,,,,,,,,,,,,,,,,,,,,,,,,,,,,,,,,,,,,,,,,,,,,,,,,,,,,,,,,,,,,,,,,,,,,,,,,,,,,,,,,,,,,,,,,,,,,,,,,,,,,,,,,,,,,,,,,
1739356264.889643,1739356264.890161,83.000000,0.000000,4285.897461,4227.563965,4241.282227,4158.974121,4212.948730,4297.307617,4211.282227,4244.615234,4204.358887,4196.922852,4353.205078,4519.230957,4402.307617,4406.410156,5799.000000,0.000000,11.000000,,,,0.000000,4.000000,4.000000,4.000000,4.000000,4.000000,4.000000,4.000000,4.000000,4.000000,4.000000,4.000000,4.000000,4.000000,4.000000,100.000000,,,,,,,,,,,,,,,,,,,,,,,,,,,,,,,,,,,,,,,,,,,,,,,,,,,,,,,,,,,,,,,,,,,,,,,,,,,,,,,,,,,,,,,,,,,,,,,,,,,,,,,,,,,,,,,,,,,,,,,,,,,,,,,,,
1739356264.897451,1739356264.897969,84.000000,0.000000,4317.563965,4260.384766,4271.794922,4196.025879,4239.743652,4322.948730,4238.846191,4258.589844,4237.692383,4229.487305,4389.615234,4557.179688,4434.230957,4442.179688,5818.000000,0.000000,11.000000,,,,0.000000,4.000000,4.000000,4.000000,4.000000,4.000000,4.000000,4.000000,4.000000,4.000000,4.000000,4.000000,4.000000,4.000000,4.000000,100.000000,,,,,,,,,,,,,,,,,21.000000,0.000000,0.728055,-0.137024,-0.671143,-0.026978,0.926383,-0.081065,0.092785,-40.834499,-30.809023,44.094864,,,,,,,,,,,,,,,,,,,,,,,,,,,,,,,,,,,,,,,,,,,,,,,,,,,,,,,,,,,,,,,,,,,,,,,,,,,,,,,,,,,,,,,,,,,,,,,,,,,,,
1739356264.905259,1739356264.905877,85.000000,0.000000,4319.358887,4261.153809,4272.948730,4202.563965,4246.410156,4330.256348,4244.871582,4252.436035,4246.025879,4239.102539,4390.769043,4563.461426,4427.820313,4439.487305,6676.000000,0.000000,11.000000,,,,0.000000,4.000000,4.000000,4.000000,4.000000,4.000000,4.000000,4.000000,4.000000,4.000000,4.000000,4.000000,4.000000,4.000000,4.000000,100.000000,,,,,,,,,,,,,,,,,,,,,,,,,,,,,,,,,,,,,,,,,,,,,,,,,,,,,,,,,,,,,,,,,,,,,,,,,,,,,,,,,,,,,,,,,,,,,,,,,,,,,,,,,,,,,,,,,,,,,,,,,,,,,,,,,
1739356264.913067,1739356264.913685,86.000000,0.000000,4280.384766,4226.794922,4229.102539,4171.922852,4220.000000,4304.102539,4212.563965,4224.487305,4212.307617,4211.922852,4351.153809,4517.692383,4390.000000,4391.794922,5038.000000,0.000000,11.000000,,,,0.000000,4.000000,4.000000,4.000000,4.000000,4.000000,4.000000,4.000000,4.000000,4.000000,4.000000,4.000000,4.000000,4.000000,4.000000,100.000000,,,,,,,,,,,,,,,,,,,,,,,,,,,,,,,,,,,,,,,,,,,,,,,,,,,,,,,,,,,,,,,,,,,,,,,,,,,,,,,,,,,,,,,,,,,,,,,,,,,,,,,,,,,,,,,,,,,,,,,,,,,,,,,,,
1739356264.920875,1739356264.921593,87.000000,0.000000,4273.333496,4229.358887,4212.948730,4171.025879,4219.615234,4306.666504,4215.384766,4215.769043,4217.051270,4213.974121,4346.410156,4508.974121,4391.538574,4386.282227,5799.000000,0.000000,11.000000,,,,0.000000,4.000000,4.000000,4.000000,4.000000,4.000000,4.000000,4.000000,4.000000,4.000000,4.000000,4.000000,4.000000,4.000000,4.000000,100.000000,,,,,,,,,,,,,,,,,,,,,,,,,,,,,,,,,,,,,,,,,,,,,,,,,,,,,,,,,,,,,,,,,,,,,,,,,,,,,,,,,,,,,,,,,,,,,,,,,,,,,,,,,,,,,,,,,,,,,,,,,,,,,,,,,
1739356264.928683,1739356264.929401,88.000000,0.000000,4300.769043,4255.769043,4236.794922,4197.051270,4248.846191,4341.282227,4253.974121,4224.743652,4254.102539,4249.230957,4378.077148,4548.589844,4422.179688,4418.589844,5818.000000,0.000000,11.000000,,,,0.000000,4.000000,4.000000,4.000000,4.000000,4.000000,4.000000,4.000000,4.000000,4.000000,4.000000,4.000000,4.000000,4.000000,4.000000,100.000000,,,,,,,,,,,,,,,,,22.000000,0.000000,0.727796,-0.133240,-0.672058,-0.029968,0.955195,-0.095226,0.074716,-41.051052,-30.628120,44.018711,,,,,,,,,,,,,,,,,,,,,,,,,,,,,,,,3.801580,2.592057,1.748369,2.630638,4.159479,1.736297,2.122097,1.630018,2.416512,3.459793,1.572344,1.105556,1.988812,1.836100,3.160491,73.122971,10.569489,4.515037,2.265650,3.427731,1.082248,0.841187,1.174172,2.030763,2.974940,0.847212,0.650861,1.285769,2.020953,3.140465,0.919776,1.470603,2.448170,2.444084,3.478479,1.081594,0.606754,0.268956,0.315673,0.617479,1.470090,0.802157,2.306271,2.598896,3.402654,1.415847,1.099909,2.587879,3.124960,4.108918,70.181496,9.735851,4.048228,2.900690,3.846384,4.057097,1.194797,2.676071,3.135685,4.928239,4.190687,1.623932,1.150256,1.577060,3.029349,2.391302,1.402139,1.712514,2.562576,3.535853
1739356264.936491,1739356264.937309,89.000000,0.000000,4296.794922,4245.897461,4236.025879,4193.589844,4245.384766,4341.282227,4252.307617,4223.333496,4250.512695,4251.538574,4373.461426,4549.487305,4410.384766,4410.256348,6676.000000,0.000000,11.000000,,,,0.000000,4.000000,4.000000,4.000000,4.000000,4.000000,4.000000,4.000000,4.000000,4.000000,4.000000,4.000000,4.000000,4.000000,4.000000,100.000000,,,,,,,,,,,,,,,,,,,,,,,,,,,,,,,,,,,,,,,,,,,,,,,,,,,,,,,,,,,,,,,,,,,,,,,,,,,,,,,,,,,,,,,,,,,,,,,,,,,,,,,,,,,,,,,,,,,,,,,,,,,,,,,,,
1739356264.944299,1739356264.945117,90.000000,0.000000,4248.205078,4200.897461,4195.256348,4153.461426,4200.256348,4298.589844,4205.641113,4214.358887,4202.563965,4197.179688,4318.205078,4495.000000,4356.153809,4358.077148,5038.000000,0.000000,11.000000,,,,0.000000,4.000000,4.000000,4.000000,4.000000,4.000000,4.000000,4.000000,4.000000,4.000000,4.000000,4.000000,4.000000,4.000000,4.000000,100.000000,,,,,,,,,,,,,,,,,,,,,,,,,,,,,,,,,,,,,,,,,,,,,,,,,,,,,,,,,,,,,,,,,,,,,,,,,,,,,,,,,,,,,,,,,,,,,,,,,,,,,,,,,,,,,,,,,,,,,,,,,,,,,,,,,
1739356264.952108,1739356264.952825,91.000000,0.000000,4223.589844,4180.000000,4178.717773,4133.974121,4181.794922,4280.897461,4186.538574,4217.307617,4183.974121,4163.461426,4292.051270,4475.128418,4335.769043,4340.256348,5799.000000,0.000000,11.000000,,,,0.000000,4.000000,4.000000,4.000000,4.000000,4.000000,4.000000,4.000000,4.000000,4.000000,4.000000,4.000000,4.000000,4.000000,4.000000,100.000000,,,,,,,,,,,,,,,,,,,,,,,,,,,,,,,,,,,,,,,,,,,,,,,,,,,,,,,,,,,,,,,,,,,,,,,,,,,,,,,,,,,,,,,,,,,,,,,,,,,,,,,,,,,,,,,,,,,,,,,,,,,,,,,,,
1739356264.959916,1739356264.960633,92.000000,0.000000,4266.282227,4217.948730,4220.512695,4171.410156,4217.436035,4311.666504,4219.102539,4236.538574,4220.769043,4204.487305,4336.153809,4530.256348,4377.179688,4387.051270,5818.000000,0.000000,11.000000,,,,0.000000,4.000000,4.000000,4.000000,4.000000,4.000000,4.000000,4.000000,4.000000,4.000000,4.000000,4.000000,4.000000,4.000000,4.000000,100.000000,,,,,,,,,,,,,,,,,23.000000,0.000000,0.726985,-0.131653,-0.673218,-0.030640,1.067025,-0.090831,0.062996,-41.145947,-30.365309,44.000172,,,,,,,,,,,,,,,,,,,,,,,,,,,,,,,,,,,,,,,,,,,,,,,,,,,,,,,,,,,,,,,,,,,,,,,,,,,,,,,,,,,,,,,,,,,,,,,,,,,,,
1739356264.967724,1739356264.968341,93.000000,0.000000,4309.871582,4254.230957,4261.025879,4207.563965,4242.692383,4331.153809,4241.025879,4252.820313,4253.974121,4253.846191,4384.358887,4581.538574,4417.179688,4430.128418,6676.000000,0.000000,11.000000,,,,0.000000,4.000000,4.000000,4.000000,4.000000,4.000000,4.000000,4.000000,4.000000,4.000000,4.000000,4.000000,4.000000,4.000000,4.000000,100.000000,,,,,,,,,,,,,,,,,,,,,,,,,,,,,,,,,,,,,,,,,,,,,,,,,,,,,,,,,,,,,,,,,,,,,,,,,,,,,,,,,,,,,,,,,,,,,,,,,,,,,,,,,,,,,,,,,,,,,,,,,,,,,,,,,
1739356264.975532,1739356264.976149,94.000000,0.000000,4300.128418,4239.102539,4253.974121,4197.179688,4227.692383,4316.538574,4225.128418,4251.282227,4240.256348,4241.282227,4376.666504,4575.512695,4402.179688,4422.307617,5038.000000,0.000000,11.000000,,,,0.000000,4.000000,4.000000,4.000000,4.000000,4.000000,4.000000,4.000000,4.000000,4.000000,4.000000,4.000000,4.000000,4.000000,4.000000,100.000000,,,,,,,,,,,,,,,,,,,,,,,,,,,,,,,,,,,,,,,,,,,,,,,,,,,,,,,,,,,,,,,,,,,,,,,,,,,,,,,,,,,,,,,,,,,,,,,,,,,,,,,,,,,,,,,,,,,,,,,,,,,,,,,,,
1739356264.983340,1739356264.983857,95.000000,0.000000,4272.820313,4213.205078,4231.282227,4175.256348,4210.769043,4300.897461,4206.410156,4241.410156,4210.384766,4203.077148,4343.205078,4549.615234,4371.153809,4399.358887,5799.000000,0.000000,11.000000,,,,0.000000,4.000000,4.000000,4.000000,4.000000,4.000000,4.000000,4.000000,4.000000,4.000000,4.000000,4.000000,4.000000,4.000000,4.000000,100.000000,,,,,,,,,,,,,,,,,,,,,,,,,,,,,,,,,,,,,,,,,,,,,,,,,,,,,,,,,,,,,,,,,,,,,,,,,,,,,,,,,,,,,,,,,,,,,,,,,,,,,,,,,,,,,,,,,,,,,,,,,,,,,,,,,
1739356264.991148,1739356264.991665,96.000000,0.000000,4252.563965,4199.615234,4215.256348,4160.128418,4200.384766,4286.282227,4190.897461,4236.794922,4189.358887,4181.025879,4322.563965,4525.897461,4362.820313,4382.436035,5818.000000,0.000000,11.000000,,,,0.000000,4.000000,4.000000,4.000000,4.000000,4.000000,4.000000,4.000000,4.000000,4.000000,4.000000,4.000000,4.000000,4.000000,4.000000,100.000000,,,,,,,,,,,,,,,,,24.000000,0.000000,0.725830,-0.130676,-0.674683,-0.029968,1.005494,-0.111342,0.015139,-41.181351,-30.295444,44.033489,,,,,,,,,,,,,,,,,,,,,,,,,,,,,,,,,,,,,,,,,,,,,,,,,,,,,,,,,,,,,,,,,,,,,,,,,,,,,,,,,,,,,,,,,,,,,,,,,,,,,
1739356264.998956,1739356264.999373,97.000000,0.000000,4264.102539,4216.538574,4237.948730,4182.307617,4220.256348,4301.922852,4212.436035,4253.461426,4206.922852,4204.487305,4352.307617,4547.948730,4384.871582,4401.282227,6676.000000,0.000000,11.000000,,,,0.000000,4.000000,4.000000,4.000000,4.000000,4.000000,4.000000,4.000000,4.000000,4.000000,4.000000,4.000000,4.000000,4.000000,4.000000,100.000000,,,,,,,,,,,,,,,,,,,,,,,,,,,,,,,,,,,,,,,,,,,,,,,,,,,,,,,,,,,,,,,,,,,,,,,,,,,,,,,,,,,,,,,,,,,,,,,,,,,,,,,,,,,,,,,,,,,,,,,,,,,,,,,,,
1739356265.006764,1739356265.007181,98.000000,0.000000,4289.230957,4237.820313,4275.512695,4218.461426,4249.358887,4335.641113,4254.102539,4269.615234,4248.717773,4249.871582,4392.563965,4593.717773,4405.641113,4440.641113,5038.000000,0.000000,11.000000,,,,0.000000,4.000000,4.000000,4.000000,4.000000,4.000000,4.000000,4.000000,4.000000,4.000000,4.000000,4.000000,4.000000,4.000000,4.000000,100.000000,,,,,,,,,,,,,,,,,,,,,,,,,,,,,,,,,,,,,,,,,,,,,,,,,,,,,,,,,,,,,,,,,,,,,,,,,,,,,,,,,,,,,,,,,,,,,,,,,,,,,,,,,,,,,,,,,,,,,,,,,,,,,,,,,
1739356265.014572,1739356265.014889,99.000000,0.000000,4250.769043,4206.025879,4244.102539,4192.563965,4219.615234,4307.436035,4227.436035,4251.025879,4222.051270,4218.077148,4350.384766,4553.333496,4371.538574,4414.871582,5799.000000,0.000000,11.000000,,,,0.000000,4.000000,4.000000,4.000000,4.000000,4.000000,4.000000,4.000000,4.000000,4.000000,4.000000,4.000000,4.000000,4.000000,4.000000,100.000000,,,,,,,,,,,,,,,,,,,,,,,,,,,,,,,,,,,,,,,,,,,,,,,,,,,,,,,,,,,,,,,,,,,,,,,,,,,,,,,,,,,,,,,,,,,,,,,,,,,,,,,,,,,,,,,,,,,,,,,,,,,,,,,,,
1739356265.022380,1739356265.022697,100.000000,0.000000,4218.846191,4196.282227,4212.563965,4180.128418,4198.717773,4279.871582,4195.512695,4238.205078,4183.717773,4173.717773,4309.358887,4510.897461,4343.589844,4381.666504,5818.000000,0.000000,11.000000,,,,0.000000,4.000000,4.000000,4.000000,4.000000,4.000000,4.000000,4.000000,4.000000,4.000000,4.000000,4.000000,4.000000,4.000000,4.000000,100.000000,,,,,,,,,,,,,,,,,25.000000,0.000000,0.722601,-0.126343,-0.679016,-0.028687,1.001587,-0.126480,-0.017092,-41.263214,-30.099234,44.146805,,,,,,,,,,,,,,,,,,,,,,,,,,,,,,,,,,,,,,,,,,,,,,,,,,,,,,,,,,,,,,,,,,,,,,,,,,,,,,,,,,,,,,,,,,,,,,,,,,,,,
1739356265.030188,1739356265.030405,101.000000,0.000000,4265.897461,4248.974121,4251.794922,4233.333496,4237.436035,4315.769043,4230.897461,4257.307617,4220.000000,4213.589844,4351.282227,4560.384766,4374.615234,4420.641113,6676.000000,0.000000,11.000000,,,,0.000000,4.000000,4.000000,4.000000,4.000000,4.000000,4.000000,4.000000,4.000000,4.000000,4.000000,4.000000,4.000000,4.000000,4.000000,100.000000,,,,,,,,,,,,,,,,,,,,,,,,,,,,,,,,,,,,,,,,,,,,,,,,,,,,,,,,,,,,,,,,,,,,,,,,,,,,,,,,,,,,,,,,,,,,,,,,,,,,,,,,,,,,,,,,,,,,,,,,,,,,,,,,,
1739356265.037996,1739356265.038213,102.000000,0.000000,4295.128418,4270.769043,4271.538574,4255.128418,4253.717773,4331.538574,4251.153809,4263.717773,4247.563965,4246.666504,4383.333496,4586.153809,4399.102539,4448.077148,5038.000000,0.000000,11.000000,,,,0.000000,4.000000,4.000000,4.000000,4.000000,4.000000,4.000000,4.000000,4.000000,4.000000,4.000000,4.000000,4.000000,4.000000,4.000000,100.000000,,,,,,,,,,,,,,,,,,,,,,,,,,,,,,,,,,,,,,,,,,,,,,,,,,,,,,,,,,,,,,,,,,,,,,,,,,,,,,,,,,,,,,,,,,,,,,,,,,,,,,,,,,,,,,,,,,,,,,,,,,,,,,,,,
1739356265.045804,1739356265.045921,103.000000,0.000000,4270.641113,4247.563965,4241.025879,4231.794922,4229.358887,4301.666504,4224.102539,4246.410156,4220.769043,4219.871582,4359.102539,4548.461426,4382.307617,4422.436035,5799.000000,0.000000,11.000000,,,,0.000000,4.000000,4.000000,4.000000,4.000000,4.000000,4.000000,4.000000,4.000000,4.000000,4.000000,4.000000,4.000000,4.000000,4.000000,100.000000,,,,,,,,,,,,,,,,,,,,,,,,,,,,,,,,,,,,,,,,,,,,,,,,,,,,,,,,,,,,,,,,,,,,,,,,,,,,,,,,,,,,,,,,,,,,,,,,,,,,,,,,,,,,,,,,,,,,,,,,,,,,,,,,,
1739356265.053613,1739356265.053829,104.000000,0.000000,4248.589844,4228.461426,4219.871582,4219.743652,4210.000000,4276.794922,4195.897461,4235.769043,4191.025879,4187.179688,4331.538574,4522.307617,4356.794922,4398.846191,5818.000000,0.000000,11.000000,,,,0.000000,4.000000,4.000000,4.000000,4.000000,4.000000,4.000000,4.000000,4.000000,4.000000,4.000000,4.000000,4.000000,4.000000,4.000000,100.000000,,,,,,,,,,,,,,,,,26.000000,0.000000,0.720375,-0.121399,-0.682373,-0.026245,0.925406,-0.141619,-0.010255,-41.303562,-29.822643,44.065460,,,,,,,,,,,,,,,,,,,,,,,,,,,,,,,,3.454592,2.218713,1.843800,2.677792,4.530645,1.659305,1.662882,1.793403,2.401983,3.863764,1.546272,1.145089,1.898608,1.833877,3.537809,72.978683,9.584007,4.763573,2.256561,4.044640,1.021696,0.854906,1.116617,2.057497,3.331371,0.791532,0.553443,1.030417,2.082565,3.514653,0.845489,1.224046,1.953537,2.495991,3.815197,1.302658,0.725329,0.269386,0.325049,0.703624,1.320200,0.728600,2.162704,2.587894,3.788090,1.235572,1.121396,2.495939,3.132147,4.441700,46.246700,7.277982,3.959781,3.082202,4.185221,3.668537,1.327647,2.518979,3.200813,5.431155,3.784271,1.581276,1.284737,1.688532,3.292474,2.067147,1.159774,1.747391,2.704503,3.898548
1739356265.061421,1739356265.061638,105.000000,0.000000,4258.461426,4234.358887,4234.487305,4232.820313,4213.461426,4280.000000,4197.307617,4243.205078,4192.948730,4188.846191,4340.384766,4538.461426,4360.512695,4409.871582,6676.000000,0.000000,11.000000,,,,0.000000,4.000000,4.000000,4.000000,4.000000,4.000000,4.000000,4.000000,4.000000,4.000000,4.000000,4.000000,4.000000,4.000000,4.000000,100.000000,,,,,,,,,,,,,,,,,,,,,,,,,,,,,,,,,,,,,,,,,,,,,,,,,,,,,,,,,,,,,,,,,,,,,,,,,,,,,,,,,,,,,,,,,,,,,,,,,,,,,,,,,,,,,,,,,,,,,,,,,,,,,,,,,
1739356265.069229,1739356265.069546,106.000000,0.000000,4289.615234,4265.256348,4263.717773,4261.410156,4236.410156,4303.846191,4224.487305,4253.846191,4219.615234,4219.743652,4371.794922,4575.769043,4386.538574,4440.512695,5038.000000,0.000000,11.000000,,,,0.000000,4.000000,4.000000,4.000000,4.000000,4.000000,4.000000,4.000000,4.000000,4.000000,4.000000,4.000000,4.000000,4.000000,4.000000,100.000000,,,,,,,,,,,,,,,,,,,,,,,,,,,,,,,,,,,,,,,,,,,,,,,,,,,,,,,,,,,,,,,,,,,,,,,,,,,,,,,,,,,,,,,,,,,,,,,,,,,,,,,,,,,,,,,,,,,,,,,,,,,,,,,,,
1739356265.077037,1739356265.077354,107.000000,0.000000,4279.230957,4256.922852,4255.641113,4248.461426,4230.512695,4298.333496,4218.461426,4247.051270,4214.358887,4214.230957,4364.230957,4569.230957,4375.641113,4430.128418,5799.000000,0.000000,11.000000,,,,0.000000,4.000000,4.000000,4.000000,4.000000,4.000000,4.000000,4.000000,4.000000,4.000000,4.000000,4.000000,4.000000,4.000000,4.000000,100.000000,,,,,,,,,,,,,,,,,,,,,,,,,,,,,,,,,,,,,,,,,,,,,,,,,,,,,,,,,,,,,,,,,,,,,,,,,,,,,,,,,,,,,,,,,,,,,,,,,,,,,,,,,,,,,,,,,,,,,,,,,,,,,,,,,
1739356265.084845,1739356265.085262,108.000000,0.000000,4240.128418,4214.487305,4225.256348,4210.769043,4205.256348,4272.436035,4191.410156,4239.358887,4188.974121,4183.846191,4340.641113,4540.512695,4350.000000,4397.948730,5818.000000,0.000000,11.000000,,,,0.000000,4.000000,4.000000,4.000000,4.000000,4.000000,4.000000,4.000000,4.000000,4.000000,4.000000,4.000000,4.000000,4.000000,4.000000,100.000000,,,,,,,,,,,,,,,,,27.000000,0.000000,0.720126,-0.117798,-0.683350,-0.023987,0.994262,-0.174826,0.015627,-41.373203,-29.557045,44.125580,,,,,,,,,,,,,,,,,,,,,,,,,,,,,,,,,,,,,,,,,,,,,,,,,,,,,,,,,,,,,,,,,,,,,,,,,,,,,,,,,,,,,,,,,,,,,,,,,,,,,
1739356265.092653,1739356265.093070,109.000000,0.000000,4253.333496,4221.025879,4236.410156,4222.563965,4217.820313,4288.717773,4218.333496,4253.846191,4210.769043,4206.666504,4370.256348,4569.615234,4373.589844,4418.717773,6676.000000,0.000000,11.000000,,,,0.000000,4.000000,4.000000,4.000000,4.000000,4.000000,4.000000,4.000000,4.000000,4.000000,4.000000,4.000000,4.000000,4.000000,4.000000,100.000000,,,,,,,,,,,,,,,,,,,,,,,,,,,,,,,,,,,,,,,,,,,,,,,,,,,,,,,,,,,,,,,,,,,,,,,,,,,,,,,,,,,,,,,,,,,,,,,,,,,,,,,,,,,,,,,,,,,,,,,,,,,,,,,,,
1739356265.100461,1739356265.100978,110.000000,0.000000,4284.358887,4249.743652,4261.025879,4251.922852,4237.948730,4312.051270,4252.948730,4261.794922,4239.743652,4241.410156,4401.922852,4609.230957,4397.436035,4450.384766,5038.000000,0.000000,11.000000,,,,0.000000,4.000000,4.000000,4.000000,4.000000,4.000000,4.000000,4.000000,4.000000,4.000000,4.000000,4.000000,4.000000,4.000000,4.000000,100.000000,,,,,,,,,,,,,,,,,,,,,,,,,,,,,,,,,,,,,,,,,,,,,,,,,,,,,,,,,,,,,,,,,,,,,,,,,,,,,,,,,,,,,,,,,,,,,,,,,,,,,,,,,,,,,,,,,,,,,,,,,,,,,,,,,
1739356265.108269,1739356265.108787,111.000000,0.000000,4265.384766,4236.025879,4245.769043,4237.948730,4224.102539,4292.307617,4231.153809,4244.743652,4218.974121,4217.179688,4380.512695,4592.307617,4369.871582,4430.769043,5799.000000,0.000000,11.000000,,,,0.000000,4.000000,4.000000,4.000000,4.000000,4.000000,4.000000,4.000000,4.000000,4.000000,4.000000,4.000000,4.000000,4.000000,4.000000,100.000000,,,,,,,,,,,,,,,,,,,,,,,,,,,,,,,,,,,,,,,,,,,,,,,,,,,,,,,,,,,,,,,,,,,,,,,,,,,,,,,,,,,,,,,,,,,,,,,,,,,,,,,,,,,,,,,,,,,,,,,,,,,,,,,,,
1739356265.116077,1739356265.116694,112.000000,0.000000,4248.717773,4219.615234,4227.563965,4216.922852,4212.307617,4277.307617,4215.000000,4237.692383,4204.743652,4196.538574,4370.897461,4576.410156,4354.102539,4411.922852,5818.000000,0.000000,11.000000,,,,0.000000,4.000000,4.000000,4.000000,4.000000,4.000000,4.000000,4.000000,4.000000,4.000000,4.000000,4.000000,4.000000,4.000000,4.000000,100.000000,,,,,,,,,,,,,,,,,28.000000,0.000000,0.721732,-0.116821,-0.681885,-0.022095,1.026004,-0.168478,0.059578,-41.519218,-29.351341,44.263023,,,,,,,,,,,,,,,,,,,,,,,,,,,,,,,,,,,,,,,,,,,,,,,,,,,,,,,,,,,,,,,,,,,,,,,,,,,,,,,,,,,,,,,,,,,,,,,,,,,,,
1739356265.123885,1739356265.124502,113.000000,0.000000,4263.461426,4225.256348,4225.769043,4218.077148,4212.307617,4278.205078,4226.025879,4241.538574,4213.846191,4207.692383,4387.692383,4586.282227,4369.487305,4418.461426,6676.000000,0.000000,11.000000,,,,0.000000,4.000000,4.000000,4.000000,4.000000,4.000000,4.000000,4.000000,4.000000,4.000000,4.000000,4.000000,4.000000,4.000000,4.000000,100.000000,,,,,,,,,,,,,,,,,,,,,,,,,,,,,,,,,,,,,,,,,,,,,,,,,,,,,,,,,,,,,,,,,,,,,,,,,,,,,,,,,,,,,,,,,,,,,,,,,,,,,,,,,,,,,,,,,,,,,,,,,,,,,,,,,
1739356265.131693,1739356265.132410,114.000000,0.000000,4288.846191,4247.051270,4238.205078,4241.282227,4225.000000,4286.025879,4236.410156,4241.666504,4228.846191,4226.922852,4406.025879,4610.000000,4388.846191,4436.410156,5038.000000,0.000000,11.000000,,,,0.000000,4.000000,4.000000,4.000000,4.000000,4.000000,4.000000,4.000000,4.000000,4.000000,4.000000,4.000000,4.000000,4.000000,4.000000,100.000000,,,,,,,,,,,,,,,,,,,,,,,,,,,,,,,,,,,,,,,,,,,,,,,,,,,,,,,,,,,,,,,,,,,,,,,,,,,,,,,,,,,,,,,,,,,,,,,,,,,,,,,,,,,,,,,,,,,,,,,,,,,,,,,,,
1739356265.139501,1739356265.140218,115.000000,0.000000,4305.384766,4264.743652,4256.666504,4259.743652,4237.948730,4295.512695,4236.922852,4243.974121,4242.051270,4244.743652,4422.051270,4633.077148,4400.769043,4454.743652,5799.000000,0.000000,11.000000,,,,0.000000,4.000000,4.000000,4.000000,4.000000,4.000000,4.000000,4.000000,4.000000,4.000000,4.000000,4.000000,4.000000,4.000000,4.000000,100.000000,,,,,,,,,,,,,,,,,,,,,,,,,,,,,,,,,,,,,,,,,,,,,,,,,,,,,,,,,,,,,,,,,,,,,,,,,,,,,,,,,,,,,,,,,,,,,,,,,,,,,,,,,,,,,,,,,,,,,,,,,,,,,,,,,
1739356265.147309,1739356265.147926,116.000000,0.000000,4281.410156,4231.282227,4236.538574,4223.333496,4203.461426,4265.000000,4200.128418,4238.461426,4209.230957,4213.846191,4403.205078,4599.230957,4380.128418,4429.358887,5818.000000,0.000000,11.000000,,,,0.000000,4.000000,4.000000,4.000000,4.000000,4.000000,4.000000,4.000000,4.000000,4.000000,4.000000,4.000000,4.000000,4.000000,4.000000,100.000000,,,,,,,,,,,,,,,,,29.000000,0.000000,0.723954,-0.116394,-0.679626,-0.021240,0.997192,-0.149921,0.106458,-41.533962,-29.199541,44.336720,,,,,,,,,,,,,,,,,,,,,,,,,,,,,,,,,,,,,,,,,,,,,,,,,,,,,,,,,,,,,,,,,,,,,,,,,,,,,,,,,,,,,,,,,,,,,,,,,,,,,
1739356265.155118,1739356265.155734,117.000000,0.000000,4277.051270,4208.333496,4224.230957,4201.794922,4181.282227,4242.307617,4176.025879,4241.282227,4178.077148,4184.743652,4388.461426,4575.128418,4367.820313,4412.436035,6676.000000,0.000000,11.000000,,,,0.000000,4.000000,4.000000,4.000000,4.000000,4.000000,4.000000,4.000000,4.000000,4.000000,4.000000,4.000000,4.000000,4.000000,4.000000,100.000000,,,,,,,,,,,,,,,,,,,,,,,,,,,,,,,,,,,,,,,,,,,,,,,,,,,,,,,,,,,,,,,,,,,,,,,,,,,,,,,,,,,,,,,,,,,,,,,,,,,,,,,,,,,,,,,,,,,,,,,,,,,,,,,,,
1739356265.162926,1739356265.163442,118.000000,0.000000,4334.230957,4258.846191,4275.641113,4256.922852,4234.487305,4286.410156,4219.743652,4266.153809,4217.692383,4230.000000,4427.692383,4635.384766,4406.282227,4465.128418,5038.000000,0.000000,11.000000,,,,0.000000,4.000000,4.000000,4.000000,4.000000,4.000000,4.000000,4.000000,4.000000,4.000000,4.000000,4.000000,4.000000,4.000000,4.000000,100.000000,,,,,,,,,,,,,,,,,,,,,,,,,,,,,,,,,,,,,,,,,,,,,,,,,,,,,,,,,,,,,,,,,,,,,,,,,,,,,,,,,,,,,,,,,,,,,,,,,,,,,,,,,,,,,,,,,,,,,,,,,,,,,,,,,
1739356265.170734,1739356265.171250,119.000000,0.000000,4341.666504,4276.794922,4296.794922,4277.179688,4253.205078,4302.051270,4237.948730,4271.922852,4228.974121,4243.461426,4433.589844,4651.538574,4413.077148,4481.025879,5799.000000,0.000000,11.000000,,,,0.000000,4.000000,4.000000,4.000000,4.000000,4.000000,4.000000,4.000000,4.000000,4.000000,4.000000,4.000000,4.000000,4.000000,4.000000,100.000000,,,,,,,,,,,,,,,,,,,,,,,,,,,,,,,,,,,,,,,,,,,,,,,,,,,,,,,,,,,,,,,,,,,,,,,,,,,,,,,,,,,,,,,,,,,,,,,,,,,,,,,,,,,,,,,,,,,,,,,,,,,,,,,,,
1739356265.178542,1739356265.178958,120.000000,0.000000,4280.897461,4225.769043,4251.666504,4227.692383,4202.820313,4255.256348,4193.077148,4253.717773,4171.666504,4179.487305,4381.282227,4583.205078,4364.358887,4428.717773,5818.000000,0.000000,11.000000,,,,0.000000,4.000000,4.000000,4.000000,4.000000,4.000000,4.000000,4.000000,4.000000,4.000000,4.000000,4.000000,4.000000,4.000000,4.000000,100.000000,,,,,,,,,,,,,,,,,30.000000,0.000000,0.725963,-0.114319,-0.677795,-0.022400,0.960078,-0.131364,0.118178,-41.647232,-29.012920,44.519714,,,,,,,,,,,,,,,,,,,,,,,,,,,,,,,,3.097029,1.899435,1.894523,2.707110,4.826360,1.703874,1.481228,1.926303,2.395454,4.281085,1.526861,1.225294,1.872219,1.878152,3.906372,66.792900,8.183994,4.683262,2.316059,4.666776,0.934910,0.842094,1.069906,2.061122,3.621513,0.682949,0.446610,0.866439,2.113305,3.826134,0.773287,0.944084,1.546389,2.514719,4.153794,1.715380,0.916742,0.315517,0.333061,0.780689,1.115352,0.653715,1.955640,2.536426,4.181393,1.061244,1.126147,2.399776,3.088746,4.813981,27.160667,5.501603,3.779673,3.229361,4.517995,3.038095,1.487738,2.403879,3.261890,5.897300,3.583370,1.692667,1.465332,1.736475,3.555233,1.711479,1.107458,1.801836,2.819191,4.258149
1739356265.186350,1739356265.186766,121.000000,0.000000,4283.974121,4225.769043,4256.153809,4227.051270,4206.410156,4261.153809,4198.589844,4262.179688,4176.025879,4180.769043,4393.846191,4582.179688,4371.922852,4435.384766,6676.000000,0.000000,11.000000,,,,0.000000,4.000000,4.000000,4.000000,4.000000,4.000000,4.000000,4.000000,4.000000,4.000000,4.000000,4.000000,4.000000,4.000000,4.000000,100.000000,,,,,,,,,,,,,,,,,,,,,,,,,,,,,,,,,,,,,,,,,,,,,,,,,,,,,,,,,,,,,,,,,,,,,,,,,,,,,,,,,,,,,,,,,,,,,,,,,,,,,,,,,,,,,,,,,,,,,,,,,,,,,,,,,
1739356265.194158,1739356265.194475,122.000000,0.000000,4333.846191,4269.615234,4303.333496,4272.179688,4251.922852,4308.717773,4253.974121,4285.384766,4239.487305,4246.666504,4454.230957,4639.615234,4419.743652,4485.384766,5038.000000,0.000000,11.000000,,,,0.000000,4.000000,4.000000,4.000000,4.000000,4.000000,4.000000,4.000000,4.000000,4.000000,4.000000,4.000000,4.000000,4.000000,4.000000,100.000000,,,,,,,,,,,,,,,,,,,,,,,,,,,,,,,,,,,,,,,,,,,,,,,,,,,,,,,,,,,,,,,,,,,,,,,,,,,,,,,,,,,,,,,,,,,,,,,,,,,,,,,,,,,,,,,,,,,,,,,,,,,,,,,,,
1739356265.201966,1739356265.202383,123.000000,0.000000,4326.922852,4264.871582,4299.102539,4267.051270,4248.589844,4307.563965,4261.282227,4283.077148,4245.128418,4252.179688,4449.487305,4631.666504,4408.846191,4478.589844,5799.000000,0.000000,11.000000,,,,0.000000,4.000000,4.000000,4.000000,4.000000,4.000000,4.000000,4.000000,4.000000,4.000000,4.000000,4.000000,4.000000,4.000000,4.000000,100.000000,,,,,,,,,,,,,,,,,,,,,,,,,,,,,,,,,,,,,,,,,,,,,,,,,,,,,,,,,,,,,,,,,,,,,,,,,,,,,,,,,,,,,,,,,,,,,,,,,,,,,,,,,,,,,,,,,,,,,,,,,,,,,,,,,
1739356265.209774,1739356265.210191,124.000000,0.000000,4296.410156,4239.615234,4273.077148,4233.333496,4225.128418,4280.128418,4229.358887,4270.384766,4214.102539,4221.922852,4414.743652,4590.128418,4380.769043,4452.179688,5818.000000,0.000000,11.000000,,,,0.000000,4.000000,4.000000,4.000000,4.000000,4.000000,4.000000,4.000000,4.000000,4.000000,4.000000,4.000000,4.000000,4.000000,4.000000,100.000000,,,,,,,,,,,,,,,,,31.000000,0.000000,0.727347,-0.110596,-0.676819,-0.025513,0.994262,-0.095715,0.128922,-41.882511,-28.628294,44.484409,,,,,,,,,,,,,,,,,,,,,,,,,,,,,,,,,,,,,,,,,,,,,,,,,,,,,,,,,,,,,,,,,,,,,,,,,,,,,,,,,,,,,,,,,,,,,,,,,,,,,
1739356265.217582,1739356265.218099,125.000000,0.000000,4286.153809,4230.641113,4267.179688,4221.666504,4216.666504,4263.974121,4204.871582,4266.538574,4201.153809,4209.102539,4412.179688,4568.333496,4383.717773,4441.025879,6676.000000,0.000000,11.000000,,,,0.000000,4.000000,4.000000,4.000000,4.000000,4.000000,4.000000,4.000000,4.000000,4.000000,4.000000,4.000000,4.000000,4.000000,4.000000,100.000000,,,,,,,,,,,,,,,,,,,,,,,,,,,,,,,,,,,,,,,,,,,,,,,,,,,,,,,,,,,,,,,,,,,,,,,,,,,,,,,,,,,,,,,,,,,,,,,,,,,,,,,,,,,,,,,,,,,,,,,,,,,,,,,,,
1739356265.225390,1739356265.225907,126.000000,0.000000,4290.128418,4235.641113,4270.512695,4233.846191,4217.436035,4267.051270,4207.692383,4271.025879,4208.077148,4210.769043,4431.794922,4562.563965,4393.717773,4438.461426,5038.000000,0.000000,11.000000,,,,0.000000,4.000000,4.000000,4.000000,4.000000,4.000000,4.000000,4.000000,4.000000,4.000000,4.000000,4.000000,4.000000,4.000000,4.000000,100.000000,,,,,,,,,,,,,,,,,,,,,,,,,,,,,,,,,,,,,,,,,,,,,,,,,,,,,,,,,,,,,,,,,,,,,,,,,,,,,,,,,,,,,,,,,,,,,,,,,,,,,,,,,,,,,,,,,,,,,,,,,,,,,,,,,
1739356265.233199,1739356265.233815,127.000000,0.000000,4313.461426,4260.384766,4290.000000,4259.358887,4235.128418,4290.256348,4237.436035,4278.461426,4232.692383,4235.384766,4458.589844,4584.230957,4411.282227,4463.717773,11.000000,0.000000,11.000000,,,,0.000000,4.000000,4.000000,4.000000,4.000000,4.000000,4.000000,4.000000,4.000000,4.000000,4.000000,4.000000,4.000000,4.000000,4.000000,100.000000,,,,,,,,,,,,,,,,,,,,,,,,,,,,,,,,,,,,,,,,,,,,,,,,,,,,,,,,,,,,,,,,,,,,,,,,,,,,,,,,,,,,,,,,,,,,,,,,,,,,,,,,,,,,,,,,,,,,,,,,,,,,,,,,,
1739356265.241006,1739356265.241623,0.000000,0.000000,4318.205078,4264.102539,4295.384766,4257.948730,4239.487305,4296.025879,4240.897461,4276.922852,4238.846191,4245.769043,4463.205078,4590.384766,4418.205078,4473.846191,5126.000000,0.000000,11.000000,,,,0.000000,4.000000,4.000000,4.000000,4.000000,4.000000,4.000000,4.000000,4.000000,4.000000,4.000000,4.000000,4.000000,4.000000,4.000000,100.000000,,,,,,,,,,,,,,,,,0.000000,0.000000,0.727779,-0.108459,-0.676636,-0.027161,1.015749,-0.083995,0.106458,-41.994259,-28.465466,44.452637,,,,,,,,,,,,,,,,,,,,,,,,,,,,,,,,,,,,,,,,,,,,,,,,,,,,,,,,,,,,,,,,,,,,,,,,,,,,,,,,,,,,,,,,,,,,,,,,,,,,,
1739356265.248814,1739356265.249532,1.000000,0.000000,4284.615234,4230.641113,4261.410156,4224.487305,4213.717773,4268.461426,4204.487305,4265.641113,4208.205078,4213.077148,4432.307617,4548.974121,4393.589844,4437.051270,5659.000000,0.000000,11.000000,,,,0.000000,4.000000,4.000000,4.000000,4.000000,4.000000,4.000000,4.000000,4.000000,4.000000,4.000000,4.000000,4.000000,4.000000,4.000000,100.000000,,,,,,,,,,,,,,,,,,,,,,,,,,,,,,,,,,,,,,,,,,,,,,,,,,,,,,,,,,,,,,,,,,,,,,,,,,,,,,,,,,,,,,,,,,,,,,,,,,,,,,,,,,,,,,,,,,,,,,,,,,,,,,,,,
1739356265.256623,1739356265.257340,2.000000,0.000000,4292.948730,4242.563965,4264.358887,4234.102539,4222.179688,4271.538574,4206.282227,4268.077148,4216.153809,4216.666504,4441.282227,4551.922852,4401.025879,4441.410156,5674.000000,0.000000,11.000000,,,,0.000000,4.000000,4.000000,4.000000,4.000000,4.000000,4.000000,4.000000,4.000000,4.000000,4.000000,4.000000,4.000000,4.000000,4.000000,100.000000,,,,,,,,,,,,,,,,,,,,,,,,,,,,,,,,,,,,,,,,,,,,,,,,,,,,,,,,,,,,,,,,,,,,,,,,,,,,,,,,,,,,,,,,,,,,,,,,,,,,,,,,,,,,,,,,,,,,,,,,,,,,,,,,,
1739356265.264431,1739356265.265248,3.000000,0.000000,4330.128418,4282.051270,4302.179688,4272.692383,4250.384766,4297.692383,4238.974121,4277.179688,4250.000000,4251.922852,4479.743652,4592.692383,4428.717773,4475.384766,5606.000000,0.000000,11.000000,,,,0.000000,4.000000,4.000000,4.000000,4.000000,4.000000,4.000000,4.000000,4.000000,4.000000,4.000000,4.000000,4.000000,4.000000,4.000000,100.000000,,,,,,,,,,,,,,,,,,,,,,,,,,,,,,,,,,,,,,,,,,,,,,,,,,,,,,,,,,,,,,,,,,,,,,,,,,,,,,,,,,,,,,,,,,,,,,,,,,,,,,,,,,,,,,,,,,,,,,,,,,,,,,,,,
1739356265.272239,1739356265.273056,4.000000,0.000000,4320.512695,4269.615234,4297.948730,4268.333496,4242.692383,4296.794922,4240.512695,4271.025879,4238.077148,4245.128418,4476.922852,4589.230957,4420.000000,4465.512695,5572.000000,0.000000,11.000000,,,,0.000000,4.000000,4.000000,4.000000,4.000000,4.000000,4.000000,4.000000,4.000000,4.000000,4.000000,4.000000,4.000000,4.000000,4.000000,100.000000,,,,,,,,,,,,,,,,,1.000000,0.000000,0.727889,-0.105469,-0.676880,-0.029785,1.050910,-0.073251,0.089855,-42.078167,-28.368919,44.524040,,,,,,,,,,,,,,,,,,,,,,,,,,,,,,,,,,,,,,,,,,,,,,,,,,,,,,,,,,,,,,,,,,,,,,,,,,,,,,,,,,,,,,,,,,,,,,,,,,,,,
1739356265.280047,1739356265.280964,5.000000,0.000000,4294.358887,4241.538574,4274.487305,4241.153809,4225.000000,4280.128418,4223.974121,4258.717773,4211.794922,4224.487305,4451.922852,4566.153809,4398.589844,4444.743652,5534.000000,0.000000,11.000000,,,,0.000000,4.000000,4.000000,4.000000,4.000000,4.000000,4.000000,4.000000,4.000000,4.000000,4.000000,4.000000,4.000000,4.000000,4.000000,100.000000,,,,,,,,,,,,,,,,,,,,,,,,,,,,,,,,,,,,,,,,,,,,,,,,,,,,,,,,,,,,,,,,,,,,,,,,,,,,,,,,,,,,,,,,,,,,,,,,,,,,,,,,,,,,,,,,,,,,,,,,,,,,,,,,,
1739356265.287855,1739356265.288772,6.000000,0.000000,4291.025879,4239.743652,4276.025879,4237.563965,4226.666504,4275.897461,4223.974121,4258.333496,4216.410156,4230.384766,4447.051270,4570.128418,4385.897461,4444.487305,5511.000000,0.000000,11.000000,,,,0.000000,4.000000,4.000000,4.000000,4.000000,4.000000,4.000000,4.000000,4.000000,4.000000,4.000000,4.000000,4.000000,4.000000,4.000000,100.000000,,,,,,,,,,,,,,,,,,,,,,,,,,,,,,,,,,,,,,,,,,,,,,,,,,,,,,,,,,,,,,,,,,,,,,,,,,,,,,,,,,,,,,,,,,,,,,,,,,,,,,,,,,,,,,,,,,,,,,,,,,,,,,,,,
1739356265.295663,1739356265.296680,7.000000,0.000000,4293.717773,4245.000000,4279.743652,4248.461426,4232.436035,4286.538574,4230.897461,4266.666504,4226.025879,4240.128418,4457.307617,4580.000000,4386.153809,4444.358887,2109.000000,0.000000,11.000000,,,,0.000000,4.000000,4.000000,4.000000,4.000000,4.000000,4.000000,4.000000,4.000000,4.000000,4.000000,4.000000,4.000000,4.000000,4.000000,100.000000,,,,,,,,,,,,,,,,,,,,,,,,,,,,,,,,,,,,,,,,,,,,,,,,,,,,,,,,,,,,,,,,,,,,,,,,,,,,,,,,,,,,,,,,,,,,,,,,,,,,,,,,,,,,,,,,,,,,,,,,,,,,,,,,,
1739356265.303471,1739356265.304488,8.000000,0.000000,4314.230957,4265.641113,4285.897461,4268.333496,4241.538574,4303.974121,4242.179688,4269.743652,4236.666504,4257.436035,4479.743652,4593.974121,4422.563965,4462.563965,5310.000000,0.000000,11.000000,,,,0.000000,4.000000,4.000000,4.000000,4.000000,4.000000,4.000000,4.000000,4.000000,4.000000,4.000000,4.000000,4.000000,4.000000,4.000000,100.000000,1.000000,8.333333,1.000000,1.000000,1.000000,0.000000,1.000000,1.000000,1.000000,4.000000,3.000000,1.000000,0.000000,1.000000,1.000000,1.000000,2.000000,0.000000,0.727343,-0.104065,-0.677612,-0.031372,1.014772,-0.054694,0.070321,-42.153683,-28.282026,44.504967,,,,,,,,,,,,,,,,,,,,,,,,,,,,,,,,2.781780,1.699084,1.965480,2.741368,5.013244,1.843093,1.528805,2.055294,2.435155,4.625722,1.649512,1.355861,1.922180,1.973528,4.194567,52.897739,6.586870,4.272227,2.417573,5.144953,0.840396,0.811875,1.043854,2.054518,3.791138,0.557204,0.364176,0.805808,2.139499,4.010621,0.794836,0.726505,1.293577,2.533994,4.427973,2.276069,1.205011,0.416752,0.342926,0.834889,0.958222,0.611776,1.771358,2.503503,4.515226,0.907695,1.140877,2.386497,3.054830,5.161045,15.117112,4.483163,3.610705,3.330119,4.811285,2.431515,1.676867,2.371905,3.343419,6.248315,3.451372,1.898031,1.688143,1.732624,3.783656,1.419101,1.195425,1.904623,2.908664,4.558134
1739356265.311279,1739356265.312196,9.000000,0.000000,4314.358887,4262.563965,4278.846191,4260.897461,4232.692383,4290.384766,4229.487305,4256.025879,4228.205078,4257.051270,4480.512695,4586.410156,4437.307617,4462.051270,5656.000000,0.000000,11.000000,,,,0.000000,4.000000,4.000000,4.000000,4.000000,4.000000,4.000000,4.000000,4.000000,4.000000,4.000000,4.000000,4.000000,4.000000,4.000000,100.000000,,,,,,,,,,,,,,,,,,,,,,,,,,,,,,,,,,,,,,,,,,,,,,,,,,,,,,,,,,,,,,,,,,,,,,,,,,,,,,,,,,,,,,,,,,,,,,,,,,,,,,,,,,,,,,,,,,,,,,,,,,,,,,,,,
1739356265.319087,1739356265.320004,10.000000,0.000000,4287.179688,4235.128418,4257.692383,4236.410156,4215.384766,4265.897461,4202.820313,4246.025879,4204.358887,4235.512695,4458.974121,4568.717773,4413.077148,4434.743652,4941.000000,0.000000,11.000000,,,,0.000000,4.000000,4.000000,4.000000,4.000000,4.000000,4.000000,4.000000,4.000000,4.000000,4.000000,4.000000,4.000000,4.000000,4.000000,100.000000,,,,,,,,,,,,,,,,,,,,,,,,,,,,,,,,,,,,,,,,,,,,,,,,,,,,,,,,,,,,,,,,,,,,,,,,,,,,,,,,,,,,,,,,,,,,,,,,,,,,,,,,,,,,,,,,,,,,,,,,,,,,,,,,,
1739356265.326895,1739356265.327712,11.000000,0.000000,4300.000000,4247.436035,4270.897461,4256.282227,4227.948730,4282.692383,4213.077148,4252.692383,4211.666504,4247.820313,4465.512695,4595.000000,4420.384766,4447.563965,5686.000000,0.000000,11.000000,,,,0.000000,4.000000,4.000000,4.000000,4.000000,4.000000,4.000000,4.000000,4.000000,4.000000,4.000000,4.000000,4.000000,4.000000,4.000000,100.000000,,,,,,,,,,,,,,,,,,,,,,,,,,,,,,,,,,,,,,,,,,,,,,,,,,,,,,,,,,,,,,,,,,,,,,,,,,,,,,,,,,,,,,,,,,,,,,,,,,,,,,,,,,,,,,,,,,,,,,,,,,,,,,,,,
1739356265.334704,1739356265.335620,12.000000,0.000000,4323.974121,4265.769043,4296.538574,4286.794922,4240.128418,4301.794922,4230.384766,4258.846191,4229.487305,4271.025879,4484.615234,4627.563965,4441.410156,4471.025879,5693.000000,0.000000,11.000000,,,,0.000000,4.000000,4.000000,4.000000,4.000000,4.000000,4.000000,4.000000,4.000000,4.000000,4.000000,4.000000,4.000000,4.000000,4.000000,100.000000,,,,,,,,,,,,,,,,,3.000000,0.000000,0.726657,-0.104065,-0.678345,-0.031433,0.942010,-0.086436,0.061043,-42.221649,-28.087158,44.354473,,,,,,,,,,,,,,,,,,,,,,,,,,,,,,,,,,,,,,,,,,,,,,,,,,,,,,,,,,,,,,,,,,,,,,,,,,,,,,,,,,,,,,,,,,,,,,,,,,,,,
1739356265.342512,1739356265.343429,13.000000,0.000000,4299.358887,4239.743652,4278.077148,4268.846191,4223.846191,4279.230957,4212.051270,4251.666504,4215.128418,4250.897461,4472.051270,4611.025879,4421.410156,4448.077148,6529.000000,0.000000,11.000000,,,,0.000000,4.000000,4.000000,4.000000,4.000000,4.000000,4.000000,4.000000,4.000000,4.000000,4.000000,4.000000,4.000000,4.000000,4.000000,100.000000,,,,,,,,,,,,,,,,,,,,,,,,,,,,,,,,,,,,,,,,,,,,,,,,,,,,,,,,,,,,,,,,,,,,,,,,,,,,,,,,,,,,,,,,,,,,,,,,,,,,,,,,,,,,,,,,,,,,,,,,,,,,,,,,,
1739356265.350320,1739356265.351337,14.000000,0.000000,4277.820313,4228.205078,4258.333496,4249.230957,4216.025879,4264.358887,4198.589844,4247.820313,4201.538574,4232.051270,4457.692383,4594.230957,4405.512695,4429.615234,4941.000000,0.000000,11.000000,,,,0.000000,4.000000,4.000000,4.000000,4.000000,4.000000,4.000000,4.000000,4.000000,4.000000,4.000000,4.000000,4.000000,4.000000,4.000000,100.000000,,,,,,,,,,,,,,,,,,,,,,,,,,,,,,,,,,,,,,,,,,,,,,,,,,,,,,,,,,,,,,,,,,,,,,,,,,,,,,,,,,,,,,,,,,,,,,,,,,,,,,,,,,,,,,,,,,,,,,,,,,,,,,,,,
1739356265.358128,1739356265.359145,15.000000,0.000000,4306.666504,4264.230957,4283.717773,4277.307617,4240.000000,4292.820313,4228.333496,4259.743652,4227.179688,4265.000000,4484.615234,4627.051270,4430.512695,4459.230957,5686.000000,0.000000,11.000000,,,,0.000000,4.000000,4.000000,4.000000,4.000000,4.000000,4.000000,4.000000,4.000000,4.000000,4.000000,4.000000,4.000000,4.000000,4.000000,100.000000,,,,,,,,,,,,,,,,,,,,,,,,,,,,,,,,,,,,,,,,,,,,,,,,,,,,,,,,,,,,,,,,,,,,,,,,,,,,,,,,,,,,,,,,,,,,,,,,,,,,,,,,,,,,,,,,,,,,,,,,,,,,,,,,,
1739356265.365936,1739356265.366953,16.000000,0.000000,4331.410156,4284.230957,4308.846191,4307.179688,4261.025879,4317.692383,4258.461426,4270.128418,4254.102539,4293.717773,4517.948730,4664.102539,4448.333496,4486.922852,0.000000,0.000000,11.000000,,,,0.000000,4.000000,4.000000,4.000000,4.000000,4.000000,4.000000,4.000000,4.000000,4.000000,4.000000,4.000000,4.000000,4.000000,4.000000,100.000000,,,,,,,,,,,,,,,,,4.000000,0.000000,0.726227,-0.104431,-0.678772,-0.030945,0.923941,-0.118178,0.084971,-42.332817,-27.911776,44.219025,,,,,,,,,,,,,,,,,,,,,,,,,,,,,,,,,,,,,,,,,,,,,,,,,,,,,,,,,,,,,,,,,,,,,,,,,,,,,,,,,,,,,,,,,,,,,,,,,,,,,
1739356265.373744,1739356265.374661,17.000000,0.000000,4315.897461,4271.282227,4299.487305,4299.230957,4255.256348,4306.538574,4252.948730,4264.615234,4241.922852,4275.128418,4515.128418,4657.051270,4430.769043,4475.512695,0.000000,0.000000,11.000000,,,,0.000000,4.000000,4.000000,4.000000,4.000000,4.000000,4.000000,4.000000,4.000000,4.000000,4.000000,4.000000,4.000000,4.000000,4.000000,100.000000,,,,,,,,,,,,,,,,,,,,,,,,,,,,,,,,,,,,,,,,,,,,,,,,,,,,,,,,,,,,,,,,,,,,,,,,,,,,,,,,,,,,,,,,,,,,,,,,,,,,,,,,,,,,,,,,,,,,,,,,,,,,,,,,,
1739356265.381552,1739356265.382469,18.000000,0.000000,4293.205078,4259.743652,4281.282227,4279.358887,4238.333496,4288.461426,4234.743652,4258.846191,4220.769043,4255.128418,4500.769043,4633.846191,4413.205078,4453.077148,0.000000,0.000000,11.000000,,,,0.000000,4.000000,4.000000,4.000000,4.000000,4.000000,4.000000,4.000000,4.000000,4.000000,4.000000,4.000000,4.000000,4.000000,4.000000,100.000000,,,,,,,,,,,,,,,,,,,,,,,,,,,,,,,,,,,,,,,,,,,,,,,,,,,,,,,,,,,,,,,,,,,,,,,,,,,,,,,,,,,,,,,,,,,,,,,,,,,,,,,,,,,,,,,,,,,,,,,,,,,,,,,,,
1739356265.389360,1739356265.390177,19.000000,0.000000,4288.846191,4253.717773,4280.384766,4279.102539,4233.333496,4289.487305,4231.025879,4266.666504,4223.205078,4259.615234,4504.743652,4633.333496,4417.820313,4450.256348,0.000000,0.000000,11.000000,,,,0.000000,4.000000,4.000000,4.000000,4.000000,4.000000,4.000000,4.000000,4.000000,4.000000,4.000000,4.000000,4.000000,4.000000,4.000000,100.000000,,,,,,,,,,,,,,,,,,,,,,,,,,,,,,,,,,,,,,,,,,,,,,,,,,,,,,,,,,,,,,,,,,,,,,,,,,,,,,,,,,,,,,,,,,,,,,,,,,,,,,,,,,,,,,,,,,,,,,,,,,,,,,,,,
1739356265.397168,1739356265.397985,20.000000,0.000000,4294.743652,4250.641113,4290.769043,4292.692383,4238.461426,4299.230957,4241.025879,4273.846191,4238.461426,4271.538574,4521.025879,4647.051270,4426.282227,4461.666504,0.000000,0.000000,11.000000,,,,0.000000,4.000000,4.000000,4.000000,4.000000,4.000000,4.000000,4.000000,4.000000,4.000000,4.000000,4.000000,4.000000,4.000000,4.000000,100.000000,,,,,,,,,,,,,,,,,5.000000,0.000000,0.727001,-0.104919,-0.677856,-0.031189,0.953241,-0.113295,0.109877,-42.399536,-27.720598,44.413788,,,,,,,,,,,,,,,,,,,,,,,,,,,,,,,,,,,,,,,,,,,,,,,,,,,,,,,,,,,,,,,,,,,,,,,,,,,,,,,,,,,,,,,,,,,,,,,,,,,,,
1739356265.404976,1739356265.405693,21.000000,0.000000,4291.794922,4254.102539,4292.436035,4292.563965,4234.615234,4291.410156,4235.384766,4268.333496,4232.563965,4263.974121,4519.487305,4639.743652,4413.333496,4461.025879,0.000000,0.000000,11.000000,,,,0.000000,4.000000,4.000000,4.000000,4.000000,4.000000,4.000000,4.000000,4.000000,4.000000,4.000000,4.000000,4.000000,4.000000,4.000000,100.000000,,,,,,,,,,,,,,,,,,,,,,,,,,,,,,,,,,,,,,,,,,,,,,,,,,,,,,,,,,,,,,,,,,,,,,,,,,,,,,,,,,,,,,,,,,,,,,,,,,,,,,,,,,,,,,,,,,,,,,,,,,,,,,,,,
1739356265.412784,1739356265.413501,22.000000,0.000000,4285.897461,4259.615234,4289.358887,4285.000000,4229.230957,4278.077148,4224.615234,4266.538574,4221.282227,4253.717773,4508.077148,4627.948730,4401.666504,4457.948730,0.000000,0.000000,11.000000,,,,0.000000,4.000000,4.000000,4.000000,4.000000,4.000000,4.000000,4.000000,4.000000,4.000000,4.000000,4.000000,4.000000,4.000000,4.000000,100.000000,,,,,,,,,,,,,,,,,,,,,,,,,,,,,,,,,,,,,,,,,,,,,,,,,,,,,,,,,,,,,,,,,,,,,,,,,,,,,,,,,,,,,,,,,,,,,,,,,,,,,,,,,,,,,,,,,,,,,,,,,,,,,,,,,
1739356265.420592,1739356265.421209,23.000000,0.000000,4274.230957,4245.128418,4285.512695,4276.410156,4225.128418,4280.384766,4231.410156,4272.820313,4221.538574,4256.922852,4505.256348,4624.871582,4401.410156,4455.384766,0.000000,0.000000,11.000000,,,,0.000000,4.000000,4.000000,4.000000,4.000000,4.000000,4.000000,4.000000,4.000000,4.000000,4.000000,4.000000,4.000000,4.000000,4.000000,100.000000,,,,,,,,,,,,,,,,,,,,,,,,,,,,,,,,,,,,,,,,,,,,,,,,,,,,,,,,,,,,,,,,,,,,,,,,,,,,,,,,,,,,,,,,,,,,,,,,,,,,,,,,,,,,,,,,,,,,,,,,,,,,,,,,,
1739356265.428400,1739356265.429017,24.000000,0.000000,4262.307617,4229.487305,4281.410156,4265.897461,4220.512695,4282.436035,4232.563965,4275.256348,4223.333496,4262.307617,4511.794922,4619.102539,4401.794922,4447.307617,0.000000,0.000000,11.000000,,,,0.000000,4.000000,4.000000,4.000000,4.000000,4.000000,4.000000,4.000000,4.000000,4.000000,4.000000,4.000000,4.000000,4.000000,4.000000,100.000000,,,,,,,,,,,,,,,,,6.000000,0.000000,0.728357,-0.106506,-0.676147,-0.031250,1.031376,-0.125015,0.112318,-42.426247,-27.681871,44.555744,,,,,,,,,,,,,,,,,,,,,,,,,,,,,,,,2.595958,1.659220,2.095320,2.770981,5.101871,2.097192,1.679422,2.197541,2.508553,4.843264,1.946361,1.552410,2.012219,2.083859,4.368936,37.603455,5.074440,3.694005,2.509605,5.394877,0.798977,0.776757,1.022552,2.036375,3.837662,0.453282,0.337601,0.804358,2.162480,4.059192,0.932126,0.670399,1.186136,2.551072,4.603206,2.858322,1.590405,0.559076,0.353153,0.863364,0.875238,0.618240,1.635511,2.520860,4.756860,0.780709,1.179231,2.437414,3.063593,5.448347,10.884221,4.094076,3.496175,3.353930,5.056951,2.143991,1.889531,2.401577,3.428528,6.468146,3.256427,2.100925,1.929098,1.703070,3.962161,1.261826,1.357313,2.042464,2.958053,4.774374
1739356265.436209,1739356265.436725,25.000000,0.000000,4250.641113,4220.897461,4271.922852,4249.358887,4205.256348,4258.589844,4203.333496,4270.128418,4206.410156,4240.256348,4503.974121,4597.692383,4388.077148,4431.922852,0.000000,0.000000,11.000000,,,,0.000000,4.000000,4.000000,4.000000,4.000000,4.000000,4.000000,4.000000,4.000000,4.000000,4.000000,4.000000,4.000000,4.000000,4.000000,100.000000,,,,,,,,,,,,,,,,,,,,,,,,,,,,,,,,,,,,,,,,,,,,,,,,,,,,,,,,,,,,,,,,,,,,,,,,,,,,,,,,,,,,,,,,,,,,,,,,,,,,,,,,,,,,,,,,,,,,,,,,,,,,,,,,,
1739356265.444017,1739356265.444634,26.000000,0.000000,4252.436035,4223.717773,4281.666504,4251.153809,4206.538574,4255.256348,4201.153809,4273.205078,4200.512695,4226.410156,4509.102539,4601.153809,4382.948730,4437.563965,0.000000,0.000000,11.000000,,,,0.000000,4.000000,4.000000,4.000000,4.000000,4.000000,4.000000,4.000000,4.000000,4.000000,4.000000,4.000000,4.000000,4.000000,4.000000,100.000000,,,,,,,,,,,,,,,,,,,,,,,,,,,,,,,,,,,,,,,,,,,,,,,,,,,,,,,,,,,,,,,,,,,,,,,,,,,,,,,,,,,,,,,,,,,,,,,,,,,,,,,,,,,,,,,,,,,,,,,,,,,,,,,,,
1739356265.451825,1739356265.452442,27.000000,0.000000,4272.051270,4240.384766,4307.436035,4271.153809,4235.000000,4286.794922,4239.487305,4287.436035,4224.358887,4253.461426,4541.282227,4635.641113,4399.358887,4465.769043,0.000000,0.000000,11.000000,,,,0.000000,4.000000,4.000000,4.000000,4.000000,4.000000,4.000000,4.000000,4.000000,4.000000,4.000000,4.000000,4.000000,4.000000,4.000000,100.000000,,,,,,,,,,,,,,,,,,,,,,,,,,,,,,,,,,,,,,,,,,,,,,,,,,,,,,,,,,,,,,,,,,,,,,,,,,,,,,,,,,,,,,,,,,,,,,,,,,,,,,,,,,,,,,,,,,,,,,,,,,,,,,,,,
1739356265.459633,1739356265.460350,28.000000,0.000000,4272.563965,4238.717773,4310.384766,4267.307617,4240.128418,4293.589844,4246.282227,4287.307617,4231.794922,4267.179688,4547.051270,4637.179688,4398.846191,4469.743652,0.000000,0.000000,11.000000,,,,0.000000,4.000000,4.000000,4.000000,4.000000,4.000000,4.000000,4.000000,4.000000,4.000000,4.000000,4.000000,4.000000,4.000000,4.000000,100.000000,,,,,,,,,,,,,,,,,7.000000,0.000000,0.728720,-0.107544,-0.675598,-0.031128,1.060676,-0.140642,0.099622,-42.383625,-27.580351,44.483501,,,,,,,,,,,,,,,,,,,,,,,,,,,,,,,,,,,,,,,,,,,,,,,,,,,,,,,,,,,,,,,,,,,,,,,,,,,,,,,,,,,,,,,,,,,,,,,,,,,,,
1739356265.467441,1739356265.468158,29.000000,0.000000,4251.153809,4217.563965,4290.256348,4245.641113,4218.461426,4271.922852,4221.025879,4273.077148,4210.384766,4243.205078,4521.922852,4602.307617,4377.051270,4447.051270,0.000000,0.000000,11.000000,,,,0.000000,4.000000,4.000000,4.000000,4.000000,4.000000,4.000000,4.000000,4.000000,4.000000,4.000000,4.000000,4.000000,4.000000,4.000000,100.000000,,,,,,,,,,,,,,,,,,,,,,,,,,,,,,,,,,,,,,,,,,,,,,,,,,,,,,,,,,,,,,,,,,,,,,,,,,,,,,,,,,,,,,,,,,,,,,,,,,,,,,,,,,,,,,,,,,,,,,,,,,,,,,,,,
1739356265.475249,1739356265.476066,30.000000,0.000000,4244.487305,4213.077148,4285.000000,4244.230957,4214.615234,4265.897461,4217.051270,4274.615234,4201.922852,4230.384766,4523.717773,4593.461426,4372.820313,4445.256348,0.000000,0.000000,11.000000,,,,0.000000,4.000000,4.000000,4.000000,4.000000,4.000000,4.000000,4.000000,4.000000,4.000000,4.000000,4.000000,4.000000,4.000000,4.000000,100.000000,,,,,,,,,,,,,,,,,,,,,,,,,,,,,,,,,,,,,,,,,,,,,,,,,,,,,,,,,,,,,,,,,,,,,,,,,,,,,,,,,,,,,,,,,,,,,,,,,,,,,,,,,,,,,,,,,,,,,,,,,,,,,,,,,
1739356265.483057,1739356265.483874,31.000000,0.000000,4246.922852,4215.897461,4288.717773,4246.922852,4221.153809,4268.333496,4220.897461,4281.410156,4205.128418,4236.538574,4538.589844,4601.794922,4379.230957,4454.487305,0.000000,0.000000,11.000000,,,,0.000000,4.000000,4.000000,4.000000,4.000000,4.000000,4.000000,4.000000,4.000000,4.000000,4.000000,4.000000,4.000000,4.000000,4.000000,100.000000,,,,,,,,,,,,,,,,,,,,,,,,,,,,,,,,,,,,,,,,,,,,,,,,,,,,,,,,,,,,,,,,,,,,,,,,,,,,,,,,,,,,,,,,,,,,,,,,,,,,,,,,,,,,,,,,,,,,,,,,,,,,,,,,,
1739356265.490865,1739356265.491782,32.000000,0.000000,4244.615234,4213.846191,4282.820313,4242.563965,4214.102539,4262.692383,4213.974121,4278.846191,4201.666504,4233.205078,4532.179688,4587.692383,4377.692383,4447.820313,0.000000,0.000000,11.000000,,,,0.000000,4.000000,4.000000,4.000000,4.000000,4.000000,4.000000,4.000000,4.000000,4.000000,4.000000,4.000000,4.000000,4.000000,4.000000,100.000000,,,,,,,,,,,,,,,,,8.000000,0.000000,0.728735,-0.110413,-0.675171,-0.029968,1.042608,-0.124527,0.110853,-42.378593,-27.572315,44.585152,,,,,,,,,,,,,,,,,,,,,,,,,,,,,,,,,,,,,,,,,,,,,,,,,,,,,,,,,,,,,,,,,,,,,,,,,,,,,,,,,,,,,,,,,,,,,,,,,,,,,
1739356265.498673,1739356265.499590,33.000000,0.000000,4246.666504,4220.897461,4278.333496,4247.948730,4209.871582,4257.051270,4207.563965,4277.692383,4202.307617,4226.538574,4527.179688,4574.871582,4382.692383,4445.128418,0.000000,0.000000,11.000000,,,,0.000000,4.000000,4.000000,4.000000,4.000000,4.000000,4.000000,4.000000,4.000000,4.000000,4.000000,4.000000,4.000000,4.000000,4.000000,100.000000,,,,,,,,,,,,,,,,,,,,,,,,,,,,,,,,,,,,,,,,,,,,,,,,,,,,,,,,,,,,,,,,,,,,,,,,,,,,,,,,,,,,,,,,,,,,,,,,,,,,,,,,,,,,,,,,,,,,,,,,,,,,,,,,,
1739356265.506481,1739356265.507298,34.000000,0.000000,4229.743652,4208.205078,4261.666504,4233.589844,4196.025879,4239.358887,4185.512695,4273.717773,4192.179688,4214.358887,4519.487305,4557.820313,4373.077148,4434.487305,0.000000,0.000000,11.000000,,,,0.000000,4.000000,4.000000,4.000000,4.000000,4.000000,4.000000,4.000000,4.000000,4.000000,4.000000,4.000000,4.000000,4.000000,4.000000,100.000000,,,,,,,,,,,,,,,,,,,,,,,,,,,,,,,,,,,,,,,,,,,,,,,,,,,,,,,,,,,,,,,,,,,,,,,,,,,,,,,,,,,,,,,,,,,,,,,,,,,,,,,,,,,,,,,,,,,,,,,,,,,,,,,,,
1739356265.514289,1739356265.515106,35.000000,0.000000,4222.051270,4198.205078,4257.563965,4224.615234,4191.025879,4235.641113,4179.487305,4270.897461,4184.102539,4207.307617,4519.487305,4551.410156,4359.102539,4426.410156,0.000000,0.000000,11.000000,,,,0.000000,4.000000,4.000000,4.000000,4.000000,4.000000,4.000000,4.000000,4.000000,4.000000,4.000000,4.000000,4.000000,4.000000,4.000000,100.000000,,,,,,,,,,,,,,,,,,,,,,,,,,,,,,,,,,,,,,,,,,,,,,,,,,,,,,,,,,,,,,,,,,,,,,,,,,,,,,,,,,,,,,,,,,,,,,,,,,,,,,,,,,,,,,,,,,,,,,,,,,,,,,,,,
1739356265.522097,1739356265.522814,36.000000,0.000000,4242.307617,4218.846191,4274.871582,4246.794922,4208.333496,4253.846191,4200.256348,4274.358887,4193.717773,4214.487305,4537.692383,4568.333496,4370.256348,4437.692383,0.000000,0.000000,11.000000,,,,0.000000,4.000000,4.000000,4.000000,4.000000,4.000000,4.000000,4.000000,4.000000,4.000000,4.000000,4.000000,4.000000,4.000000,4.000000,100.000000,,,,,,,,,,,,,,,,,9.000000,0.000000,0.727740,-0.113770,-0.675781,-0.027771,1.051886,-0.140154,0.089366,-42.224068,-27.631750,44.659969,,,,,,,,,,,,,,,,,,,,,,,,,,,,,,,,,,,,,,,,,,,,,,,,,,,,,,,,,,,,,,,,,,,,,,,,,,,,,,,,,,,,,,,,,,,,,,,,,,,,,
1739356265.529905,1739356265.530622,37.000000,0.000000,4243.974121,4224.102539,4277.307617,4256.410156,4210.384766,4251.922852,4199.487305,4274.102539,4195.769043,4212.307617,4544.615234,4573.461426,4377.051270,4446.282227,0.000000,0.000000,11.000000,,,,0.000000,4.000000,4.000000,4.000000,4.000000,4.000000,4.000000,4.000000,4.000000,4.000000,4.000000,4.000000,4.000000,4.000000,4.000000,100.000000,,,,,,,,,,,,,,,,,,,,,,,,,,,,,,,,,,,,,,,,,,,,,,,,,,,,,,,,,,,,,,,,,,,,,,,,,,,,,,,,,,,,,,,,,,,,,,,,,,,,,,,,,,,,,,,,,,,,,,,,,,,,,,,,,
1739356265.537714,1739356265.538330,38.000000,0.000000,4222.051270,4199.230957,4262.179688,4239.487305,4193.461426,4229.871582,4177.948730,4267.179688,4180.128418,4189.487305,4528.205078,4554.358887,4355.897461,4431.282227,0.000000,0.000000,11.000000,,,,0.000000,4.000000,4.000000,4.000000,4.000000,4.000000,4.000000,4.000000,4.000000,4.000000,4.000000,4.000000,4.000000,4.000000,4.000000,100.000000,,,,,,,,,,,,,,,,,,,,,,,,,,,,,,,,,,,,,,,,,,,,,,,,,,,,,,,,,,,,,,,,,,,,,,,,,,,,,,,,,,,,,,,,,,,,,,,,,,,,,,,,,,,,,,,,,,,,,,,,,,,,,,,,,
1739356265.545522,1739356265.546138,39.000000,0.000000,4226.153809,4205.641113,4270.000000,4242.948730,4200.000000,4235.897461,4186.922852,4269.871582,4179.230957,4186.025879,4532.563965,4558.205078,4354.743652,4429.102539,0.000000,0.000000,11.000000,,,,0.000000,4.000000,4.000000,4.000000,4.000000,4.000000,4.000000,4.000000,4.000000,4.000000,4.000000,4.000000,4.000000,4.000000,4.000000,100.000000,,,,,,,,,,,,,,,,,,,,,,,,,,,,,,,,,,,,,,,,,,,,,,,,,,,,,,,,,,,,,,,,,,,,,,,,,,,,,,,,,,,,,,,,,,,,,,,,,,,,,,,,,,,,,,,,,,,,,,,,,,,,,,,,,
1739356265.553330,1739356265.553846,40.000000,0.000000,4247.307617,4230.769043,4291.153809,4265.384766,4221.153809,4259.487305,4214.487305,4277.051270,4199.358887,4209.487305,4556.282227,4582.307617,4378.077148,4451.666504,0.000000,0.000000,11.000000,,,,0.000000,4.000000,4.000000,4.000000,4.000000,4.000000,4.000000,4.000000,4.000000,4.000000,4.000000,4.000000,4.000000,4.000000,4.000000,100.000000,,,,,,,,,,,,,,,,,10.000000,0.000000,0.726478,-0.117737,-0.676575,-0.024780,1.020632,-0.181663,0.083995,-42.034996,-27.518576,44.777306,,,,,,,,,,,,,,,,,,,,,,,,,,,,,,,,2.513302,1.781982,2.284625,2.755400,5.135898,2.404970,1.813698,2.346617,2.557135,4.933177,2.410581,1.804877,2.083267,2.143393,4.441301,24.850090,3.820876,3.108670,2.532172,5.426991,0.833889,0.747385,0.983355,1.988835,3.803149,0.386696,0.386062,0.799993,2.153774,4.009639,1.159688,0.851726,1.160716,2.523563,4.689340,3.309500,2.012192,0.708303,0.357800,0.873456,0.878671,0.673480,1.525615,2.571247,4.913067,0.682112,1.225448,2.457901,3.102308,5.676362,9.670629,3.921735,3.372038,3.273309,5.265888,2.370235,2.126668,2.442421,3.460189,6.598848,2.884596,2.207601,2.143309,1.670981,4.093564,1.292233,1.531211,2.172782,2.936783,4.918571
1739356265.561138,1739356265.561654,41.000000,0.000000,4251.666504,4228.589844,4289.743652,4267.948730,4219.743652,4256.153809,4220.256348,4274.743652,4205.000000,4211.922852,4558.846191,4580.512695,4377.179688,4459.230957,0.000000,0.000000,11.000000,,,,0.000000,4.000000,4.000000,4.000000,4.000000,4.000000,4.000000,4.000000,4.000000,4.000000,4.000000,4.000000,4.000000,4.000000,4.000000,100.000000,,,,,,,,,,,,,,,,,,,,,,,,,,,,,,,,,,,,,,,,,,,,,,,,,,,,,,,,,,,,,,,,,,,,,,,,,,,,,,,,,,,,,,,,,,,,,,,,,,,,,,,,,,,,,,,,,,,,,,,,,,,,,,,,,
1739356265.568946,1739356265.569362,42.000000,0.000000,4245.897461,4221.666504,4282.051270,4261.666504,4212.563965,4245.256348,4212.563965,4270.128418,4196.666504,4197.820313,4552.307617,4569.743652,4362.820313,4448.461426,0.000000,0.000000,11.000000,,,,0.000000,4.000000,4.000000,4.000000,4.000000,4.000000,4.000000,4.000000,4.000000,4.000000,4.000000,4.000000,4.000000,4.000000,4.000000,100.000000,,,,,,,,,,,,,,,,,,,,,,,,,,,,,,,,,,,,,,,,,,,,,,,,,,,,,,,,,,,,,,,,,,,,,,,,,,,,,,,,,,,,,,,,,,,,,,,,,,,,,,,,,,,,,,,,,,,,,,,,,,,,,,,,,
1739356265.576754,1739356265.577170,43.000000,0.000000,4235.769043,4220.512695,4278.589844,4259.615234,4214.615234,4247.948730,4206.666504,4268.974121,4194.358887,4197.179688,4548.333496,4567.563965,4356.666504,4439.487305,0.000000,0.000000,11.000000,,,,0.000000,4.000000,4.000000,4.000000,4.000000,4.000000,4.000000,4.000000,4.000000,4.000000,4.000000,4.000000,4.000000,4.000000,4.000000,100.000000,,,,,,,,,,,,,,,,,,,,,,,,,,,,,,,,,,,,,,,,,,,,,,,,,,,,,,,,,,,,,,,,,,,,,,,,,,,,,,,,,,,,,,,,,,,,,,,,,,,,,,,,,,,,,,,,,,,,,,,,,,,,,,,,,
1739356265.584562,1739356265.584878,44.000000,0.000000,4232.436035,4222.179688,4277.820313,4265.897461,4218.205078,4251.794922,4209.230957,4270.641113,4201.538574,4202.436035,4550.128418,4568.461426,4357.307617,4442.307617,0.000000,0.000000,11.000000,,,,0.000000,4.000000,4.000000,4.000000,4.000000,4.000000,4.000000,4.000000,4.000000,4.000000,4.000000,4.000000,4.000000,4.000000,4.000000,100.000000,,,,,,,,,,,,,,,,,11.000000,0.000000,0.726093,-0.121521,-0.676392,-0.022705,0.931266,-0.221707,0.084971,-41.931496,-27.400051,44.766243,,,,,,,,,,,,,,,,,,,,,,,,,,,,,,,,,,,,,,,,,,,,,,,,,,,,,,,,,,,,,,,,,,,,,,,,,,,,,,,,,,,,,,,,,,,,,,,,,,,,,
1739356265.592370,1739356265.592686,45.000000,0.000000,4236.025879,4229.615234,4278.077148,4274.358887,4217.948730,4251.666504,4210.256348,4268.974121,4202.563965,4202.179688,4555.769043,4568.589844,4363.589844,4444.615234,0.000000,0.000000,11.000000,,,,0.000000,4.000000,4.000000,4.000000,4.000000,4.000000,4.000000,4.000000,4.000000,4.000000,4.000000,4.000000,4.000000,4.000000,4.000000,100.000000,,,,,,,,,,,,,,,,,,,,,,,,,,,,,,,,,,,,,,,,,,,,,,,,,,,,,,,,,,,,,,,,,,,,,,,,,,,,,,,,,,,,,,,,,,,,,,,,,,,,,,,,,,,,,,,,,,,,,,,,,,,,,,,,,
1739356265.600178,1739356265.600395,46.000000,0.000000,4234.871582,4229.230957,4278.974121,4273.589844,4214.615234,4247.820313,4205.256348,4264.358887,4196.025879,4202.692383,4558.846191,4564.358887,4370.256348,4442.948730,0.000000,0.000000,11.000000,,,,0.000000,4.000000,4.000000,4.000000,4.000000,4.000000,4.000000,4.000000,4.000000,4.000000,4.000000,4.000000,4.000000,4.000000,4.000000,100.000000,,,,,,,,,,,,,,,,,,,,,,,,,,,,,,,,,,,,,,,,,,,,,,,,,,,,,,,,,,,,,,,,,,,,,,,,,,,,,,,,,,,,,,,,,,,,,,,,,,,,,,,,,,,,,,,,,,,,,,,,,,,,,,,,,
1739356265.607986,1739356265.608303,47.000000,0.000000,4255.641113,4238.717773,4296.922852,4289.358887,4227.692383,4254.871582,4219.358887,4270.769043,4214.230957,4222.051270,4577.179688,4582.051270,4379.615234,4464.871582,0.000000,0.000000,11.000000,,,,0.000000,4.000000,4.000000,4.000000,4.000000,4.000000,4.000000,4.000000,4.000000,4.000000,4.000000,4.000000,4.000000,4.000000,4.000000,100.000000,,,,,,,,,,,,,,,,,,,,,,,,,,,,,,,,,,,,,,,,,,,,,,,,,,,,,,,,,,,,,,,,,,,,,,,,,,,,,,,,,,,,,,,,,,,,,,,,,,,,,,,,,,,,,,,,,,,,,,,,,,,,,,,,,
1739356265.615794,1739356265.616111,48.000000,0.000000,4251.794922,4233.461426,4294.615234,4286.410156,4223.333496,4249.871582,4215.769043,4270.384766,4216.794922,4220.000000,4574.615234,4578.077148,4362.948730,4461.794922,0.000000,0.000000,11.000000,,,,0.000000,4.000000,4.000000,4.000000,4.000000,4.000000,4.000000,4.000000,4.000000,4.000000,4.000000,4.000000,4.000000,4.000000,4.000000,100.000000,,,,,,,,,,,,,,,,,12.000000,0.000000,0.726549,-0.124756,-0.675354,-0.021423,0.929313,-0.212428,0.064949,-41.805012,-27.493380,44.839619,,,,,,,,,,,,,,,,,,,,,,,,,,,,,,,,,,,,,,,,,,,,,,,,,,,,,,,,,,,,,,,,,,,,,,,,,,,,,,,,,,,,,,,,,,,,,,,,,,,,,
1739356265.623603,1739356265.624019,49.000000,0.000000,4210.128418,4203.461426,4266.538574,4251.666504,4195.769043,4224.615234,4184.743652,4255.769043,4186.282227,4189.487305,4541.794922,4539.743652,4340.384766,4423.717773,0.000000,0.000000,11.000000,,,,0.000000,4.000000,4.000000,4.000000,4.000000,4.000000,4.000000,4.000000,4.000000,4.000000,4.000000,4.000000,4.000000,4.000000,4.000000,100.000000,,,,,,,,,,,,,,,,,,,,,,,,,,,,,,,,,,,,,,,,,,,,,,,,,,,,,,,,,,,,,,,,,,,,,,,,,,,,,,,,,,,,,,,,,,,,,,,,,,,,,,,,,,,,,,,,,,,,,,,,,,,,,,,,,
1739356265.631410,1739356265.631827,50.000000,0.000000,4231.666504,4227.820313,4290.512695,4271.410156,4215.641113,4241.025879,4205.384766,4260.897461,4196.922852,4203.461426,4558.333496,4560.384766,4371.538574,4445.769043,0.000000,0.000000,11.000000,,,,0.000000,4.000000,4.000000,4.000000,4.000000,4.000000,4.000000,4.000000,4.000000,4.000000,4.000000,4.000000,4.000000,4.000000,4.000000,100.000000,,,,,,,,,,,,,,,,,,,,,,,,,,,,,,,,,,,,,,,,,,,,,,,,,,,,,,,,,,,,,,,,,,,,,,,,,,,,,,,,,,,,,,,,,,,,,,,,,,,,,,,,,,,,,,,,,,,,,,,,,,,,,,,,,
1739356265.639219,1739356265.639735,51.000000,0.000000,4276.538574,4268.717773,4329.487305,4311.538574,4250.641113,4269.102539,4239.230957,4274.230957,4225.641113,4232.436035,4593.846191,4600.128418,4395.384766,4488.974121,0.000000,0.000000,11.000000,,,,0.000000,4.000000,4.000000,4.000000,4.000000,4.000000,4.000000,4.000000,4.000000,4.000000,4.000000,4.000000,4.000000,4.000000,4.000000,100.000000,,,,,,,,,,,,,,,,,,,,,,,,,,,,,,,,,,,,,,,,,,,,,,,,,,,,,,,,,,,,,,,,,,,,,,,,,,,,,,,,,,,,,,,,,,,,,,,,,,,,,,,,,,,,,,,,,,,,,,,,,,,,,,,,,
1739356265.647027,1739356265.647543,52.000000,0.000000,4240.897461,4231.922852,4298.077148,4277.179688,4225.512695,4244.102539,4213.717773,4262.948730,4201.922852,4204.743652,4566.538574,4557.307617,4354.487305,4453.974121,0.000000,0.000000,11.000000,,,,0.000000,4.000000,4.000000,4.000000,4.000000,4.000000,4.000000,4.000000,4.000000,4.000000,4.000000,4.000000,4.000000,4.000000,4.000000,100.000000,,,,,,,,,,,,,,,,,13.000000,0.000000,0.726884,-0.127808,-0.674438,-0.020935,0.941033,-0.233427,0.058113,-41.791180,-27.644041,44.772324,,,,,,,,,,,,,,,,,,,,,,,,,,,,,,,,,,,,,,,,,,,,,,,,,,,,,,,,,,,,,,,,,,,,,,,,,,,,,,,,,,,,,,,,,,,,,,,,,,,,,
1739356265.654835,1739356265.655452,53.000000,0.000000,4207.179688,4201.794922,4272.563965,4241.922852,4200.897461,4224.871582,4196.538574,4252.563965,4184.102539,4182.179688,4543.205078,4520.128418,4335.128418,4424.487305,0.000000,0.000000,11.000000,,,,0.000000,4.000000,4.000000,4.000000,4.000000,4.000000,4.000000,4.000000,4.000000,4.000000,4.000000,4.000000,4.000000,4.000000,4.000000,100.000000,,,,,,,,,,,,,,,,,,,,,,,,,,,,,,,,,,,,,,,,,,,,,,,,,,,,,,,,,,,,,,,,,,,,,,,,,,,,,,,,,,,,,,,,,,,,,,,,,,,,,,,,,,,,,,,,,,,,,,,,,,,,,,,,,
1739356265.662643,1739356265.663260,54.000000,0.000000,4242.692383,4241.410156,4305.897461,4275.000000,4230.769043,4252.563965,4224.358887,4265.769043,4214.487305,4213.717773,4571.025879,4554.871582,4366.025879,4461.025879,0.000000,0.000000,11.000000,,,,0.000000,4.000000,4.000000,4.000000,4.000000,4.000000,4.000000,4.000000,4.000000,4.000000,4.000000,4.000000,4.000000,4.000000,4.000000,100.000000,,,,,,,,,,,,,,,,,,,,,,,,,,,,,,,,,,,,,,,,,,,,,,,,,,,,,,,,,,,,,,,,,,,,,,,,,,,,,,,,,,,,,,,,,,,,,,,,,,,,,,,,,,,,,,,,,,,,,,,,,,,,,,,,,
1739356265.670451,1739356265.671168,55.000000,0.000000,4255.769043,4253.077148,4318.205078,4293.461426,4242.820313,4258.717773,4231.538574,4275.769043,4220.769043,4225.641113,4579.358887,4564.358887,4370.512695,4474.615234,0.000000,0.000000,11.000000,,,,0.000000,4.000000,4.000000,4.000000,4.000000,4.000000,4.000000,4.000000,4.000000,4.000000,4.000000,4.000000,4.000000,4.000000,4.000000,100.000000,,,,,,,,,,,,,,,,,,,,,,,,,,,,,,,,,,,,,,,,,,,,,,,,,,,,,,,,,,,,,,,,,,,,,,,,,,,,,,,,,,,,,,,,,,,,,,,,,,,,,,,,,,,,,,,,,,,,,,,,,,,,,,,,,
1739356265.678259,1739356265.678976,56.000000,0.000000,4225.641113,4218.589844,4296.666504,4271.538574,4215.384766,4231.666504,4211.153809,4275.384766,4198.333496,4201.025879,4560.384766,4531.538574,4350.000000,4450.256348,0.000000,0.000000,11.000000,,,,0.000000,4.000000,4.000000,4.000000,4.000000,4.000000,4.000000,4.000000,4.000000,4.000000,4.000000,4.000000,4.000000,4.000000,4.000000,100.000000,,,,,,,,,,,,,,,,,14.000000,0.000000,0.727235,-0.130249,-0.673584,-0.021179,0.960078,-0.197290,0.062019,-41.762058,-27.629637,44.761757,,,,,,,,,,,,,,,,,,,,,,,,,,,,,,,,2.494932,2.011580,2.477153,2.652772,5.153280,2.691793,1.879610,2.450398,2.519019,4.929172,2.975762,2.070148,2.085728,2.098768,4.444938,16.055733,2.892787,2.601511,2.438802,5.320059,0.929771,0.748732,0.915289,1.890727,3.739230,0.384852,0.515779,0.750001,2.074300,3.918119,1.400594,1.296572,1.137376,2.411287,4.716339,3.577973,2.370481,0.820249,0.349781,0.875078,0.917052,0.774139,1.396069,2.595748,5.001925,0.625577,1.252999,2.347339,3.115207,5.849570,8.184115,3.629837,3.199976,3.078898,5.435628,3.410885,2.369702,2.445695,3.378906,6.690831,2.397195,2.174880,2.270719,1.646624,4.180315,1.467249,1.676719,2.237225,2.820550,5.009109
1739356265.686067,1739356265.686784,57.000000,0.000000,4225.769043,4217.051270,4300.641113,4272.179688,4211.410156,4231.153809,4208.461426,4278.846191,4202.051270,4200.000000,4567.820313,4530.897461,4348.589844,4455.000000,0.000000,0.000000,11.000000,,,,0.000000,4.000000,4.000000,4.000000,4.000000,4.000000,4.000000,4.000000,4.000000,4.000000,4.000000,4.000000,4.000000,4.000000,4.000000,100.000000,,,,,,,,,,,,,,,,,,,,,,,,,,,,,,,,,,,,,,,,,,,,,,,,,,,,,,,,,,,,,,,,,,,,,,,,,,,,,,,,,,,,,,,,,,,,,,,,,,,,,,,,,,,,,,,,,,,,,,,,,,,,,,,,,
1739356265.693875,1739356265.694592,58.000000,0.000000,4248.846191,4239.358887,4319.743652,4292.179688,4231.025879,4248.205078,4223.077148,4282.820313,4215.512695,4215.128418,4586.025879,4552.436035,4356.282227,4476.538574,0.000000,0.000000,11.000000,,,,0.000000,4.000000,4.000000,4.000000,4.000000,4.000000,4.000000,4.000000,4.000000,4.000000,4.000000,4.000000,4.000000,4.000000,4.000000,100.000000,,,,,,,,,,,,,,,,,,,,,,,,,,,,,,,,,,,,,,,,,,,,,,,,,,,,,,,,,,,,,,,,,,,,,,,,,,,,,,,,,,,,,,,,,,,,,,,,,,,,,,,,,,,,,,,,,,,,,,,,,,,,,,,,,
1739356265.701683,1739356265.702500,59.000000,0.000000,4243.974121,4236.025879,4316.282227,4289.358887,4229.871582,4242.436035,4223.461426,4281.025879,4213.205078,4213.461426,4579.230957,4547.948730,4352.692383,4472.051270,0.000000,0.000000,11.000000,,,,0.000000,4.000000,4.000000,4.000000,4.000000,4.000000,4.000000,4.000000,4.000000,4.000000,4.000000,4.000000,4.000000,4.000000,4.000000,100.000000,,,,,,,,,,,,,,,,,,,,,,,,,,,,,,,,,,,,,,,,,,,,,,,,,,,,,,,,,,,,,,,,,,,,,,,,,,,,,,,,,,,,,,,,,,,,,,,,,,,,,,,,,,,,,,,,,,,,,,,,,,,,,,,,,
1739356265.709491,1739356265.710308,60.000000,0.000000,4214.230957,4209.871582,4294.615234,4262.563965,4205.256348,4217.820313,4200.256348,4275.769043,4195.641113,4189.102539,4550.769043,4513.205078,4334.743652,4447.307617,0.000000,0.000000,11.000000,,,,0.000000,4.000000,4.000000,4.000000,4.000000,4.000000,4.000000,4.000000,4.000000,4.000000,4.000000,4.000000,4.000000,4.000000,4.000000,100.000000,,,,,,,,,,,,,,,,,15.000000,0.000000,0.727231,-0.131226,-0.673401,-0.021118,0.998657,-0.193383,0.065926,-41.685856,-27.833340,44.718914,,,,,,,,,,,,,,,,,,,,,,,,,,,,,,,,,,,,,,,,,,,,,,,,,,,,,,,,,,,,,,,,,,,,,,,,,,,,,,,,,,,,,,,,,,,,,,,,,,,,,
1739356265.717299,1739356265.718216,61.000000,0.000000,4214.743652,4210.384766,4297.307617,4264.743652,4207.307617,4223.461426,4205.256348,4282.820313,4199.871582,4186.410156,4548.333496,4509.743652,4336.282227,4452.179688,0.000000,0.000000,11.000000,,,,0.000000,4.000000,4.000000,4.000000,4.000000,4.000000,4.000000,4.000000,4.000000,4.000000,4.000000,4.000000,4.000000,4.000000,4.000000,100.000000,,,,,,,,,,,,,,,,,,,,,,,,,,,,,,,,,,,,,,,,,,,,,,,,,,,,,,,,,,,,,,,,,,,,,,,,,,,,,,,,,,,,,,,,,,,,,,,,,,,,,,,,,,,,,,,,,,,,,,,,,,,,,,,,,
1739356265.725108,1739356265.726024,62.000000,0.000000,4235.256348,4231.410156,4316.666504,4287.051270,4227.179688,4242.307617,4229.230957,4291.922852,4223.717773,4209.358887,4564.871582,4532.436035,4353.077148,4474.615234,0.000000,0.000000,11.000000,,,,0.000000,4.000000,4.000000,4.000000,4.000000,4.000000,4.000000,4.000000,4.000000,4.000000,4.000000,4.000000,4.000000,4.000000,4.000000,100.000000,,,,,,,,,,,,,,,,,,,,,,,,,,,,,,,,,,,,,,,,,,,,,,,,,,,,,,,,,,,,,,,,,,,,,,,,,,,,,,,,,,,,,,,,,,,,,,,,,,,,,,,,,,,,,,,,,,,,,,,,,,,,,,,,,
1739356265.732916,1739356265.733732,63.000000,0.000000,4239.230957,4232.820313,4317.307617,4289.358887,4229.102539,4235.384766,4226.794922,4291.025879,4228.461426,4217.948730,4566.666504,4534.102539,4355.128418,4475.641113,0.000000,0.000000,11.000000,,,,0.000000,4.000000,4.000000,4.000000,4.000000,4.000000,4.000000,4.000000,4.000000,4.000000,4.000000,4.000000,4.000000,4.000000,4.000000,100.000000,,,,,,,,,,,,,,,,,,,,,,,,,,,,,,,,,,,,,,,,,,,,,,,,,,,,,,,,,,,,,,,,,,,,,,,,,,,,,,,,,,,,,,,,,,,,,,,,,,,,,,,,,,,,,,,,,,,,,,,,,,,,,,,,,
1739356265.740724,1739356265.741540,64.000000,0.000000,4243.974121,4233.589844,4318.205078,4291.538574,4230.128418,4238.717773,4228.077148,4291.922852,4220.256348,4217.051270,4567.436035,4531.922852,4358.717773,4477.436035,5015.000000,0.000000,11.000000,,,,0.000000,4.000000,4.000000,4.000000,4.000000,4.000000,4.000000,4.000000,4.000000,4.000000,4.000000,4.000000,4.000000,4.000000,4.000000,100.000000,,,,,,,,,,,,,,,,,16.000000,0.000000,0.726913,-0.131470,-0.673706,-0.020813,0.997680,-0.187035,0.070809,-41.783936,-27.950006,44.697025,,,,,,,,,,,,,,,,,,,,,,,,,,,,,,,,,,,,,,,,,,,,,,,,,,,,,,,,,,,,,,,,,,,,,,,,,,,,,,,,,,,,,,,,,,,,,,,,,,,,,
1739356265.748532,1739356265.749248,65.000000,0.000000,4248.461426,4236.922852,4324.358887,4296.922852,4234.102539,4247.307617,4234.230957,4290.641113,4214.358887,4211.538574,4563.589844,4533.077148,4362.820313,4482.307617,5552.000000,0.000000,11.000000,,,,0.000000,4.000000,4.000000,4.000000,4.000000,4.000000,4.000000,4.000000,4.000000,4.000000,4.000000,4.000000,4.000000,4.000000,4.000000,100.000000,,,,,,,,,,,,,,,,,,,,,,,,,,,,,,,,,,,,,,,,,,,,,,,,,,,,,,,,,,,,,,,,,,,,,,,,,,,,,,,,,,,,,,,,,,,,,,,,,,,,,,,,,,,,,,,,,,,,,,,,,,,,,,,,,
1739356265.756340,1739356265.757056,66.000000,0.000000,4250.897461,4237.051270,4326.794922,4299.743652,4233.846191,4239.358887,4226.922852,4288.974121,4217.948730,4206.025879,4561.794922,4532.563965,4360.641113,4479.487305,5572.000000,0.000000,11.000000,,,,0.000000,4.000000,4.000000,4.000000,4.000000,4.000000,4.000000,4.000000,4.000000,4.000000,4.000000,4.000000,4.000000,4.000000,4.000000,100.000000,,,,,,,,,,,,,,,,,,,,,,,,,,,,,,,,,,,,,,,,,,,,,,,,,,,,,,,,,,,,,,,,,,,,,,,,,,,,,,,,,,,,,,,,,,,,,,,,,,,,,,,,,,,,,,,,,,,,,,,,,,,,,,,,,
1739356265.764148,1739356265.764764,67.000000,0.000000,4252.692383,4239.230957,4326.153809,4300.384766,4230.769043,4231.025879,4217.051270,4290.384766,4222.179688,4206.410156,4570.641113,4529.615234,4355.769043,4475.769043,5509.000000,0.000000,11.000000,,,,0.000000,4.000000,4.000000,4.000000,4.000000,4.000000,4.000000,4.000000,4.000000,4.000000,4.000000,4.000000,4.000000,4.000000,4.000000,100.000000,,,,,,,,,,,,,,,,,,,,,,,,,,,,,,,,,,,,,,,,,,,,,,,,,,,,,,,,,,,,,,,,,,,,,,,,,,,,,,,,,,,,,,,,,,,,,,,,,,,,,,,,,,,,,,,,,,,,,,,,,,,,,,,,,
1739356265.771956,1739356265.772672,68.000000,0.000000,4237.051270,4226.922852,4312.051270,4284.102539,4215.128418,4218.333496,4202.692383,4283.974121,4203.717773,4193.717773,4560.769043,4511.538574,4338.717773,4465.128418,5474.000000,0.000000,11.000000,,,,0.000000,4.000000,4.000000,4.000000,4.000000,4.000000,4.000000,4.000000,4.000000,4.000000,4.000000,4.000000,4.000000,4.000000,4.000000,100.000000,,,,,,,,,,,,,,,,,17.000000,0.000000,0.726479,-0.130737,-0.674316,-0.020813,0.997680,-0.192895,0.060554,-41.805542,-27.988338,44.743988,,,,,,,,,,,,,,,,,,,,,,,,,,,,,,,,,,,,,,,,,,,,,,,,,,,,,,,,,,,,,,,,,,,,,,,,,,,,,,,,,,,,,,,,,,,,,,,,,,,,,
1739356265.779764,1739356265.780480,69.000000,0.000000,4227.948730,4218.974121,4303.077148,4278.974121,4208.974121,4210.512695,4197.948730,4278.077148,4182.179688,4175.384766,4545.512695,4501.153809,4328.077148,4459.487305,5455.000000,0.000000,11.000000,,,,0.000000,4.000000,4.000000,4.000000,4.000000,4.000000,4.000000,4.000000,4.000000,4.000000,4.000000,4.000000,4.000000,4.000000,4.000000,100.000000,,,,,,,,,,,,,,,,,,,,,,,,,,,,,,,,,,,,,,,,,,,,,,,,,,,,,,,,,,,,,,,,,,,,,,,,,,,,,,,,,,,,,,,,,,,,,,,,,,,,,,,,,,,,,,,,,,,,,,,,,,,,,,,,,
1739356265.787572,1739356265.788388,70.000000,0.000000,4242.051270,4232.051270,4314.230957,4299.358887,4227.307617,4225.641113,4221.794922,4287.051270,4192.436035,4180.769043,4555.641113,4514.358887,4336.282227,4468.589844,5425.000000,0.000000,11.000000,,,,0.000000,4.000000,4.000000,4.000000,4.000000,4.000000,4.000000,4.000000,4.000000,4.000000,4.000000,4.000000,4.000000,4.000000,4.000000,100.000000,,,,,,,,,,,,,,,,,,,,,,,,,,,,,,,,,,,,,,,,,,,,,,,,,,,,,,,,,,,,,,,,,,,,,,,,,,,,,,,,,,,,,,,,,,,,,,,,,,,,,,,,,,,,,,,,,,,,,,,,,,,,,,,,,
1739356265.795380,1739356265.796197,71.000000,0.000000,4233.974121,4225.769043,4311.794922,4292.563965,4226.666504,4228.461426,4226.666504,4288.717773,4205.256348,4189.871582,4557.436035,4509.230957,4334.230957,4462.051270,2055.000000,0.000000,11.000000,,,,0.000000,4.000000,4.000000,4.000000,4.000000,4.000000,4.000000,4.000000,4.000000,4.000000,4.000000,4.000000,4.000000,4.000000,4.000000,100.000000,,,,,,,,,,,,,,,,,,,,,,,,,,,,,,,,,,,,,,,,,,,,,,,,,,,,,,,,,,,,,,,,,,,,,,,,,,,,,,,,,,,,,,,,,,,,,,,,,,,,,,,,,,,,,,,,,,,,,,,,,,,,,,,,,
1739356265.803188,1739356265.804105,72.000000,0.000000,4222.179688,4212.820313,4303.333496,4275.256348,4214.487305,4219.615234,4216.538574,4283.077148,4200.256348,4191.410156,4548.461426,4504.102539,4331.025879,4453.077148,5210.000000,0.000000,11.000000,,,,0.000000,4.000000,4.000000,4.000000,4.000000,4.000000,4.000000,4.000000,4.000000,4.000000,4.000000,4.000000,4.000000,4.000000,4.000000,100.000000,1.000000,16.666666,1.000000,1.000000,1.000000,1.000000,1.000000,1.000000,1.000000,4.000000,3.000000,1.000000,0.000000,1.000000,1.000000,1.000000,18.000000,0.000000,0.726034,-0.130737,-0.674805,-0.020508,0.977658,-0.202661,0.060066,-41.724987,-28.022839,44.786255,,,,,,,,,,,,,,,,,,,,,,,,,,,,,,,,2.506814,2.242417,2.574817,2.437950,5.153408,2.885192,1.878881,2.443310,2.354706,4.858758,3.507890,2.289407,1.977463,1.926487,4.399911,11.253839,2.226663,2.191310,2.211587,5.156969,1.034543,0.815669,0.816223,1.721921,3.671686,0.420296,0.732607,0.653379,1.894897,3.825876,1.600933,1.986688,1.071064,2.195801,4.702350,3.681092,2.554904,0.855771,0.323316,0.872539,0.978744,0.915865,1.209695,2.523753,5.021877,0.608936,1.242520,2.055355,3.025212,5.945757,6.093378,3.163792,2.948638,2.772154,5.529770,5.361814,2.598764,2.349264,3.139693,6.748872,1.970113,2.018355,2.257930,1.616581,4.208254,1.710376,1.765055,2.173128,2.595875,5.040991
1739356265.810996,1739356265.811913,73.000000,0.000000,4241.410156,4230.000000,4313.846191,4291.922852,4227.692383,4232.563965,4229.230957,4285.897461,4203.717773,4198.077148,4556.282227,4526.025879,4345.128418,4469.871582,5546.000000,0.000000,11.000000,,,,0.000000,4.000000,4.000000,4.000000,4.000000,4.000000,4.000000,4.000000,4.000000,4.000000,4.000000,4.000000,4.000000,4.000000,4.000000,100.000000,,,,,,,,,,,,,,,,,,,,,,,,,,,,,,,,,,,,,,,,,,,,,,,,,,,,,,,,,,,,,,,,,,,,,,,,,,,,,,,,,,,,,,,,,,,,,,,,,,,,,,,,,,,,,,,,,,,,,,,,,,,,,,,,,
1739356265.818804,1739356265.819821,74.000000,0.000000,4247.692383,4240.128418,4313.589844,4302.563965,4235.384766,4235.384766,4231.666504,4281.282227,4203.846191,4194.230957,4554.871582,4523.974121,4349.230957,4474.487305,4834.000000,0.000000,11.000000,,,,0.000000,4.000000,4.000000,4.000000,4.000000,4.000000,4.000000,4.000000,4.000000,4.000000,4.000000,4.000000,4.000000,4.000000,4.000000,100.000000,,,,,,,,,,,,,,,,,,,,,,,,,,,,,,,,,,,,,,,,,,,,,,,,,,,,,,,,,,,,,,,,,,,,,,,,,,,,,,,,,,,,,,,,,,,,,,,,,,,,,,,,,,,,,,,,,,,,,,,,,,,,,,,,,
1739356265.826613,1739356265.827629,75.000000,0.000000,4234.102539,4227.307617,4299.358887,4288.461426,4224.743652,4217.179688,4214.358887,4270.641113,4193.846191,4187.051270,4543.333496,4504.102539,4344.230957,4457.179688,5564.000000,0.000000,11.000000,,,,0.000000,4.000000,4.000000,4.000000,4.000000,4.000000,4.000000,4.000000,4.000000,4.000000,4.000000,4.000000,4.000000,4.000000,4.000000,100.000000,,,,,,,,,,,,,,,,,,,,,,,,,,,,,,,,,,,,,,,,,,,,,,,,,,,,,,,,,,,,,,,,,,,,,,,,,,,,,,,,,,,,,,,,,,,,,,,,,,,,,,,,,,,,,,,,,,,,,,,,,,,,,,,,,
1739356265.834421,1739356265.835537,76.000000,0.000000,4244.358887,4233.077148,4305.512695,4292.563965,4229.102539,4218.846191,4212.563965,4273.589844,4199.102539,4200.000000,4552.692383,4515.897461,4359.358887,4463.461426,5559.000000,0.000000,11.000000,,,,0.000000,4.000000,4.000000,4.000000,4.000000,4.000000,4.000000,4.000000,4.000000,4.000000,4.000000,4.000000,4.000000,4.000000,4.000000,100.000000,,,,,,,,,,,,,,,,,19.000000,0.000000,0.725745,-0.131104,-0.675049,-0.020386,0.944940,-0.185570,0.047369,-41.752487,-28.187222,44.857632,,,,,,,,,,,,,,,,,,,,,,,,,,,,,,,,,,,,,,,,,,,,,,,,,,,,,,,,,,,,,,,,,,,,,,,,,,,,,,,,,,,,,,,,,,,,,,,,,,,,,
1739356265.842229,1739356265.843345,77.000000,0.000000,4259.615234,4245.256348,4314.358887,4306.410156,4235.641113,4225.512695,4213.717773,4273.974121,4208.846191,4208.974121,4560.000000,4532.307617,4372.051270,4480.000000,6397.000000,0.000000,11.000000,,,,0.000000,4.000000,4.000000,4.000000,4.000000,4.000000,4.000000,4.000000,4.000000,4.000000,4.000000,4.000000,4.000000,4.000000,4.000000,100.000000,,,,,,,,,,,,,,,,,,,,,,,,,,,,,,,,,,,,,,,,,,,,,,,,,,,,,,,,,,,,,,,,,,,,,,,,,,,,,,,,,,,,,,,,,,,,,,,,,,,,,,,,,,,,,,,,,,,,,,,,,,,,,,,,,
1739356265.850037,1739356265.851254,78.000000,0.000000,4240.128418,4227.948730,4294.102539,4290.000000,4216.282227,4202.179688,4190.769043,4261.025879,4195.128418,4193.846191,4540.897461,4512.948730,4353.846191,4464.743652,4834.000000,0.000000,11.000000,,,,0.000000,4.000000,4.000000,4.000000,4.000000,4.000000,4.000000,4.000000,4.000000,4.000000,4.000000,4.000000,4.000000,4.000000,4.000000,100.000000,,,,,,,,,,,,,,,,,,,,,,,,,,,,,,,,,,,,,,,,,,,,,,,,,,,,,,,,,,,,,,,,,,,,,,,,,,,,,,,,,,,,,,,,,,,,,,,,,,,,,,,,,,,,,,,,,,,,,,,,,,,,,,,,,
1739356265.857845,1739356265.859062,79.000000,0.000000,4233.589844,4221.666504,4284.743652,4283.333496,4211.282227,4191.025879,4181.282227,4261.538574,4189.871582,4192.692383,4540.128418,4506.410156,4345.256348,4457.692383,5564.000000,0.000000,11.000000,,,,0.000000,4.000000,4.000000,4.000000,4.000000,4.000000,4.000000,4.000000,4.000000,4.000000,4.000000,4.000000,4.000000,4.000000,4.000000,100.000000,,,,,,,,,,,,,,,,,,,,,,,,,,,,,,,,,,,,,,,,,,,,,,,,,,,,,,,,,,,,,,,,,,,,,,,,,,,,,,,,,,,,,,,,,,,,,,,,,,,,,,,,,,,,,,,,,,,,,,,,,,,,,,,,,
1739356265.865653,1739356265.866970,80.000000,0.000000,4262.563965,4251.025879,4310.512695,4315.128418,4238.077148,4218.974121,4205.000000,4272.051270,4213.077148,4214.358887,4568.077148,4537.307617,4366.538574,4483.846191,5559.000000,0.000000,11.000000,,,,0.000000,4.000000,4.000000,4.000000,4.000000,4.000000,4.000000,4.000000,4.000000,4.000000,4.000000,4.000000,4.000000,4.000000,4.000000,100.000000,,,,,,,,,,,,,,,,,20.000000,0.000000,0.726098,-0.130188,-0.674805,-0.021729,0.940056,-0.173361,0.052252,-41.777241,-28.285166,44.805199,,,,,,,,,,,,,,,,,,,,,,,,,,,,,,,,,,,,,,,,,,,,,,,,,,,,,,,,,,,,,,,,,,,,,,,,,,,,,,,,,,,,,,,,,,,,,,,,,,,,,
1739356265.873461,1739356265.874778,81.000000,0.000000,4266.282227,4263.589844,4320.256348,4327.179688,4250.256348,4234.871582,4222.820313,4271.153809,4228.589844,4228.077148,4580.128418,4549.230957,4374.230957,4490.641113,6397.000000,0.000000,11.000000,,,,0.000000,4.000000,4.000000,4.000000,4.000000,4.000000,4.000000,4.000000,4.000000,4.000000,4.000000,4.000000,4.000000,4.000000,4.000000,100.000000,,,,,,,,,,,,,,,,,,,,,,,,,,,,,,,,,,,,,,,,,,,,,,,,,,,,,,,,,,,,,,,,,,,,,,,,,,,,,,,,,,,,,,,,,,,,,,,,,,,,,,,,,,,,,,,,,,,,,,,,,,,,,,,,,
1739356265.881269,1739356265.882686,82.000000,0.000000,4233.974121,4235.000000,4296.410156,4297.692383,4233.461426,4219.487305,4220.769043,4264.743652,4214.871582,4219.743652,4564.358887,4526.666504,4353.333496,4466.410156,4834.000000,0.000000,11.000000,,,,0.000000,4.000000,4.000000,4.000000,4.000000,4.000000,4.000000,4.000000,4.000000,4.000000,4.000000,4.000000,4.000000,4.000000,4.000000,100.000000,,,,,,,,,,,,,,,,,,,,,,,,,,,,,,,,,,,,,,,,,,,,,,,,,,,,,,,,,,,,,,,,,,,,,,,,,,,,,,,,,,,,,,,,,,,,,,,,,,,,,,,,,,,,,,,,,,,,,,,,,,,,,,,,,
1739356265.889077,1739356265.890494,83.000000,0.000000,4221.410156,4222.820313,4285.769043,4285.641113,4226.282227,4218.077148,4220.641113,4260.897461,4201.538574,4204.358887,4555.641113,4515.897461,4342.436035,4457.051270,5564.000000,0.000000,11.000000,,,,0.000000,4.000000,4.000000,4.000000,4.000000,4.000000,4.000000,4.000000,4.000000,4.000000,4.000000,4.000000,4.000000,4.000000,4.000000,100.000000,,,,,,,,,,,,,,,,,,,,,,,,,,,,,,,,,,,,,,,,,,,,,,,,,,,,,,,,,,,,,,,,,,,,,,,,,,,,,,,,,,,,,,,,,,,,,,,,,,,,,,,,,,,,,,,,,,,,,,,,,,,,,,,,,
1739356265.896885,1739356265.898202,84.000000,0.000000,4233.846191,4237.820313,4295.256348,4298.077148,4238.205078,4230.641113,4223.717773,4256.922852,4199.615234,4198.205078,4562.307617,4521.153809,4344.743652,4460.641113,5559.000000,0.000000,11.000000,,,,0.000000,4.000000,4.000000,4.000000,4.000000,4.000000,4.000000,4.000000,4.000000,4.000000,4.000000,4.000000,4.000000,4.000000,4.000000,100.000000,,,,,,,,,,,,,,,,,21.000000,0.000000,0.726837,-0.128967,-0.674194,-0.023193,0.978635,-0.127945,0.062996,-41.682850,-28.406649,44.691345,,,,,,,,,,,,,,,,,,,,,,,,,,,,,,,,,,,,,,,,,,,,,,,,,,,,,,,,,,,,,,,,,,,,,,,,,,,,,,,,,,,,,,,,,,,,,,,,,,,,,
1739356265.904693,1739356265.906010,85.000000,0.000000,4237.051270,4237.179688,4296.025879,4299.358887,4243.846191,4227.436035,4222.820313,4256.538574,4199.102539,4205.384766,4568.974121,4522.436035,4346.538574,4460.256348,6397.000000,0.000000,11.000000,,,,0.000000,4.000000,4.000000,4.000000,4.000000,4.000000,4.000000,4.000000,4.000000,4.000000,4.000000,4.000000,4.000000,4.000000,4.000000,100.000000,,,,,,,,,,,,,,,,,,,,,,,,,,,,,,,,,,,,,,,,,,,,,,,,,,,,,,,,,,,,,,,,,,,,,,,,,,,,,,,,,,,,,,,,,,,,,,,,,,,,,,,,,,,,,,,,,,,,,,,,,,,,,,,,,
1739356265.912501,1739356265.913718,86.000000,0.000000,4238.077148,4230.256348,4288.205078,4293.077148,4240.256348,4219.102539,4221.666504,4258.589844,4203.205078,4216.538574,4573.717773,4525.256348,4353.333496,4467.307617,4834.000000,0.000000,11.000000,,,,0.000000,4.000000,4.000000,4.000000,4.000000,4.000000,4.000000,4.000000,4.000000,4.000000,4.000000,4.000000,4.000000,4.000000,4.000000,100.000000,,,,,,,,,,,,,,,,,,,,,,,,,,,,,,,,,,,,,,,,,,,,,,,,,,,,,,,,,,,,,,,,,,,,,,,,,,,,,,,,,,,,,,,,,,,,,,,,,,,,,,,,,,,,,,,,,,,,,,,,,,,,,,,,,
1739356265.920309,1739356265.921626,87.000000,0.000000,4228.974121,4223.205078,4275.256348,4280.897461,4230.384766,4211.410156,4207.307617,4253.205078,4193.717773,4204.102539,4563.205078,4514.102539,4345.897461,4459.743652,5564.000000,0.000000,11.000000,,,,0.000000,4.000000,4.000000,4.000000,4.000000,4.000000,4.000000,4.000000,4.000000,4.000000,4.000000,4.000000,4.000000,4.000000,4.000000,100.000000,,,,,,,,,,,,,,,,,,,,,,,,,,,,,,,,,,,,,,,,,,,,,,,,,,,,,,,,,,,,,,,,,,,,,,,,,,,,,,,,,,,,,,,,,,,,,,,,,,,,,,,,,,,,,,,,,,,,,,,,,,,,,,,,,
1739356265.928118,1739356265.929434,88.000000,0.000000,4228.974121,4225.000000,4280.384766,4280.769043,4233.717773,4211.922852,4204.615234,4251.922852,4189.871582,4201.153809,4565.897461,4512.179688,4341.410156,4455.384766,5559.000000,0.000000,11.000000,,,,0.000000,4.000000,4.000000,4.000000,4.000000,4.000000,4.000000,4.000000,4.000000,4.000000,4.000000,4.000000,4.000000,4.000000,4.000000,100.000000,,,,,,,,,,,,,,,,,22.000000,0.000000,0.727243,-0.128113,-0.673889,-0.024048,0.992797,-0.156269,0.082041,-41.597897,-28.599318,44.672211,,,,,,,,,,,,,,,,,,,,,,,,,,,,,,,,2.545859,2.367881,2.490570,2.125610,5.100854,2.937518,1.823422,2.272414,2.071924,4.726545,3.892053,2.426410,1.748675,1.647217,4.298491,8.782216,1.743793,1.835871,1.870139,4.975960,1.108710,0.972375,0.686032,1.481989,3.589364,0.482118,1.019714,0.526926,1.619076,3.738093,1.737892,2.821393,0.943025,1.897133,4.638018,3.681052,2.491526,0.799989,0.279477,0.861371,1.075566,1.086040,0.965650,2.317264,4.942312,0.667277,1.203735,1.617772,2.783677,5.912063,4.192130,2.616494,2.605270,2.382805,5.485327,8.314453,2.803361,2.131940,2.749295,6.721461,1.714434,1.793749,2.090174,1.555016,4.149071,1.922757,1.783084,1.959077,2.276960,4.984894
1739356265.935926,1739356265.937342,89.000000,0.000000,4255.256348,4242.436035,4303.461426,4297.563965,4247.051270,4219.871582,4217.051270,4256.666504,4208.205078,4226.025879,4590.000000,4535.641113,4358.717773,4478.333496,6397.000000,0.000000,11.000000,,,,0.000000,4.000000,4.000000,4.000000,4.000000,4.000000,4.000000,4.000000,4.000000,4.000000,4.000000,4.000000,4.000000,4.000000,4.000000,100.000000,,,,,,,,,,,,,,,,,,,,,,,,,,,,,,,,,,,,,,,,,,,,,,,,,,,,,,,,,,,,,,,,,,,,,,,,,,,,,,,,,,,,,,,,,,,,,,,,,,,,,,,,,,,,,,,,,,,,,,,,,,,,,,,,,
1739356265.943734,1739356265.945151,90.000000,0.000000,4265.641113,4249.743652,4305.128418,4300.641113,4247.179688,4218.461426,4213.077148,4256.538574,4212.051270,4229.230957,4592.436035,4546.153809,4367.563965,4490.384766,4834.000000,0.000000,11.000000,,,,0.000000,4.000000,4.000000,4.000000,4.000000,4.000000,4.000000,4.000000,4.000000,4.000000,4.000000,4.000000,4.000000,4.000000,4.000000,100.000000,,,,,,,,,,,,,,,,,,,,,,,,,,,,,,,,,,,,,,,,,,,,,,,,,,,,,,,,,,,,,,,,,,,,,,,,,,,,,,,,,,,,,,,,,,,,,,,,,,,,,,,,,,,,,,,,,,,,,,,,,,,,,,,,,
1739356265.951542,1739356265.952959,91.000000,0.000000,4257.051270,4248.333496,4297.051270,4299.358887,4246.410156,4216.666504,4208.461426,4258.461426,4203.717773,4217.692383,4585.000000,4542.563965,4364.743652,4487.179688,5564.000000,0.000000,11.000000,,,,0.000000,4.000000,4.000000,4.000000,4.000000,4.000000,4.000000,4.000000,4.000000,4.000000,4.000000,4.000000,4.000000,4.000000,4.000000,100.000000,,,,,,,,,,,,,,,,,,,,,,,,,,,,,,,,,,,,,,,,,,,,,,,,,,,,,,,,,,,,,,,,,,,,,,,,,,,,,,,,,,,,,,,,,,,,,,,,,,,,,,,,,,,,,,,,,,,,,,,,,,,,,,,,,
1739356265.959350,1739356265.960667,92.000000,0.000000,4249.230957,4237.820313,4292.051270,4291.538574,4240.641113,4209.743652,4204.487305,4256.922852,4199.743652,4213.589844,4582.820313,4534.871582,4359.358887,4481.794922,5559.000000,0.000000,11.000000,,,,0.000000,4.000000,4.000000,4.000000,4.000000,4.000000,4.000000,4.000000,4.000000,4.000000,4.000000,4.000000,4.000000,4.000000,4.000000,100.000000,,,,,,,,,,,,,,,,,23.000000,0.000000,0.728107,-0.127075,-0.673096,-0.025574,1.022586,-0.146502,0.096203,-41.538109,-28.739386,44.721657,,,,,,,,,,,,,,,,,,,,,,,,,,,,,,,,,,,,,,,,,,,,,,,,,,,,,,,,,,,,,,,,,,,,,,,,,,,,,,,,,,,,,,,,,,,,,,,,,,,,,
1739356265.967158,1739356265.968475,93.000000,0.000000,4250.000000,4236.666504,4289.230957,4284.743652,4237.563965,4208.974121,4205.769043,4256.410156,4206.538574,4217.692383,4581.666504,4533.717773,4357.948730,4479.487305,6397.000000,0.000000,11.000000,,,,0.000000,4.000000,4.000000,4.000000,4.000000,4.000000,4.000000,4.000000,4.000000,4.000000,4.000000,4.000000,4.000000,4.000000,4.000000,100.000000,,,,,,,,,,,,,,,,,,,,,,,,,,,,,,,,,,,,,,,,,,,,,,,,,,,,,,,,,,,,,,,,,,,,,,,,,,,,,,,,,,,,,,,,,,,,,,,,,,,,,,,,,,,,,,,,,,,,,,,,,,,,,,,,,
1739356265.974966,1739356265.976183,94.000000,0.000000,4254.230957,4246.153809,4292.692383,4290.641113,4249.871582,4227.051270,4225.641113,4265.256348,4218.205078,4228.205078,4583.589844,4543.717773,4359.615234,4478.333496,4834.000000,0.000000,11.000000,,,,0.000000,4.000000,4.000000,4.000000,4.000000,4.000000,4.000000,4.000000,4.000000,4.000000,4.000000,4.000000,4.000000,4.000000,4.000000,100.000000,,,,,,,,,,,,,,,,,,,,,,,,,,,,,,,,,,,,,,,,,,,,,,,,,,,,,,,,,,,,,,,,,,,,,,,,,,,,,,,,,,,,,,,,,,,,,,,,,,,,,,,,,,,,,,,,,,,,,,,,,,,,,,,,,
1739356265.982774,1739356265.983991,95.000000,0.000000,4234.487305,4222.436035,4278.589844,4272.051270,4242.563965,4222.563965,4222.820313,4264.102539,4207.692383,4222.051270,4572.563965,4526.922852,4348.077148,4460.256348,5564.000000,0.000000,11.000000,,,,0.000000,4.000000,4.000000,4.000000,4.000000,4.000000,4.000000,4.000000,4.000000,4.000000,4.000000,4.000000,4.000000,4.000000,4.000000,100.000000,,,,,,,,,,,,,,,,,,,,,,,,,,,,,,,,,,,,,,,,,,,,,,,,,,,,,,,,,,,,,,,,,,,,,,,,,,,,,,,,,,,,,,,,,,,,,,,,,,,,,,,,,,,,,,,,,,,,,,,,,,,,,,,,,
1739356265.990582,1739356265.991699,96.000000,0.000000,4212.307617,4195.000000,4260.000000,4249.743652,4226.666504,4204.358887,4200.897461,4255.512695,4185.512695,4204.743652,4555.256348,4500.128418,4338.333496,4439.230957,5559.000000,0.000000,11.000000,,,,0.000000,4.000000,4.000000,4.000000,4.000000,4.000000,4.000000,4.000000,4.000000,4.000000,4.000000,4.000000,4.000000,4.000000,4.000000,100.000000,,,,,,,,,,,,,,,,,24.000000,0.000000,0.728803,-0.127136,-0.672302,-0.026306,1.002564,-0.133317,0.086436,-41.400963,-28.832113,44.682827,,,,,,,,,,,,,,,,,,,,,,,,,,,,,,,,,,,,,,,,,,,,,,,,,,,,,,,,,,,,,,,,,,,,,,,,,,,,,,,,,,,,,,,,,,,,,,,,,,,,,
1739356265.998390,1739356265.999507,97.000000,0.000000,4227.692383,4222.051270,4276.410156,4270.384766,4245.641113,4223.077148,4213.717773,4265.128418,4195.128418,4214.871582,4567.692383,4520.769043,4352.179688,4451.794922,6397.000000,0.000000,11.000000,,,,0.000000,4.000000,4.000000,4.000000,4.000000,4.000000,4.000000,4.000000,4.000000,4.000000,4.000000,4.000000,4.000000,4.000000,4.000000,100.000000,,,,,,,,,,,,,,,,,,,,,,,,,,,,,,,,,,,,,,,,,,,,,,,,,,,,,,,,,,,,,,,,,,,,,,,,,,,,,,,,,,,,,,,,,,,,,,,,,,,,,,,,,,,,,,,,,,,,,,,,,,,,,,,,,
1739356266.006199,1739356266.007215,98.000000,0.000000,4236.282227,4235.512695,4291.666504,4277.436035,4254.102539,4236.025879,4227.692383,4271.538574,4204.102539,4227.692383,4579.743652,4538.717773,4355.256348,4462.179688,4834.000000,0.000000,11.000000,,,,0.000000,4.000000,4.000000,4.000000,4.000000,4.000000,4.000000,4.000000,4.000000,4.000000,4.000000,4.000000,4.000000,4.000000,4.000000,100.000000,,,,,,,,,,,,,,,,,,,,,,,,,,,,,,,,,,,,,,,,,,,,,,,,,,,,,,,,,,,,,,,,,,,,,,,,,,,,,,,,,,,,,,,,,,,,,,,,,,,,,,,,,,,,,,,,,,,,,,,,,,,,,,,,,
1739356266.014007,1739356266.015123,99.000000,0.000000,4212.179688,4201.794922,4276.922852,4250.641113,4229.102539,4215.128418,4211.410156,4263.974121,4185.641113,4214.487305,4565.769043,4517.436035,4344.102539,4441.666504,5564.000000,0.000000,11.000000,,,,0.000000,4.000000,4.000000,4.000000,4.000000,4.000000,4.000000,4.000000,4.000000,4.000000,4.000000,4.000000,4.000000,4.000000,4.000000,100.000000,,,,,,,,,,,,,,,,,,,,,,,,,,,,,,,,,,,,,,,,,,,,,,,,,,,,,,,,,,,,,,,,,,,,,,,,,,,,,,,,,,,,,,,,,,,,,,,,,,,,,,,,,,,,,,,,,,,,,,,,,,,,,,,,,
1739356266.021815,1739356266.022931,100.000000,0.000000,4217.692383,4210.512695,4282.692383,4256.922852,4233.077148,4219.230957,4213.077148,4267.307617,4190.000000,4212.563965,4569.230957,4523.846191,4358.333496,4447.051270,5559.000000,0.000000,11.000000,,,,0.000000,4.000000,4.000000,4.000000,4.000000,4.000000,4.000000,4.000000,4.000000,4.000000,4.000000,4.000000,4.000000,4.000000,4.000000,100.000000,,,,,,,,,,,,,,,,,25.000000,0.000000,0.728791,-0.127441,-0.672241,-0.026733,0.986937,-0.154316,0.101087,-41.394199,-28.898903,44.581211,,,,,,,,,,,,,,,,,,,,,,,,,,,,,,,,,,,,,,,,,,,,,,,,,,,,,,,,,,,,,,,,,,,,,,,,,,,,,,,,,,,,,,,,,,,,,,,,,,,,,
1739356266.029623,1739356266.030839,101.000000,0.000000,4238.717773,4233.717773,4298.974121,4270.512695,4245.512695,4230.641113,4217.307617,4271.538574,4204.102539,4218.846191,4580.128418,4544.230957,4367.179688,4466.153809,6397.000000,0.000000,11.000000,,,,0.000000,4.000000,4.000000,4.000000,4.000000,4.000000,4.000000,4.000000,4.000000,4.000000,4.000000,4.000000,4.000000,4.000000,4.000000,100.000000,,,,,,,,,,,,,,,,,,,,,,,,,,,,,,,,,,,,,,,,,,,,,,,,,,,,,,,,,,,,,,,,,,,,,,,,,,,,,,,,,,,,,,,,,,,,,,,,,,,,,,,,,,,,,,,,,,,,,,,,,,,,,,,,,
1739356266.037431,1739356266.038648,102.000000,0.000000,4234.487305,4223.205078,4299.615234,4262.948730,4238.717773,4223.589844,4209.615234,4271.666504,4205.000000,4222.436035,4581.794922,4543.846191,4362.307617,4468.846191,4834.000000,0.000000,11.000000,,,,0.000000,4.000000,4.000000,4.000000,4.000000,4.000000,4.000000,4.000000,4.000000,4.000000,4.000000,4.000000,4.000000,4.000000,4.000000,100.000000,,,,,,,,,,,,,,,,,,,,,,,,,,,,,,,,,,,,,,,,,,,,,,,,,,,,,,,,,,,,,,,,,,,,,,,,,,,,,,,,,,,,,,,,,,,,,,,,,,,,,,,,,,,,,,,,,,,,,,,,,,,,,,,,,
1739356266.045239,1739356266.046556,103.000000,0.000000,4218.077148,4211.794922,4294.102539,4255.000000,4229.487305,4215.641113,4201.282227,4274.102539,4200.897461,4222.820313,4575.512695,4530.769043,4356.153809,4459.230957,5564.000000,0.000000,11.000000,,,,0.000000,4.000000,4.000000,4.000000,4.000000,4.000000,4.000000,4.000000,4.000000,4.000000,4.000000,4.000000,4.000000,4.000000,4.000000,100.000000,,,,,,,,,,,,,,,,,,,,,,,,,,,,,,,,,,,,,,,,,,,,,,,,,,,,,,,,,,,,,,,,,,,,,,,,,,,,,,,,,,,,,,,,,,,,,,,,,,,,,,,,,,,,,,,,,,,,,,,,,,,,,,,,,
1739356266.053047,1739356266.054364,104.000000,0.000000,4199.487305,4199.871582,4279.871582,4238.717773,4216.410156,4203.717773,4185.000000,4270.897461,4184.615234,4206.025879,4554.615234,4510.769043,4337.948730,4440.897461,5559.000000,0.000000,11.000000,,,,0.000000,4.000000,4.000000,4.000000,4.000000,4.000000,4.000000,4.000000,4.000000,4.000000,4.000000,4.000000,4.000000,4.000000,4.000000,100.000000,,,,,,,,,,,,,,,,,26.000000,0.000000,0.728534,-0.127441,-0.672485,-0.027588,0.977658,-0.135759,0.091320,-41.221447,-28.809011,44.423088,,,,,,,,,,,,,,,,,,,,,,,,,,,,,,,,2.652769,2.338096,2.189868,1.772536,4.944096,2.866884,1.715989,1.927839,1.727459,4.512580,4.015281,2.462641,1.422940,1.320362,4.108109,7.600487,1.424288,1.483247,1.474588,4.755409,1.122273,1.208825,0.542505,1.202112,3.450941,0.557487,1.327788,0.409543,1.291389,3.617251,1.801938,3.629503,0.785252,1.567716,4.481895,3.614027,2.182580,0.669424,0.227624,0.830218,1.216509,1.261860,0.711740,1.992976,4.713622,0.819500,1.155519,1.137102,2.406351,5.681028,2.702659,2.116556,2.195863,1.968163,5.238683,11.736566,2.955663,1.806586,2.271593,6.521306,1.679901,1.568604,1.790685,1.445751,3.970171,1.997143,1.722458,1.615403,1.909380,4.799601
1739356266.060855,1739356266.062272,105.000000,0.000000,4204.358887,4202.051270,4283.974121,4241.538574,4223.846191,4214.102539,4194.743652,4273.333496,4187.051270,4209.871582,4558.974121,4517.179688,4340.512695,4447.051270,6397.000000,0.000000,11.000000,,,,0.000000,4.000000,4.000000,4.000000,4.000000,4.000000,4.000000,4.000000,4.000000,4.000000,4.000000,4.000000,4.000000,4.000000,4.000000,100.000000,,,,,,,,,,,,,,,,,,,,,,,,,,,,,,,,,,,,,,,,,,,,,,,,,,,,,,,,,,,,,,,,,,,,,,,,,,,,,,,,,,,,,,,,,,,,,,,,,,,,,,,,,,,,,,,,,,,,,,,,,,,,,,,,,
1739356266.068663,1739356266.070080,106.000000,0.000000,4227.179688,4222.948730,4307.820313,4267.820313,4248.077148,4245.128418,4231.153809,4286.538574,4211.794922,4235.512695,4588.589844,4544.230957,4367.948730,4470.128418,4834.000000,0.000000,11.000000,,,,0.000000,4.000000,4.000000,4.000000,4.000000,4.000000,4.000000,4.000000,4.000000,4.000000,4.000000,4.000000,4.000000,4.000000,4.000000,100.000000,,,,,,,,,,,,,,,,,,,,,,,,,,,,,,,,,,,,,,,,,,,,,,,,,,,,,,,,,,,,,,,,,,,,,,,,,,,,,,,,,,,,,,,,,,,,,,,,,,,,,,,,,,,,,,,,,,,,,,,,,,,,,,,,,
1739356266.076471,1739356266.077788,107.000000,0.000000,4228.077148,4226.025879,4311.025879,4268.461426,4246.282227,4247.051270,4238.461426,4290.641113,4214.743652,4234.871582,4590.384766,4544.615234,4366.025879,4469.358887,5564.000000,0.000000,11.000000,,,,0.000000,4.000000,4.000000,4.000000,4.000000,4.000000,4.000000,4.000000,4.000000,4.000000,4.000000,4.000000,4.000000,4.000000,4.000000,100.000000,,,,,,,,,,,,,,,,,,,,,,,,,,,,,,,,,,,,,,,,,,,,,,,,,,,,,,,,,,,,,,,,,,,,,,,,,,,,,,,,,,,,,,,,,,,,,,,,,,,,,,,,,,,,,,,,,,,,,,,,,,,,,,,,,
1739356266.084279,1739356266.085596,108.000000,0.000000,4204.743652,4203.589844,4290.769043,4243.333496,4224.487305,4222.692383,4214.358887,4281.025879,4194.743652,4210.128418,4564.358887,4519.102539,4336.794922,4443.333496,5559.000000,0.000000,11.000000,,,,0.000000,4.000000,4.000000,4.000000,4.000000,4.000000,4.000000,4.000000,4.000000,4.000000,4.000000,4.000000,4.000000,4.000000,4.000000,100.000000,,,,,,,,,,,,,,,,,27.000000,0.000000,0.728163,-0.127075,-0.672913,-0.028625,0.996215,-0.140154,0.077646,-41.365971,-28.794777,44.480778,,,,,,,,,,,,,,,,,,,,,,,,,,,,,,,,,,,,,,,,,,,,,,,,,,,,,,,,,,,,,,,,,,,,,,,,,,,,,,,,,,,,,,,,,,,,,,,,,,,,,
1739356266.092087,1739356266.093304,109.000000,0.000000,4199.487305,4203.333496,4286.410156,4240.128418,4225.000000,4223.461426,4212.563965,4278.333496,4189.615234,4203.846191,4558.589844,4512.692383,4335.256348,4437.179688,6397.000000,0.000000,11.000000,,,,0.000000,4.000000,4.000000,4.000000,4.000000,4.000000,4.000000,4.000000,4.000000,4.000000,4.000000,4.000000,4.000000,4.000000,4.000000,100.000000,,,,,,,,,,,,,,,,,,,,,,,,,,,,,,,,,,,,,,,,,,,,,,,,,,,,,,,,,,,,,,,,,,,,,,,,,,,,,,,,,,,,,,,,,,,,,,,,,,,,,,,,,,,,,,,,,,,,,,,,,,,,,,,,,
1739356266.099895,1739356266.101112,110.000000,0.000000,4211.282227,4212.051270,4294.230957,4250.897461,4232.563965,4234.871582,4226.410156,4282.051270,4190.512695,4207.820313,4565.512695,4517.563965,4348.205078,4447.820313,4834.000000,0.000000,11.000000,,,,0.000000,4.000000,4.000000,4.000000,4.000000,4.000000,4.000000,4.000000,4.000000,4.000000,4.000000,4.000000,4.000000,4.000000,4.000000,100.000000,,,,,,,,,,,,,,,,,,,,,,,,,,,,,,,,,,,,,,,,,,,,,,,,,,,,,,,,,,,,,,,,,,,,,,,,,,,,,,,,,,,,,,,,,,,,,,,,,,,,,,,,,,,,,,,,,,,,,,,,,,,,,,,,,
1739356266.107704,1739356266.108820,111.000000,0.000000,4216.153809,4206.538574,4297.436035,4252.820313,4234.230957,4236.922852,4229.102539,4279.871582,4188.974121,4206.666504,4565.384766,4515.641113,4350.512695,4449.871582,5564.000000,0.000000,11.000000,,,,0.000000,4.000000,4.000000,4.000000,4.000000,4.000000,4.000000,4.000000,4.000000,4.000000,4.000000,4.000000,4.000000,4.000000,4.000000,100.000000,,,,,,,,,,,,,,,,,,,,,,,,,,,,,,,,,,,,,,,,,,,,,,,,,,,,,,,,,,,,,,,,,,,,,,,,,,,,,,,,,,,,,,,,,,,,,,,,,,,,,,,,,,,,,,,,,,,,,,,,,,,,,,,,,
1739356266.115512,1739356266.116628,112.000000,0.000000,4214.871582,4209.102539,4294.615234,4251.282227,4232.948730,4235.897461,4219.871582,4272.692383,4188.333496,4204.871582,4559.615234,4509.743652,4344.871582,4446.282227,5559.000000,0.000000,11.000000,,,,0.000000,4.000000,4.000000,4.000000,4.000000,4.000000,4.000000,4.000000,4.000000,4.000000,4.000000,4.000000,4.000000,4.000000,4.000000,100.000000,,,,,,,,,,,,,,,,,28.000000,0.000000,0.727812,-0.126892,-0.673279,-0.029724,0.993285,-0.132340,0.079111,-41.462708,-28.915300,44.466034,,,,,,,,,,,,,,,,,,,,,,,,,,,,,,,,,,,,,,,,,,,,,,,,,,,,,,,,,,,,,,,,,,,,,,,,,,,,,,,,,,,,,,,,,,,,,,,,,,,,,
1739356266.123320,1739356266.124337,113.000000,0.000000,4205.000000,4211.282227,4280.256348,4243.461426,4217.563965,4218.333496,4194.487305,4267.692383,4175.512695,4190.641113,4544.871582,4494.230957,4329.743652,4440.000000,6397.000000,0.000000,11.000000,,,,0.000000,4.000000,4.000000,4.000000,4.000000,4.000000,4.000000,4.000000,4.000000,4.000000,4.000000,4.000000,4.000000,4.000000,4.000000,100.000000,,,,,,,,,,,,,,,,,,,,,,,,,,,,,,,,,,,,,,,,,,,,,,,,,,,,,,,,,,,,,,,,,,,,,,,,,,,,,,,,,,,,,,,,,,,,,,,,,,,,,,,,,,,,,,,,,,,,,,,,,,,,,,,,,
1739356266.131128,1739356266.132144,114.000000,0.000000,4212.948730,4217.820313,4286.025879,4252.307617,4215.769043,4212.563965,4188.461426,4270.512695,4178.461426,4194.743652,4553.974121,4505.769043,4335.256348,4455.000000,4834.000000,0.000000,11.000000,,,,0.000000,4.000000,4.000000,4.000000,4.000000,4.000000,4.000000,4.000000,4.000000,4.000000,4.000000,4.000000,4.000000,4.000000,4.000000,100.000000,,,,,,,,,,,,,,,,,,,,,,,,,,,,,,,,,,,,,,,,,,,,,,,,,,,,,,,,,,,,,,,,,,,,,,,,,,,,,,,,,,,,,,,,,,,,,,,,,,,,,,,,,,,,,,,,,,,,,,,,,,,,,,,,,
1739356266.138936,1739356266.139853,115.000000,0.000000,4242.051270,4237.051270,4315.000000,4277.563965,4231.410156,4230.384766,4207.179688,4276.410156,4205.128418,4224.871582,4587.820313,4542.820313,4361.282227,4485.769043,5564.000000,0.000000,11.000000,,,,0.000000,4.000000,4.000000,4.000000,4.000000,4.000000,4.000000,4.000000,4.000000,4.000000,4.000000,4.000000,4.000000,4.000000,4.000000,100.000000,,,,,,,,,,,,,,,,,,,,,,,,,,,,,,,,,,,,,,,,,,,,,,,,,,,,,,,,,,,,,,,,,,,,,,,,,,,,,,,,,,,,,,,,,,,,,,,,,,,,,,,,,,,,,,,,,,,,,,,,,,,,,,,,,
1739356266.146744,1739356266.147661,116.000000,0.000000,4255.384766,4253.589844,4324.615234,4289.743652,4237.436035,4237.563965,4212.692383,4277.307617,4218.974121,4244.743652,4600.512695,4556.538574,4372.948730,4499.230957,5559.000000,0.000000,11.000000,,,,0.000000,4.000000,4.000000,4.000000,4.000000,4.000000,4.000000,4.000000,4.000000,4.000000,4.000000,4.000000,4.000000,4.000000,4.000000,100.000000,,,,,,,,,,,,,,,,,29.000000,0.000000,0.727574,-0.126892,-0.673523,-0.030029,0.994262,-0.115737,0.078135,-41.583103,-28.890436,44.436100,,,,,,,,,,,,,,,,,,,,,,,,,,,,,,,,,,,,,,,,,,,,,,,,,,,,,,,,,,,,,,,,,,,,,,,,,,,,,,,,,,,,,,,,,,,,,,,,,,,,,
1739356266.154552,1739356266.155369,117.000000,0.000000,4247.179688,4252.179688,4308.333496,4281.666504,4233.205078,4231.153809,4209.871582,4273.205078,4212.179688,4237.436035,4585.641113,4542.820313,4362.692383,4490.769043,6397.000000,0.000000,11.000000,,,,0.000000,4.000000,4.000000,4.000000,4.000000,4.000000,4.000000,4.000000,4.000000,4.000000,4.000000,4.000000,4.000000,4.000000,4.000000,100.000000,,,,,,,,,,,,,,,,,,,,,,,,,,,,,,,,,,,,,,,,,,,,,,,,,,,,,,,,,,,,,,,,,,,,,,,,,,,,,,,,,,,,,,,,,,,,,,,,,,,,,,,,,,,,,,,,,,,,,,,,,,,,,,,,,
1739356266.162360,1739356266.163177,118.000000,0.000000,4228.974121,4234.358887,4290.384766,4263.205078,4226.282227,4231.282227,4211.666504,4269.743652,4194.230957,4212.307617,4565.512695,4524.230957,4345.641113,4473.205078,4834.000000,0.000000,11.000000,,,,0.000000,4.000000,4.000000,4.000000,4.000000,4.000000,4.000000,4.000000,4.000000,4.000000,4.000000,4.000000,4.000000,4.000000,4.000000,100.000000,,,,,,,,,,,,,,,,,,,,,,,,,,,,,,,,,,,,,,,,,,,,,,,,,,,,,,,,,,,,,,,,,,,,,,,,,,,,,,,,,,,,,,,,,,,,,,,,,,,,,,,,,,,,,,,,,,,,,,,,,,,,,,,,,
1739356266.170168,1739356266.170885,119.000000,0.000000,4206.025879,4208.333496,4278.461426,4241.025879,4213.205078,4227.820313,4204.743652,4268.461426,4178.589844,4192.436035,4542.948730,4506.025879,4327.436035,4450.384766,5564.000000,0.000000,11.000000,,,,0.000000,4.000000,4.000000,4.000000,4.000000,4.000000,4.000000,4.000000,4.000000,4.000000,4.000000,4.000000,4.000000,4.000000,4.000000,100.000000,,,,,,,,,,,,,,,,,,,,,,,,,,,,,,,,,,,,,,,,,,,,,,,,,,,,,,,,,,,,,,,,,,,,,,,,,,,,,,,,,,,,,,,,,,,,,,,,,,,,,,,,,,,,,,,,,,,,,,,,,,,,,,,,,
1739356266.177976,1739356266.178693,120.000000,0.000000,4205.384766,4202.948730,4286.282227,4246.538574,4216.025879,4232.436035,4211.922852,4273.461426,4189.102539,4203.461426,4544.102539,4516.410156,4331.282227,4450.384766,5559.000000,0.000000,11.000000,,,,0.000000,4.000000,4.000000,4.000000,4.000000,4.000000,4.000000,4.000000,4.000000,4.000000,4.000000,4.000000,4.000000,4.000000,4.000000,100.000000,,,,,,,,,,,,,,,,,30.000000,0.000000,0.727055,-0.126892,-0.674072,-0.030273,0.990844,-0.122574,0.073251,-41.774792,-28.784727,44.325821,,,,,,,,,,,,,,,,,,,,,,,,,,,,,,,,2.765084,2.192685,1.732799,1.442395,4.631551,2.712073,1.575920,1.491358,1.393527,4.185326,3.799848,2.391610,1.081302,1.014979,3.790621,7.014128,1.241190,1.157596,1.106379,4.435707,1.094664,1.465554,0.429926,0.933764,3.207966,0.636436,1.589236,0.360971,0.978250,3.400389,1.817398,4.227659,0.687256,1.263813,4.174164,3.448467,1.705909,0.508509,0.180982,0.767249,1.410604,1.403866,0.531616,1.609763,4.291595,1.091573,1.115418,0.761553,1.957821,5.196485,2.042387,1.723585,1.783726,1.585605,4.751606,14.284059,3.025309,1.465567,1.793904,6.064865,1.746686,1.411897,1.429896,1.289303,3.645182,1.890100,1.610456,1.232679,1.550910,4.445552
1739356266.185784,1739356266.186401,121.000000,0.000000,4211.922852,4208.974121,4295.128418,4259.743652,4227.179688,4238.589844,4225.000000,4273.846191,4197.436035,4214.358887,4554.102539,4532.307617,4335.128418,4457.051270,6397.000000,0.000000,11.000000,,,,0.000000,4.000000,4.000000,4.000000,4.000000,4.000000,4.000000,4.000000,4.000000,4.000000,4.000000,4.000000,4.000000,4.000000,4.000000,100.000000,,,,,,,,,,,,,,,,,,,,,,,,,,,,,,,,,,,,,,,,,,,,,,,,,,,,,,,,,,,,,,,,,,,,,,,,,,,,,,,,,,,,,,,,,,,,,,,,,,,,,,,,,,,,,,,,,,,,,,,,,,,,,,,,,
1739356266.193592,1739356266.194209,122.000000,0.000000,4176.153809,4177.436035,4263.461426,4226.794922,4203.077148,4208.205078,4192.692383,4258.077148,4163.077148,4177.692383,4520.897461,4492.563965,4300.512695,4414.487305,4834.000000,0.000000,11.000000,,,,0.000000,4.000000,4.000000,4.000000,4.000000,4.000000,4.000000,4.000000,4.000000,4.000000,4.000000,4.000000,4.000000,4.000000,4.000000,100.000000,,,,,,,,,,,,,,,,,,,,,,,,,,,,,,,,,,,,,,,,,,,,,,,,,,,,,,,,,,,,,,,,,,,,,,,,,,,,,,,,,,,,,,,,,,,,,,,,,,,,,,,,,,,,,,,,,,,,,,,,,,,,,,,,,
1739356266.201400,1739356266.201917,123.000000,0.000000,4167.563965,4170.384766,4254.230957,4220.128418,4193.974121,4199.743652,4182.436035,4255.641113,4156.922852,4170.769043,4513.589844,4478.717773,4297.179688,4400.000000,5564.000000,0.000000,11.000000,,,,0.000000,4.000000,4.000000,4.000000,4.000000,4.000000,4.000000,4.000000,4.000000,4.000000,4.000000,4.000000,4.000000,4.000000,4.000000,100.000000,,,,,,,,,,,,,,,,,,,,,,,,,,,,,,,,,,,,,,,,,,,,,,,,,,,,,,,,,,,,,,,,,,,,,,,,,,,,,,,,,,,,,,,,,,,,,,,,,,,,,,,,,,,,,,,,,,,,,,,,,,,,,,,,,
1739356266.209209,1739356266.209825,124.000000,0.000000,4213.717773,4214.230957,4295.769043,4266.538574,4225.512695,4238.333496,4226.666504,4271.666504,4201.153809,4218.333496,4564.358887,4532.948730,4336.410156,4448.333496,5559.000000,0.000000,11.000000,,,,0.000000,4.000000,4.000000,4.000000,4.000000,4.000000,4.000000,4.000000,4.000000,4.000000,4.000000,4.000000,4.000000,4.000000,4.000000,100.000000,,,,,,,,,,,,,,,,,31.000000,0.000000,0.726604,-0.126465,-0.674622,-0.030640,0.992797,-0.123062,0.080576,-41.880646,-28.789587,44.243240,,,,,,,,,,,,,,,,,,,,,,,,,,,,,,,,,,,,,,,,,,,,,,,,,,,,,,,,,,,,,,,,,,,,,,,,,,,,,,,,,,,,,,,,,,,,,,,,,,,,,
1739356266.217017,1739356266.217633,125.000000,0.000000,4221.025879,4221.025879,4302.948730,4272.307617,4232.307617,4246.922852,4234.358887,4274.871582,4215.897461,4230.641113,4578.589844,4549.358887,4335.000000,4455.641113,6397.000000,0.000000,11.000000,,,,0.000000,4.000000,4.000000,4.000000,4.000000,4.000000,4.000000,4.000000,4.000000,4.000000,4.000000,4.000000,4.000000,4.000000,4.000000,100.000000,,,,,,,,,,,,,,,,,,,,,,,,,,,,,,,,,,,,,,,,,,,,,,,,,,,,,,,,,,,,,,,,,,,,,,,,,,,,,,,,,,,,,,,,,,,,,,,,,,,,,,,,,,,,,,,,,,,,,,,,,,,,,,,,,
1739356266.224825,1739356266.225541,126.000000,0.000000,4191.153809,4191.282227,4273.846191,4240.897461,4208.461426,4222.436035,4206.794922,4268.461426,4201.282227,4214.487305,4554.358887,4520.512695,4309.871582,4422.820313,4834.000000,0.000000,11.000000,,,,0.000000,4.000000,4.000000,4.000000,4.000000,4.000000,4.000000,4.000000,4.000000,4.000000,4.000000,4.000000,4.000000,4.000000,4.000000,100.000000,,,,,,,,,,,,,,,,,,,,,,,,,,,,,,,,,,,,,,,,,,,,,,,,,,,,,,,,,,,,,,,,,,,,,,,,,,,,,,,,,,,,,,,,,,,,,,,,,,,,,,,,,,,,,,,,,,,,,,,,,,,,,,,,,
1739356266.232633,1739356266.233349,127.000000,0.000000,4184.743652,4183.077148,4271.794922,4235.641113,4198.461426,4218.589844,4202.436035,4270.512695,4200.641113,4214.102539,4552.563965,4514.871582,4317.051270,4421.282227,11.000000,0.000000,11.000000,,,,0.000000,4.000000,4.000000,4.000000,4.000000,4.000000,4.000000,4.000000,4.000000,4.000000,4.000000,4.000000,4.000000,4.000000,4.000000,100.000000,,,,,,,,,,,,,,,,,,,,,,,,,,,,,,,,,,,,,,,,,,,,,,,,,,,,,,,,,,,,,,,,,,,,,,,,,,,,,,,,,,,,,,,,,,,,,,,,,,,,,,,,,,,,,,,,,,,,,,,,,,,,,,,,,
1739356266.240441,1739356266.241257,0.000000,0.000000,4188.589844,4190.769043,4280.897461,4243.205078,4204.102539,4222.307617,4204.487305,4272.179688,4202.179688,4210.256348,4557.820313,4523.077148,4327.820313,4429.615234,4976.000000,0.000000,11.000000,,,,0.000000,4.000000,4.000000,4.000000,4.000000,4.000000,4.000000,4.000000,4.000000,4.000000,4.000000,4.000000,4.000000,4.000000,4.000000,100.000000,,,,,,,,,,,,,,,,,0.000000,0.000000,0.726113,-0.126648,-0.675110,-0.030762,1.005982,-0.130875,0.071786,-41.842583,-28.793962,44.252251,,,,,,,,,,,,,,,,,,,,,,,,,,,,,,,,,,,,,,,,,,,,,,,,,,,,,,,,,,,,,,,,,,,,,,,,,,,,,,,,,,,,,,,,,,,,,,,,,,,,,
1739356266.248249,1739356266.249066,1.000000,0.000000,4189.871582,4197.051270,4278.461426,4244.743652,4209.871582,4217.179688,4198.589844,4268.589844,4201.794922,4208.077148,4554.102539,4523.717773,4327.051270,4426.025879,5519.000000,0.000000,11.000000,,,,0.000000,4.000000,4.000000,4.000000,4.000000,4.000000,4.000000,4.000000,4.000000,4.000000,4.000000,4.000000,4.000000,4.000000,4.000000,100.000000,,,,,,,,,,,,,,,,,,,,,,,,,,,,,,,,,,,,,,,,,,,,,,,,,,,,,,,,,,,,,,,,,,,,,,,,,,,,,,,,,,,,,,,,,,,,,,,,,,,,,,,,,,,,,,,,,,,,,,,,,,,,,,,,,
1739356266.256057,1739356266.256974,2.000000,0.000000,4190.512695,4196.538574,4277.051270,4247.051270,4207.820313,4216.794922,4193.846191,4265.512695,4200.641113,4215.769043,4550.897461,4523.333496,4330.512695,4424.743652,5527.000000,0.000000,11.000000,,,,0.000000,4.000000,4.000000,4.000000,4.000000,4.000000,4.000000,4.000000,4.000000,4.000000,4.000000,4.000000,4.000000,4.000000,4.000000,100.000000,,,,,,,,,,,,,,,,,,,,,,,,,,,,,,,,,,,,,,,,,,,,,,,,,,,,,,,,,,,,,,,,,,,,,,,,,,,,,,,,,,,,,,,,,,,,,,,,,,,,,,,,,,,,,,,,,,,,,,,,,,,,,,,,,
1739356266.263865,1739356266.264782,3.000000,0.000000,4186.922852,4192.820313,4278.717773,4245.897461,4203.846191,4217.179688,4189.871582,4266.025879,4193.461426,4208.589844,4551.410156,4523.205078,4331.538574,4420.256348,5474.000000,0.000000,11.000000,,,,0.000000,4.000000,4.000000,4.000000,4.000000,4.000000,4.000000,4.000000,4.000000,4.000000,4.000000,4.000000,4.000000,4.000000,4.000000,100.000000,,,,,,,,,,,,,,,,,,,,,,,,,,,,,,,,,,,,,,,,,,,,,,,,,,,,,,,,,,,,,,,,,,,,,,,,,,,,,,,,,,,,,,,,,,,,,,,,,,,,,,,,,,,,,,,,,,,,,,,,,,,,,,,,,
1739356266.271673,1739356266.272490,4.000000,0.000000,4184.743652,4191.666504,4279.358887,4245.769043,4207.307617,4215.512695,4189.743652,4267.436035,4189.487305,4193.846191,4554.358887,4524.743652,4327.563965,4413.205078,5442.000000,0.000000,11.000000,,,,0.000000,4.000000,4.000000,4.000000,4.000000,4.000000,4.000000,4.000000,4.000000,4.000000,4.000000,4.000000,4.000000,4.000000,4.000000,100.000000,,,,,,,,,,,,,,,,,1.000000,0.000000,0.725612,-0.126831,-0.675598,-0.031128,0.992309,-0.125504,0.074716,-41.874989,-28.697899,44.243690,,,,,,,,,,,,,,,,,,,,,,,,,,,,,,,,,,,,,,,,,,,,,,,,,,,,,,,,,,,,,,,,,,,,,,,,,,,,,,,,,,,,,,,,,,,,,,,,,,,,,
1739356266.279481,1739356266.280298,5.000000,0.000000,4186.153809,4192.307617,4282.307617,4254.102539,4215.000000,4222.436035,4202.436035,4269.487305,4192.948730,4196.922852,4553.974121,4529.743652,4325.512695,4417.692383,5424.000000,0.000000,11.000000,,,,0.000000,4.000000,4.000000,4.000000,4.000000,4.000000,4.000000,4.000000,4.000000,4.000000,4.000000,4.000000,4.000000,4.000000,4.000000,100.000000,,,,,,,,,,,,,,,,,,,,,,,,,,,,,,,,,,,,,,,,,,,,,,,,,,,,,,,,,,,,,,,,,,,,,,,,,,,,,,,,,,,,,,,,,,,,,,,,,,,,,,,,,,,,,,,,,,,,,,,,,,,,,,,,,
1739356266.287289,1739356266.288006,6.000000,0.000000,4188.205078,4195.897461,4284.230957,4258.974121,4222.563965,4238.205078,4220.000000,4272.563965,4195.769043,4205.769043,4555.384766,4536.153809,4327.051270,4422.692383,5395.000000,0.000000,11.000000,,,,0.000000,4.000000,4.000000,4.000000,4.000000,4.000000,4.000000,4.000000,4.000000,4.000000,4.000000,4.000000,4.000000,4.000000,4.000000,100.000000,,,,,,,,,,,,,,,,,,,,,,,,,,,,,,,,,,,,,,,,,,,,,,,,,,,,,,,,,,,,,,,,,,,,,,,,,,,,,,,,,,,,,,,,,,,,,,,,,,,,,,,,,,,,,,,,,,,,,,,,,,,,,,,,,
1739356266.295097,1739356266.295814,7.000000,0.000000,4193.333496,4204.487305,4285.512695,4260.384766,4227.692383,4248.974121,4230.641113,4274.487305,4202.948730,4211.025879,4566.282227,4544.230957,4331.153809,4425.384766,2040.000000,0.000000,11.000000,,,,0.000000,4.000000,4.000000,4.000000,4.000000,4.000000,4.000000,4.000000,4.000000,4.000000,4.000000,4.000000,4.000000,4.000000,4.000000,100.000000,,,,,,,,,,,,,,,,,,,,,,,,,,,,,,,,,,,,,,,,,,,,,,,,,,,,,,,,,,,,,,,,,,,,,,,,,,,,,,,,,,,,,,,,,,,,,,,,,,,,,,,,,,,,,,,,,,,,,,,,,,,,,,,,,
1739356266.302905,1739356266.303522,8.000000,0.000000,4182.436035,4190.000000,4274.743652,4246.922852,4205.512695,4228.846191,4211.410156,4272.307617,4198.589844,4201.153809,4559.615234,4529.487305,4323.717773,4418.077148,5180.000000,0.000000,11.000000,,,,0.000000,4.000000,4.000000,4.000000,4.000000,4.000000,4.000000,4.000000,4.000000,4.000000,4.000000,4.000000,4.000000,4.000000,4.000000,100.000000,1.000000,25.000000,1.000000,1.000000,1.000000,1.000000,1.000000,1.000000,1.000000,4.000000,3.000000,1.000000,1.000000,1.000000,1.000000,1.000000,2.000000,0.000000,0.725224,-0.126526,-0.676025,-0.032104,0.977658,-0.134294,0.057136,-41.887489,-28.828110,44.119320,,,,,,,,,,,,,,,,,,,,,,,,,,,,,,,,2.777603,2.055004,1.261809,1.168479,4.151285,2.534121,1.455586,1.093675,1.112829,3.740357,3.292543,2.238755,0.827909,0.768205,3.340500,6.635115,1.117548,0.919977,0.822088,3.978515,1.027164,1.654623,0.381520,0.712689,2.848516,0.713618,1.746301,0.418046,0.727154,3.053934,1.778998,4.499931,0.721383,1.014370,3.691631,3.177805,1.184876,0.364368,0.147057,0.670375,1.585714,1.484630,0.476935,1.228237,3.683942,1.417355,1.102552,0.592147,1.503647,4.466170,1.658133,1.467592,1.465363,1.257360,4.052067,15.445286,3.005750,1.226041,1.372669,5.340786,1.804594,1.391605,1.110288,1.098681,3.183770,1.666832,1.552248,0.927067,1.233470,3.922911
1739356266.310714,1739356266.311330,9.000000,0.000000,4166.410156,4167.563965,4259.230957,4229.871582,4180.384766,4200.256348,4184.102539,4270.512695,4183.077148,4186.666504,4543.974121,4509.743652,4311.794922,4408.077148,5521.000000,0.000000,11.000000,,,,0.000000,4.000000,4.000000,4.000000,4.000000,4.000000,4.000000,4.000000,4.000000,4.000000,4.000000,4.000000,4.000000,4.000000,4.000000,100.000000,,,,,,,,,,,,,,,,,,,,,,,,,,,,,,,,,,,,,,,,,,,,,,,,,,,,,,,,,,,,,,,,,,,,,,,,,,,,,,,,,,,,,,,,,,,,,,,,,,,,,,,,,,,,,,,,,,,,,,,,,,,,,,,,,
1739356266.318522,1739356266.319038,10.000000,0.000000,4176.538574,4180.641113,4266.666504,4237.820313,4191.538574,4207.692383,4190.641113,4273.846191,4188.717773,4195.000000,4554.102539,4523.333496,4322.692383,4414.102539,4801.000000,0.000000,11.000000,,,,0.000000,4.000000,4.000000,4.000000,4.000000,4.000000,4.000000,4.000000,4.000000,4.000000,4.000000,4.000000,4.000000,4.000000,4.000000,100.000000,,,,,,,,,,,,,,,,,,,,,,,,,,,,,,,,,,,,,,,,,,,,,,,,,,,,,,,,,,,,,,,,,,,,,,,,,,,,,,,,,,,,,,,,,,,,,,,,,,,,,,,,,,,,,,,,,,,,,,,,,,,,,,,,,
1739356266.326330,1739356266.326846,11.000000,0.000000,4186.153809,4199.615234,4277.948730,4248.717773,4205.512695,4229.102539,4205.384766,4274.487305,4202.692383,4205.641113,4562.307617,4534.615234,4335.000000,4419.358887,5527.000000,0.000000,11.000000,,,,0.000000,4.000000,4.000000,4.000000,4.000000,4.000000,4.000000,4.000000,4.000000,4.000000,4.000000,4.000000,4.000000,4.000000,4.000000,100.000000,,,,,,,,,,,,,,,,,,,,,,,,,,,,,,,,,,,,,,,,,,,,,,,,,,,,,,,,,,,,,,,,,,,,,,,,,,,,,,,,,,,,,,,,,,,,,,,,,,,,,,,,,,,,,,,,,,,,,,,,,,,,,,,,,
1739356266.334138,1739356266.334554,12.000000,0.000000,4185.897461,4201.794922,4276.410156,4250.384766,4207.436035,4232.179688,4203.461426,4273.333496,4200.256348,4204.358887,4553.846191,4530.897461,4333.846191,4421.025879,5519.000000,0.000000,11.000000,,,,0.000000,4.000000,4.000000,4.000000,4.000000,4.000000,4.000000,4.000000,4.000000,4.000000,4.000000,4.000000,4.000000,4.000000,4.000000,100.000000,,,,,,,,,,,,,,,,,3.000000,0.000000,0.724925,-0.126404,-0.676331,-0.032898,0.975217,-0.133805,0.049811,-41.998741,-28.761965,43.957390,,,,,,,,,,,,,,,,,,,,,,,,,,,,,,,,,,,,,,,,,,,,,,,,,,,,,,,,,,,,,,,,,,,,,,,,,,,,,,,,,,,,,,,,,,,,,,,,,,,,,
1739356266.341946,1739356266.342362,13.000000,0.000000,4193.077148,4202.948730,4280.128418,4258.461426,4215.000000,4229.615234,4201.922852,4272.948730,4190.641113,4201.410156,4554.871582,4537.179688,4333.974121,4422.948730,6356.000000,0.000000,11.000000,,,,0.000000,4.000000,4.000000,4.000000,4.000000,4.000000,4.000000,4.000000,4.000000,4.000000,4.000000,4.000000,4.000000,4.000000,4.000000,100.000000,,,,,,,,,,,,,,,,,,,,,,,,,,,,,,,,,,,,,,,,,,,,,,,,,,,,,,,,,,,,,,,,,,,,,,,,,,,,,,,,,,,,,,,,,,,,,,,,,,,,,,,,,,,,,,,,,,,,,,,,,,,,,,,,,
1739356266.349754,1739356266.350070,14.000000,0.000000,4185.128418,4195.512695,4277.563965,4255.897461,4210.384766,4224.102539,4198.461426,4268.333496,4175.897461,4185.641113,4550.897461,4529.615234,4324.871582,4409.615234,4801.000000,0.000000,11.000000,,,,0.000000,4.000000,4.000000,4.000000,4.000000,4.000000,4.000000,4.000000,4.000000,4.000000,4.000000,4.000000,4.000000,4.000000,4.000000,100.000000,,,,,,,,,,,,,,,,,,,,,,,,,,,,,,,,,,,,,,,,,,,,,,,,,,,,,,,,,,,,,,,,,,,,,,,,,,,,,,,,,,,,,,,,,,,,,,,,,,,,,,,,,,,,,,,,,,,,,,,,,,,,,,,,,
1739356266.357562,1739356266.357978,15.000000,0.000000,4174.358887,4189.743652,4268.205078,4248.333496,4203.205078,4220.897461,4196.410156,4266.153809,4170.384766,4175.256348,4542.820313,4516.410156,4318.846191,4403.205078,5527.000000,0.000000,11.000000,,,,0.000000,4.000000,4.000000,4.000000,4.000000,4.000000,4.000000,4.000000,4.000000,4.000000,4.000000,4.000000,4.000000,4.000000,4.000000,100.000000,,,,,,,,,,,,,,,,,,,,,,,,,,,,,,,,,,,,,,,,,,,,,,,,,,,,,,,,,,,,,,,,,,,,,,,,,,,,,,,,,,,,,,,,,,,,,,,,,,,,,,,,,,,,,,,,,,,,,,,,,,,,,,,,,
1739356266.365370,1739356266.365786,16.000000,0.000000,4186.282227,4199.743652,4274.743652,4257.051270,4212.307617,4227.307617,4206.153809,4271.153809,4184.102539,4190.897461,4552.820313,4531.922852,4328.717773,4417.051270,0.000000,0.000000,11.000000,,,,0.000000,4.000000,4.000000,4.000000,4.000000,4.000000,4.000000,4.000000,4.000000,4.000000,4.000000,4.000000,4.000000,4.000000,4.000000,100.000000,,,,,,,,,,,,,,,,,4.000000,0.000000,0.724752,-0.126648,-0.676453,-0.033264,1.003541,-0.114272,0.054694,-41.965534,-28.752436,44.144985,,,,,,,,,,,,,,,,,,,,,,,,,,,,,,,,,,,,,,,,,,,,,,,,,,,,,,,,,,,,,,,,,,,,,,,,,,,,,,,,,,,,,,,,,,,,,,,,,,,,,
1739356266.373178,1739356266.373694,17.000000,0.000000,4199.487305,4206.025879,4285.897461,4263.461426,4215.769043,4228.205078,4211.922852,4277.179688,4197.563965,4205.769043,4566.153809,4552.436035,4340.128418,4428.846191,0.000000,0.000000,11.000000,,,,0.000000,4.000000,4.000000,4.000000,4.000000,4.000000,4.000000,4.000000,4.000000,4.000000,4.000000,4.000000,4.000000,4.000000,4.000000,100.000000,,,,,,,,,,,,,,,,,,,,,,,,,,,,,,,,,,,,,,,,,,,,,,,,,,,,,,,,,,,,,,,,,,,,,,,,,,,,,,,,,,,,,,,,,,,,,,,,,,,,,,,,,,,,,,,,,,,,,,,,,,,,,,,,,
1739356266.380986,1739356266.381502,18.000000,0.000000,4196.794922,4197.436035,4278.717773,4254.358887,4199.615234,4218.974121,4200.897461,4273.717773,4194.230957,4202.692383,4567.563965,4549.102539,4345.512695,4428.333496,0.000000,0.000000,11.000000,,,,0.000000,4.000000,4.000000,4.000000,4.000000,4.000000,4.000000,4.000000,4.000000,4.000000,4.000000,4.000000,4.000000,4.000000,4.000000,100.000000,,,,,,,,,,,,,,,,,,,,,,,,,,,,,,,,,,,,,,,,,,,,,,,,,,,,,,,,,,,,,,,,,,,,,,,,,,,,,,,,,,,,,,,,,,,,,,,,,,,,,,,,,,,,,,,,,,,,,,,,,,,,,,,,,
1739356266.388794,1739356266.389411,19.000000,0.000000,4201.153809,4198.333496,4276.538574,4257.563965,4198.205078,4224.102539,4202.948730,4270.769043,4196.538574,4207.436035,4570.384766,4552.820313,4350.897461,4434.743652,0.000000,0.000000,11.000000,,,,0.000000,4.000000,4.000000,4.000000,4.000000,4.000000,4.000000,4.000000,4.000000,4.000000,4.000000,4.000000,4.000000,4.000000,4.000000,100.000000,,,,,,,,,,,,,,,,,,,,,,,,,,,,,,,,,,,,,,,,,,,,,,,,,,,,,,,,,,,,,,,,,,,,,,,,,,,,,,,,,,,,,,,,,,,,,,,,,,,,,,,,,,,,,,,,,,,,,,,,,,,,,,,,,
1739356266.396603,1739356266.397219,20.000000,0.000000,4206.410156,4205.256348,4287.820313,4267.307617,4213.461426,4233.333496,4217.436035,4278.846191,4211.025879,4215.641113,4571.153809,4564.358887,4349.358887,4440.897461,0.000000,0.000000,11.000000,,,,0.000000,4.000000,4.000000,4.000000,4.000000,4.000000,4.000000,4.000000,4.000000,4.000000,4.000000,4.000000,4.000000,4.000000,4.000000,100.000000,,,,,,,,,,,,,,,,,5.000000,0.000000,0.724687,-0.126709,-0.676514,-0.033203,0.995727,-0.124039,0.067879,-42.052315,-28.710526,44.197151,,,,,,,,,,,,,,,,,,,,,,,,,,,,,,,,,,,,,,,,,,,,,,,,,,,,,,,,,,,,,,,,,,,,,,,,,,,,,,,,,,,,,,,,,,,,,,,,,,,,,
1739356266.404410,1739356266.405127,21.000000,0.000000,4203.589844,4203.205078,4291.410156,4266.025879,4215.769043,4234.230957,4221.025879,4283.589844,4219.358887,4218.333496,4568.846191,4565.128418,4346.666504,4440.769043,0.000000,0.000000,11.000000,,,,0.000000,4.000000,4.000000,4.000000,4.000000,4.000000,4.000000,4.000000,4.000000,4.000000,4.000000,4.000000,4.000000,4.000000,4.000000,100.000000,,,,,,,,,,,,,,,,,,,,,,,,,,,,,,,,,,,,,,,,,,,,,,,,,,,,,,,,,,,,,,,,,,,,,,,,,,,,,,,,,,,,,,,,,,,,,,,,,,,,,,,,,,,,,,,,,,,,,,,,,,,,,,,,,
1739356266.412219,1739356266.412935,22.000000,0.000000,4197.820313,4192.692383,4279.615234,4254.358887,4201.025879,4226.922852,4207.948730,4275.769043,4207.179688,4209.102539,4565.256348,4553.077148,4343.461426,4431.666504,0.000000,0.000000,11.000000,,,,0.000000,4.000000,4.000000,4.000000,4.000000,4.000000,4.000000,4.000000,4.000000,4.000000,4.000000,4.000000,4.000000,4.000000,4.000000,100.000000,,,,,,,,,,,,,,,,,,,,,,,,,,,,,,,,,,,,,,,,,,,,,,,,,,,,,,,,,,,,,,,,,,,,,,,,,,,,,,,,,,,,,,,,,,,,,,,,,,,,,,,,,,,,,,,,,,,,,,,,,,,,,,,,,
