Timestamp,OriginalTimestamp,EEG.Counter,EEG.Interpolated,EEG.AF3,EEG.F7,EEG.F3,EEG.FC5,EEG.T7,EEG.P7,EEG.O1,EEG.O2,EEG.P8,EEG.T8,EEG.FC6,EEG.F4,EEG.F8,EEG.AF4,EEG.RawCq,EEG.Battery,EEG.BatteryPercent,MarkerIndex,MarkerType,MarkerValueInt,EEG.MarkerHardware,CQ.AF3,CQ.F7,CQ.F3,CQ.FC5,CQ.T7,CQ.P7,CQ.O1,CQ.O2,CQ.P8,CQ.T8,CQ.FC6,CQ.F4,CQ.F8,CQ.AF4,CQ.Overall,EQ.SampleRateQuality,EQ.OVERALL,EQ.AF3,EQ.F7,EQ.F3,EQ.FC5,EQ.T7,EQ.P7,EQ.O1,EQ.O2,EQ.P8,EQ.T8,EQ.FC6,EQ.F4,EQ.F8,EQ.AF4,MOT.CounterMems,MOT.InterpolatedMems,MOT.Q0,MOT.Q1,MOT.Q2,MOT.Q3,MOT.AccX,MOT.AccY,MOT.AccZ,MOT.MagX,MOT.MagY,MOT.MagZ,PM.Attention.IsActive,PM.Attention.Scaled,PM.Attention.Raw,PM.Attention.Min,PM.Attention.Max,PM.Engagement.IsActive,PM.Engagement.Scaled,PM.Engagement.Raw,PM.Engagement.Min,PM.Engagement.Max,PM.Excitement.IsActive,PM.Excitement.Scaled,PM.Excitement.Raw,PM.Excitement.Min,PM.Excitement.Max,PM.LongTermExcitement,PM.Stress.IsActive,PM.Stress.Scaled,PM.Stress.Raw,PM.Stress.Min,PM.Stress.Max,PM.Relaxation.IsActive,PM.Relaxation.Scaled,PM.Relaxation.Raw,PM.Relaxation.Min,PM.Relaxation.Max,PM.Interest.IsActive,PM.Interest.Scaled,PM.Interest.Raw,PM.Interest.Min,PM.Interest.Max,POW.AF3.Theta,POW.AF3.Alpha,POW.AF3.BetaL,POW.AF3.BetaH,POW.AF3.Gamma,POW.F7.Theta,POW.F7.Alpha,POW.F7.BetaL,POW.F7.BetaH,POW.F7.Gamma,POW.F3.Theta,POW.F3.Alpha,POW.F3.BetaL,POW.F3.BetaH,POW.F3.Gamma,POW.FC5.Theta,POW.FC5.Alpha,POW.FC5.BetaL,POW.FC5.BetaH,POW.FC5.Gamma,POW.T7.Theta,POW.T7.Alpha,POW.T7.BetaL,POW.T7.BetaH,POW.T7.Gamma,POW.P7.Theta,POW.P7.Alpha,POW.P7.BetaL,POW.P7.BetaH,POW.P7.Gamma,POW.O1.Theta,POW.O1.Alpha,POW.O1.BetaL,POW.O1.BetaH,POW.O1.Gamma,POW.O2.Theta,POW.O2.Alpha,POW.O2.BetaL,POW.O2.BetaH,POW.O2.Gamma,POW.P8.Theta,POW.P8.Alpha,POW.P8.BetaL,POW.P8.BetaH,POW.P8.Gamma,POW.T8.Theta,POW.T8.Alpha,POW.T8.BetaL,POW.T8.BetaH,POW.T8.Gamma,POW.FC6.Theta,POW.FC6.Alpha,POW.FC6.BetaL,POW.FC6.BetaH,POW.FC6.Gamma,POW.F4.Theta,POW.F4.Alpha,POW.F4.BetaL,POW.F4.BetaH,POW.F4.Gamma,POW.F8.Theta,POW.F8.Alpha,POW.F8.BetaL,POW.F8.BetaH,POW.F8.Gamma,POW.AF4.Theta,POW.AF4.Alpha,POW.AF4.BetaL,POW.AF4.BetaH,POW.AF4.Gamma
1739355661.793655,1739355661.794219,27.000000,0.000000,4292.820313,4278.461426,4334.615234,4318.589844,4249.871582,4242.948730,4241.922852,4280.128418,4238.333496,4228.846191,4558.846191,4518.461426,4387.563965,4474.358887,0.000000,0.000000,13.000000,,,,0.000000,4.000000,4.000000,4.000000,4.000000,4.000000,4.000000,4.000000,4.000000,4.000000,4.000000,4.000000,4.000000,4.000000,4.000000,100.000000,,,,,,,,,,,,,,,,,,,,,,,,,,,,,,,,,,,,,,,,,,,,,,,,,,,,,,,,,,,,,,,,,,,,,,,,,,,,,,,,,,,,,,,,,,,,,,,,,,,,,,,,,,,,,,,,,,,,,,,,,,,,,,,,,
1739355661.801463,1739355661.801927,28.000000,0.000000,4298.717773,4290.512695,4344.871582,4328.846191,4268.333496,4256.025879,4255.512695,4285.384766,4248.974121,4233.077148,4566.922852,4524.487305,4391.922852,4483.589844,0.000000,0.000000,13.000000,,,,0.000000,4.000000,4.000000,4.000000,4.000000,4.000000,4.000000,4.000000,4.000000,4.000000,4.000000,4.000000,4.000000,4.000000,4.000000,100.000000,,,,,,,,,,,,,,,,,7.000000,0.000000,0.679307,0.080750,-0.678833,0.266846,0.959101,-0.248077,0.067879,-40.264523,-31.124487,44.505665,,,,,,,,,,,,,,,,,,,,,,,,,,,,,,,,,,,,,,,,,,,,,,,,,,,,,,,,,,,,,,,,,,,,,,,,,,,,,,,,,,,,,,,,,,,,,,,,,,,,,
1739355661.809271,1739355661.809735,29.000000,0.000000,4303.333496,4302.436035,4342.563965,4333.077148,4269.743652,4269.871582,4267.563965,4287.563965,4253.589844,4249.743652,4567.307617,4525.128418,4395.384766,4485.128418,0.000000,0.000000,13.000000,,,,0.000000,4.000000,4.000000,4.000000,4.000000,4.000000,4.000000,4.000000,4.000000,4.000000,4.000000,4.000000,4.000000,4.000000,4.000000,100.000000,,,,,,,,,,,,,,,,,,,,,,,,,,,,,,,,,,,,,,,,,,,,,,,,,,,,,,,,,,,,,,,,,,,,,,,,,,,,,,,,,,,,,,,,,,,,,,,,,,,,,,,,,,,,,,,,,,,,,,,,,,,,,,,,,
1739355661.817079,1739355661.817443,30.000000,0.000000,4273.589844,4273.077148,4305.769043,4307.307617,4241.025879,4240.512695,4232.692383,4272.820313,4221.538574,4221.282227,4531.922852,4477.179688,4371.538574,4450.897461,0.000000,0.000000,13.000000,,,,0.000000,4.000000,4.000000,4.000000,4.000000,4.000000,4.000000,4.000000,4.000000,4.000000,4.000000,4.000000,4.000000,4.000000,4.000000,100.000000,,,,,,,,,,,,,,,,,,,,,,,,,,,,,,,,,,,,,,,,,,,,,,,,,,,,,,,,,,,,,,,,,,,,,,,,,,,,,,,,,,,,,,,,,,,,,,,,,,,,,,,,,,,,,,,,,,,,,,,,,,,,,,,,,
1739355661.824888,1739355661.825251,31.000000,0.000000,4257.307617,4257.820313,4293.461426,4298.589844,4233.846191,4218.461426,4210.000000,4269.230957,4203.205078,4194.743652,4521.153809,4453.589844,4367.051270,4439.230957,0.000000,0.000000,13.000000,,,,0.000000,4.000000,4.000000,4.000000,4.000000,4.000000,4.000000,4.000000,4.000000,4.000000,4.000000,4.000000,4.000000,4.000000,4.000000,100.000000,,,,,,,,,,,,,,,,,,,,,,,,,,,,,,,,,,,,,,,,,,,,,,,,,,,,,,,,,,,,,,,,,,,,,,,,,,,,,,,,,,,,,,,,,,,,,,,,,,,,,,,,,,,,,,,,,,,,,,,,,,,,,,,,,
1739355661.832696,1739355661.832959,32.000000,0.000000,4302.179688,4300.000000,4332.563965,4334.871582,4264.230957,4252.563965,4250.128418,4288.205078,4243.077148,4240.128418,4569.230957,4511.410156,4411.922852,4485.128418,0.000000,0.000000,13.000000,,,,0.000000,4.000000,4.000000,4.000000,4.000000,4.000000,4.000000,4.000000,4.000000,4.000000,4.000000,4.000000,4.000000,4.000000,4.000000,100.000000,,,,,,,,,,,,,,,,,8.000000,0.000000,0.679422,0.080811,-0.678711,0.266846,0.969845,-0.244170,0.070809,-40.171406,-31.112040,44.571766,,,,,,,,,,,,,,,,,,,,,,,,,,,,,,,,,,,,,,,,,,,,,,,,,,,,,,,,,,,,,,,,,,,,,,,,,,,,,,,,,,,,,,,,,,,,,,,,,,,,,
1739355661.840504,1739355661.840767,33.000000,0.000000,4330.000000,4323.333496,4351.666504,4351.794922,4274.743652,4270.000000,4266.282227,4292.436035,4268.333496,4266.410156,4590.897461,4546.025879,4432.307617,4512.307617,0.000000,0.000000,13.000000,,,,0.000000,4.000000,4.000000,4.000000,4.000000,4.000000,4.000000,4.000000,4.000000,4.000000,4.000000,4.000000,4.000000,4.000000,4.000000,100.000000,,,,,,,,,,,,,,,,,,,,,,,,,,,,,,,,,,,,,,,,,,,,,,,,,,,,,,,,,,,,,,,,,,,,,,,,,,,,,,,,,,,,,,,,,,,,,,,,,,,,,,,,,,,,,,,,,,,,,,,,,,,,,,,,,
1739355661.848312,1739355661.848475,34.000000,0.000000,4311.794922,4303.589844,4338.077148,4336.922852,4256.538574,4247.179688,4236.666504,4280.000000,4245.256348,4235.128418,4570.000000,4522.051270,4413.077148,4496.410156,0.000000,0.000000,13.000000,,,,0.000000,4.000000,4.000000,4.000000,4.000000,4.000000,4.000000,4.000000,4.000000,4.000000,4.000000,4.000000,4.000000,4.000000,4.000000,100.000000,,,,,,,,,,,,,,,,,,,,,,,,,,,,,,,,,,,,,,,,,,,,,,,,,,,,,,,,,,,,,,,,,,,,,,,,,,,,,,,,,,,,,,,,,,,,,,,,,,,,,,,,,,,,,,,,,,,,,,,,,,,,,,,,,
1739355661.856120,1739355661.856283,35.000000,0.000000,4315.512695,4300.641113,4342.051270,4344.102539,4267.563965,4249.230957,4241.025879,4283.077148,4243.717773,4226.538574,4565.000000,4524.615234,4412.820313,4496.538574,0.000000,0.000000,13.000000,,,,0.000000,4.000000,4.000000,4.000000,4.000000,4.000000,4.000000,4.000000,4.000000,4.000000,4.000000,4.000000,4.000000,4.000000,4.000000,100.000000,,,,,,,,,,,,,,,,,,,,,,,,,,,,,,,,,,,,,,,,,,,,,,,,,,,,,,,,,,,,,,,,,,,,,,,,,,,,,,,,,,,,,,,,,,,,,,,,,,,,,,,,,,,,,,,,,,,,,,,,,,,,,,,,,
1739355661.863928,1739355661.863991,36.000000,0.000000,4323.589844,4303.205078,4342.692383,4350.897461,4282.563965,4264.871582,4257.179688,4288.333496,4253.589844,4235.512695,4567.179688,4533.589844,4417.692383,4502.307617,0.000000,0.000000,13.000000,,,,0.000000,4.000000,4.000000,4.000000,4.000000,4.000000,4.000000,4.000000,4.000000,4.000000,4.000000,4.000000,4.000000,4.000000,4.000000,100.000000,,,,,,,,,,,,,,,,,9.000000,0.000000,0.679445,0.080933,-0.678650,0.266907,0.974728,-0.252472,0.062508,-40.104263,-31.067501,44.481255,,,,,,,,,,,,,,,,,,,,,,,,,,,,,,,,,,,,,,,,,,,,,,,,,,,,,,,,,,,,,,,,,,,,,,,,,,,,,,,,,,,,,,,,,,,,,,,,,,,,,
1739355661.871736,1739355661.871799,37.000000,0.000000,4302.820313,4285.128418,4322.563965,4330.128418,4266.025879,4258.333496,4243.205078,4276.794922,4234.358887,4213.846191,4552.692383,4509.871582,4399.615234,4486.025879,0.000000,0.000000,13.000000,,,,0.000000,4.000000,4.000000,4.000000,4.000000,4.000000,4.000000,4.000000,4.000000,4.000000,4.000000,4.000000,4.000000,4.000000,4.000000,100.000000,,,,,,,,,,,,,,,,,,,,,,,,,,,,,,,,,,,,,,,,,,,,,,,,,,,,,,,,,,,,,,,,,,,,,,,,,,,,,,,,,,,,,,,,,,,,,,,,,,,,,,,,,,,,,,,,,,,,,,,,,,,,,,,,,
1739355661.879544,1739355661.879507,38.000000,0.000000,4312.820313,4298.077148,4334.102539,4339.743652,4269.358887,4264.358887,4250.897461,4279.230957,4243.974121,4222.436035,4565.256348,4520.641113,4406.153809,4495.769043,0.000000,0.000000,13.000000,,,,0.000000,4.000000,4.000000,4.000000,4.000000,4.000000,4.000000,4.000000,4.000000,4.000000,4.000000,4.000000,4.000000,4.000000,4.000000,100.000000,,,,,,,,,,,,,,,,,,,,,,,,,,,,,,,,,,,,,,,,,,,,,,,,,,,,,,,,,,,,,,,,,,,,,,,,,,,,,,,,,,,,,,,,,,,,,,,,,,,,,,,,,,,,,,,,,,,,,,,,,,,,,,,,,
1739355661.887352,1739355661.887416,39.000000,0.000000,4332.307617,4314.871582,4351.153809,4364.358887,4278.461426,4274.743652,4271.922852,4292.179688,4271.410156,4258.461426,4584.358887,4541.153809,4423.333496,4512.563965,0.000000,0.000000,13.000000,,,,0.000000,4.000000,4.000000,4.000000,4.000000,4.000000,4.000000,4.000000,4.000000,4.000000,4.000000,4.000000,4.000000,4.000000,4.000000,100.000000,,,,,,,,,,,,,,,,,,,,,,,,,,,,,,,,,,,,,,,,,,,,,,,,,,,,,,,,,,,,,,,,,,,,,,,,,,,,,,,,,,,,,,,,,,,,,,,,,,,,,,,,,,,,,,,,,,,,,,,,,,,,,,,,,
1739355661.895160,1739355661.895224,40.000000,0.000000,4326.153809,4302.436035,4347.179688,4370.128418,4283.205078,4281.666504,4281.538574,4294.358887,4277.051270,4270.384766,4584.358887,4537.051270,4417.820313,4508.717773,0.000000,0.000000,13.000000,,,,0.000000,4.000000,4.000000,4.000000,4.000000,4.000000,4.000000,4.000000,4.000000,4.000000,4.000000,4.000000,4.000000,4.000000,4.000000,100.000000,,,,,,,,,,,,,,,,,10.000000,0.000000,0.679284,0.081055,-0.678772,0.266968,0.968380,-0.248565,0.065438,-40.043839,-31.160751,44.533131,,,,,,,,,,,,,,,,,,,,,,,,,,,,,,,,1.135503,1.683028,0.586977,0.442181,0.304665,2.425438,1.643838,0.779192,0.505685,0.397231,1.060615,1.062293,0.562338,0.353074,0.313415,0.748200,0.714287,0.543436,0.443110,0.413854,1.084689,0.462507,0.831430,0.716845,0.436241,1.160878,0.438878,0.684725,0.335711,0.279279,1.306495,0.721089,0.792994,0.432724,0.354012,0.207501,0.074683,0.075825,0.066842,0.058989,1.777901,1.086947,0.699528,0.521694,0.276589,2.113818,1.850488,0.828620,1.044065,0.613296,1.273156,1.495781,0.369146,0.524019,0.275685,1.403460,2.096648,0.573997,0.621186,0.449709,2.269104,1.357844,0.533157,0.364599,0.317241,1.093746,1.239919,0.578384,0.450726,0.316832
1739355661.902969,1739355661.903132,41.000000,0.000000,4330.769043,4304.487305,4355.384766,4378.717773,4306.153809,4298.461426,4294.743652,4296.666504,4284.487305,4273.461426,4590.128418,4548.461426,4412.051270,4512.307617,0.000000,0.000000,13.000000,,,,0.000000,4.000000,4.000000,4.000000,4.000000,4.000000,4.000000,4.000000,4.000000,4.000000,4.000000,4.000000,4.000000,4.000000,4.000000,100.000000,,,,,,,,,,,,,,,,,,,,,,,,,,,,,,,,,,,,,,,,,,,,,,,,,,,,,,,,,,,,,,,,,,,,,,,,,,,,,,,,,,,,,,,,,,,,,,,,,,,,,,,,,,,,,,,,,,,,,,,,,,,,,,,,,
1739355661.910777,1739355661.910940,42.000000,0.000000,4334.230957,4314.358887,4357.692383,4385.000000,4309.615234,4298.846191,4292.051270,4294.743652,4285.384766,4267.307617,4585.128418,4550.769043,4414.615234,4515.512695,0.000000,0.000000,13.000000,,,,0.000000,4.000000,4.000000,4.000000,4.000000,4.000000,4.000000,4.000000,4.000000,4.000000,4.000000,4.000000,4.000000,4.000000,4.000000,100.000000,,,,,,,,,,,,,,,,,,,,,,,,,,,,,,,,,,,,,,,,,,,,,,,,,,,,,,,,,,,,,,,,,,,,,,,,,,,,,,,,,,,,,,,,,,,,,,,,,,,,,,,,,,,,,,,,,,,,,,,,,,,,,,,,,
1739355661.918585,1739355661.918849,43.000000,0.000000,4329.487305,4310.512695,4351.666504,4388.589844,4289.615234,4288.846191,4276.794922,4288.333496,4276.282227,4261.922852,4579.743652,4540.000000,4421.410156,4514.871582,0.000000,0.000000,13.000000,,,,0.000000,4.000000,4.000000,4.000000,4.000000,4.000000,4.000000,4.000000,4.000000,4.000000,4.000000,4.000000,4.000000,4.000000,4.000000,100.000000,,,,,,,,,,,,,,,,,,,,,,,,,,,,,,,,,,,,,,,,,,,,,,,,,,,,,,,,,,,,,,,,,,,,,,,,,,,,,,,,,,,,,,,,,,,,,,,,,,,,,,,,,,,,,,,,,,,,,,,,,,,,,,,,,
1739355661.926393,1739355661.926657,44.000000,0.000000,4350.897461,4321.153809,4371.794922,4421.794922,4307.563965,4304.487305,4287.563965,4297.436035,4293.717773,4292.563965,4606.666504,4566.025879,4443.077148,4535.641113,0.000000,0.000000,13.000000,,,,0.000000,4.000000,4.000000,4.000000,4.000000,4.000000,4.000000,4.000000,4.000000,4.000000,4.000000,4.000000,4.000000,4.000000,4.000000,100.000000,,,,,,,,,,,,,,,,,11.000000,0.000000,0.679297,0.081055,-0.678711,0.267090,0.954218,-0.253449,0.079600,-39.906120,-31.194675,44.579819,,,,,,,,,,,,,,,,,,,,,,,,,,,,,,,,,,,,,,,,,,,,,,,,,,,,,,,,,,,,,,,,,,,,,,,,,,,,,,,,,,,,,,,,,,,,,,,,,,,,,
1739355661.934201,1739355661.934565,45.000000,0.000000,4371.794922,4337.307617,4389.615234,4458.205078,4333.205078,4316.410156,4303.333496,4306.922852,4316.794922,4319.871582,4629.102539,4591.666504,4462.692383,4551.794922,0.000000,0.000000,13.000000,,,,0.000000,4.000000,4.000000,4.000000,4.000000,4.000000,4.000000,4.000000,4.000000,4.000000,4.000000,4.000000,4.000000,4.000000,4.000000,100.000000,,,,,,,,,,,,,,,,,,,,,,,,,,,,,,,,,,,,,,,,,,,,,,,,,,,,,,,,,,,,,,,,,,,,,,,,,,,,,,,,,,,,,,,,,,,,,,,,,,,,,,,,,,,,,,,,,,,,,,,,,,,,,,,,,
1739355661.942009,1739355661.942373,46.000000,0.000000,4352.563965,4318.461426,4369.871582,4450.897461,4307.692383,4297.307617,4288.717773,4299.102539,4302.948730,4297.820313,4613.717773,4570.769043,4454.743652,4533.974121,0.000000,0.000000,13.000000,,,,0.000000,4.000000,4.000000,4.000000,4.000000,4.000000,4.000000,4.000000,4.000000,4.000000,4.000000,4.000000,4.000000,4.000000,4.000000,100.000000,,,,,,,,,,,,,,,,,,,,,,,,,,,,,,,,,,,,,,,,,,,,,,,,,,,,,,,,,,,,,,,,,,,,,,,,,,,,,,,,,,,,,,,,,,,,,,,,,,,,,,,,,,,,,,,,,,,,,,,,,,,,,,,,,
1739355661.949817,1739355661.950281,47.000000,0.000000,4340.512695,4307.436035,4360.641113,4449.358887,4294.102539,4294.230957,4284.743652,4296.282227,4297.820313,4293.205078,4610.897461,4560.769043,4450.384766,4527.692383,0.000000,0.000000,13.000000,,,,0.000000,4.000000,4.000000,4.000000,4.000000,4.000000,4.000000,4.000000,4.000000,4.000000,4.000000,4.000000,4.000000,4.000000,4.000000,100.000000,,,,,,,,,,,,,,,,,,,,,,,,,,,,,,,,,,,,,,,,,,,,,,,,,,,,,,,,,,,,,,,,,,,,,,,,,,,,,,,,,,,,,,,,,,,,,,,,,,,,,,,,,,,,,,,,,,,,,,,,,,,,,,,,,
1739355661.957625,1739355661.958089,48.000000,0.000000,4356.538574,4326.538574,4378.205078,4481.410156,4311.666504,4308.461426,4302.051270,4304.230957,4319.615234,4329.102539,4633.333496,4579.615234,4466.410156,4546.282227,0.000000,0.000000,13.000000,,,,0.000000,4.000000,4.000000,4.000000,4.000000,4.000000,4.000000,4.000000,4.000000,4.000000,4.000000,4.000000,4.000000,4.000000,4.000000,100.000000,,,,,,,,,,,,,,,,,12.000000,0.000000,0.679450,0.080994,-0.678589,0.267029,0.967892,-0.254914,0.068856,-39.832176,-31.025209,44.538502,,,,,,,,,,,,,,,,,,,,,,,,,,,,,,,,,,,,,,,,,,,,,,,,,,,,,,,,,,,,,,,,,,,,,,,,,,,,,,,,,,,,,,,,,,,,,,,,,,,,,
1739355661.965433,1739355661.965998,49.000000,0.000000,4379.871582,4344.230957,4400.000000,4521.282227,4323.717773,4322.307617,4320.256348,4311.538574,4334.743652,4345.000000,4647.692383,4598.205078,4478.333496,4564.743652,0.000000,0.000000,13.000000,,,,0.000000,4.000000,4.000000,4.000000,4.000000,4.000000,4.000000,4.000000,4.000000,4.000000,4.000000,4.000000,4.000000,4.000000,4.000000,100.000000,,,,,,,,,,,,,,,,,,,,,,,,,,,,,,,,,,,,,,,,,,,,,,,,,,,,,,,,,,,,,,,,,,,,,,,,,,,,,,,,,,,,,,,,,,,,,,,,,,,,,,,,,,,,,,,,,,,,,,,,,,,,,,,,,
1739355661.973241,1739355661.973806,50.000000,0.000000,4400.769043,4356.410156,4418.333496,4552.563965,4337.179688,4343.333496,4333.205078,4309.615234,4338.205078,4342.179688,4652.179688,4615.000000,4477.436035,4578.077148,0.000000,0.000000,13.000000,,,,0.000000,4.000000,4.000000,4.000000,4.000000,4.000000,4.000000,4.000000,4.000000,4.000000,4.000000,4.000000,4.000000,4.000000,4.000000,100.000000,,,,,,,,,,,,,,,,,,,,,,,,,,,,,,,,,,,,,,,,,,,,,,,,,,,,,,,,,,,,,,,,,,,,,,,,,,,,,,,,,,,,,,,,,,,,,,,,,,,,,,,,,,,,,,,,,,,,,,,,,,,,,,,,,
1739355661.981049,1739355661.981714,51.000000,0.000000,4385.000000,4341.410156,4401.282227,4541.410156,4334.230957,4330.256348,4310.641113,4295.256348,4312.948730,4320.512695,4630.384766,4597.307617,4459.743652,4560.897461,0.000000,0.000000,13.000000,,,,0.000000,4.000000,4.000000,4.000000,4.000000,4.000000,4.000000,4.000000,4.000000,4.000000,4.000000,4.000000,4.000000,4.000000,4.000000,100.000000,,,,,,,,,,,,,,,,,,,,,,,,,,,,,,,,,,,,,,,,,,,,,,,,,,,,,,,,,,,,,,,,,,,,,,,,,,,,,,,,,,,,,,,,,,,,,,,,,,,,,,,,,,,,,,,,,,,,,,,,,,,,,,,,,
1739355661.988857,1739355661.989522,52.000000,0.000000,4375.512695,4334.743652,4391.153809,4536.282227,4330.256348,4314.230957,4298.717773,4292.051270,4302.436035,4311.666504,4620.384766,4585.641113,4458.461426,4554.871582,0.000000,0.000000,13.000000,,,,0.000000,4.000000,4.000000,4.000000,4.000000,4.000000,4.000000,4.000000,4.000000,4.000000,4.000000,4.000000,4.000000,4.000000,4.000000,100.000000,,,,,,,,,,,,,,,,,13.000000,0.000000,0.679506,0.080933,-0.678589,0.266907,0.969357,-0.249054,0.069344,-39.765625,-31.039354,44.501320,,,,,,,,,,,,,,,,,,,,,,,,,,,,,,,,,,,,,,,,,,,,,,,,,,,,,,,,,,,,,,,,,,,,,,,,,,,,,,,,,,,,,,,,,,,,,,,,,,,,,
1739355661.996665,1739355661.997230,53.000000,0.000000,4405.897461,4365.384766,4421.025879,4578.205078,4351.538574,4341.282227,4334.230957,4300.897461,4332.820313,4337.436035,4645.897461,4616.025879,4481.922852,4585.000000,0.000000,0.000000,13.000000,,,,0.000000,4.000000,4.000000,4.000000,4.000000,4.000000,4.000000,4.000000,4.000000,4.000000,4.000000,4.000000,4.000000,4.000000,4.000000,100.000000,,,,,,,,,,,,,,,,,,,,,,,,,,,,,,,,,,,,,,,,,,,,,,,,,,,,,,,,,,,,,,,,,,,,,,,,,,,,,,,,,,,,,,,,,,,,,,,,,,,,,,,,,,,,,,,,,,,,,,,,,,,,,,,,,
1739355662.004474,1739355662.005038,54.000000,0.000000,4424.487305,4384.358887,4436.153809,4608.077148,4370.769043,4363.846191,4352.563965,4302.436035,4349.358887,4347.820313,4653.461426,4634.230957,4493.205078,4596.410156,0.000000,0.000000,13.000000,,,,0.000000,4.000000,4.000000,4.000000,4.000000,4.000000,4.000000,4.000000,4.000000,4.000000,4.000000,4.000000,4.000000,4.000000,4.000000,100.000000,,,,,,,,,,,,,,,,,,,,,,,,,,,,,,,,,,,,,,,,,,,,,,,,,,,,,,,,,,,,,,,,,,,,,,,,,,,,,,,,,,,,,,,,,,,,,,,,,,,,,,,,,,,,,,,,,,,,,,,,,,,,,,,,,
1739355662.012282,1739355662.012746,55.000000,0.000000,4426.410156,4382.948730,4436.025879,4609.871582,4371.666504,4358.846191,4343.205078,4301.538574,4349.487305,4348.846191,4650.769043,4634.871582,4491.922852,4593.717773,0.000000,0.000000,13.000000,,,,0.000000,4.000000,4.000000,4.000000,4.000000,4.000000,4.000000,4.000000,4.000000,4.000000,4.000000,4.000000,4.000000,4.000000,4.000000,100.000000,,,,,,,,,,,,,,,,,,,,,,,,,,,,,,,,,,,,,,,,,,,,,,,,,,,,,,,,,,,,,,,,,,,,,,,,,,,,,,,,,,,,,,,,,,,,,,,,,,,,,,,,,,,,,,,,,,,,,,,,,,,,,,,,,
1739355662.020090,1739355662.020654,56.000000,0.000000,4428.205078,4382.307617,4440.128418,4606.538574,4358.077148,4347.563965,4339.358887,4299.743652,4350.000000,4361.410156,4659.615234,4636.153809,4489.615234,4594.743652,0.000000,0.000000,13.000000,,,,0.000000,4.000000,4.000000,4.000000,4.000000,4.000000,4.000000,4.000000,4.000000,4.000000,4.000000,4.000000,4.000000,4.000000,4.000000,100.000000,,,,,,,,,,,,,,,,,14.000000,0.000000,0.679479,0.080750,-0.678589,0.267029,0.958613,-0.253449,0.072274,-39.805729,-30.985418,44.401188,,,,,,,,,,,,,,,,,,,,,,,,,,,,,,,,1.181682,1.955808,0.534358,0.492085,0.296880,3.017511,2.197440,0.793482,0.616397,0.430890,1.125336,1.127263,0.549579,0.422731,0.287811,0.856378,0.843744,0.438597,0.566712,0.398513,1.129832,0.423887,0.716978,0.814600,0.427757,1.270927,0.357030,0.646627,0.360543,0.279858,1.503462,0.575203,0.713396,0.441003,0.346064,0.240371,0.074382,0.078724,0.067696,0.054568,2.110900,1.086987,0.677937,0.570542,0.261651,2.635831,1.846532,0.745035,1.076933,0.590538,1.658163,1.598641,0.355605,0.563530,0.239912,1.617259,2.288989,0.533445,0.707565,0.426731,3.396077,1.379949,0.655558,0.377598,0.299446,1.327921,1.428521,0.546349,0.508947,0.306131
1739355662.027898,1739355662.028463,57.000000,0.000000,4416.025879,4376.282227,4430.256348,4596.153809,4345.641113,4338.846191,4331.153809,4293.333496,4331.794922,4347.820313,4651.410156,4621.666504,4481.025879,4581.282227,0.000000,0.000000,13.000000,,,,0.000000,4.000000,4.000000,4.000000,4.000000,4.000000,4.000000,4.000000,4.000000,4.000000,4.000000,4.000000,4.000000,4.000000,4.000000,100.000000,,,,,,,,,,,,,,,,,,,,,,,,,,,,,,,,,,,,,,,,,,,,,,,,,,,,,,,,,,,,,,,,,,,,,,,,,,,,,,,,,,,,,,,,,,,,,,,,,,,,,,,,,,,,,,,,,,,,,,,,,,,,,,,,,
1739355662.035706,1739355662.036371,58.000000,0.000000,4417.436035,4384.743652,4427.820313,4601.410156,4363.077148,4352.436035,4340.384766,4297.692383,4333.077148,4337.948730,4650.512695,4622.563965,4490.256348,4582.307617,0.000000,0.000000,13.000000,,,,0.000000,4.000000,4.000000,4.000000,4.000000,4.000000,4.000000,4.000000,4.000000,4.000000,4.000000,4.000000,4.000000,4.000000,4.000000,100.000000,,,,,,,,,,,,,,,,,,,,,,,,,,,,,,,,,,,,,,,,,,,,,,,,,,,,,,,,,,,,,,,,,,,,,,,,,,,,,,,,,,,,,,,,,,,,,,,,,,,,,,,,,,,,,,,,,,,,,,,,,,,,,,,,,
1739355662.043514,1739355662.044180,59.000000,0.000000,4433.589844,4404.487305,4447.051270,4618.589844,4383.461426,4375.641113,4367.436035,4306.410156,4365.128418,4368.461426,4672.051270,4645.384766,4507.948730,4604.615234,0.000000,0.000000,13.000000,,,,0.000000,4.000000,4.000000,4.000000,4.000000,4.000000,4.000000,4.000000,4.000000,4.000000,4.000000,4.000000,4.000000,4.000000,4.000000,100.000000,,,,,,,,,,,,,,,,,,,,,,,,,,,,,,,,,,,,,,,,,,,,,,,,,,,,,,,,,,,,,,,,,,,,,,,,,,,,,,,,,,,,,,,,,,,,,,,,,,,,,,,,,,,,,,,,,,,,,,,,,,,,,,,,,
1739355662.051322,1739355662.051988,60.000000,0.000000,4418.846191,4391.282227,4442.563965,4604.102539,4369.358887,4367.820313,4363.717773,4302.307617,4361.282227,4367.307617,4667.051270,4632.820313,4491.794922,4595.897461,0.000000,0.000000,13.000000,,,,0.000000,4.000000,4.000000,4.000000,4.000000,4.000000,4.000000,4.000000,4.000000,4.000000,4.000000,4.000000,4.000000,4.000000,4.000000,100.000000,,,,,,,,,,,,,,,,,15.000000,0.000000,0.679540,0.080750,-0.678528,0.267029,0.969845,-0.255891,0.076670,-39.775154,-31.003544,44.494400,,,,,,,,,,,,,,,,,,,,,,,,,,,,,,,,,,,,,,,,,,,,,,,,,,,,,,,,,,,,,,,,,,,,,,,,,,,,,,,,,,,,,,,,,,,,,,,,,,,,,
1739355662.059130,1739355662.059696,61.000000,0.000000,4420.000000,4387.179688,4443.077148,4598.461426,4377.563965,4371.025879,4370.000000,4305.512695,4361.025879,4356.666504,4668.205078,4635.128418,4490.641113,4592.307617,0.000000,0.000000,13.000000,,,,0.000000,4.000000,4.000000,4.000000,4.000000,4.000000,4.000000,4.000000,4.000000,4.000000,4.000000,4.000000,4.000000,4.000000,4.000000,100.000000,,,,,,,,,,,,,,,,,,,,,,,,,,,,,,,,,,,,,,,,,,,,,,,,,,,,,,,,,,,,,,,,,,,,,,,,,,,,,,,,,,,,,,,,,,,,,,,,,,,,,,,,,,,,,,,,,,,,,,,,,,,,,,,,,
1739355662.066938,1739355662.067504,62.000000,0.000000,4432.051270,4392.692383,4451.922852,4595.641113,4388.974121,4381.282227,4384.358887,4306.922852,4381.666504,4374.615234,4679.102539,4653.589844,4506.282227,4601.922852,0.000000,0.000000,13.000000,,,,0.000000,4.000000,4.000000,4.000000,4.000000,4.000000,4.000000,4.000000,4.000000,4.000000,4.000000,4.000000,4.000000,4.000000,4.000000,100.000000,,,,,,,,,,,,,,,,,,,,,,,,,,,,,,,,,,,,,,,,,,,,,,,,,,,,,,,,,,,,,,,,,,,,,,,,,,,,,,,,,,,,,,,,,,,,,,,,,,,,,,,,,,,,,,,,,,,,,,,,,,,,,,,,,
1739355662.074746,1739355662.075212,63.000000,0.000000,4406.538574,4366.410156,4426.282227,4552.051270,4353.846191,4355.256348,4355.000000,4291.153809,4359.871582,4366.410156,4656.538574,4623.205078,4492.307617,4580.128418,0.000000,0.000000,13.000000,,,,0.000000,4.000000,4.000000,4.000000,4.000000,4.000000,4.000000,4.000000,4.000000,4.000000,4.000000,4.000000,4.000000,4.000000,4.000000,100.000000,,,,,,,,,,,,,,,,,,,,,,,,,,,,,,,,,,,,,,,,,,,,,,,,,,,,,,,,,,,,,,,,,,,,,,,,,,,,,,,,,,,,,,,,,,,,,,,,,,,,,,,,,,,,,,,,,,,,,,,,,,,,,,,,,
1739355662.082554,1739355662.083020,64.000000,0.000000,4423.333496,4381.922852,4439.230957,4554.615234,4363.589844,4363.077148,4357.948730,4293.333496,4362.563965,4374.230957,4671.410156,4632.820313,4503.717773,4598.589844,5016.000000,0.000000,13.000000,,,,0.000000,4.000000,4.000000,4.000000,4.000000,4.000000,4.000000,4.000000,4.000000,4.000000,4.000000,4.000000,4.000000,4.000000,4.000000,100.000000,,,,,,,,,,,,,,,,,16.000000,0.000000,0.679479,0.080750,-0.678589,0.267029,0.957636,-0.240264,0.064461,-39.730972,-31.086523,44.644962,,,,,,,,,,,,,,,,,,,,,,,,,,,,,,,,,,,,,,,,,,,,,,,,,,,,,,,,,,,,,,,,,,,,,,,,,,,,,,,,,,,,,,,,,,,,,,,,,,,,,
1739355662.090362,1739355662.090728,65.000000,0.000000,4468.589844,4423.461426,4479.102539,4583.717773,4404.230957,4392.307617,4389.358887,4299.487305,4399.230957,4402.436035,4710.128418,4677.563965,4532.948730,4640.000000,5536.000000,0.000000,13.000000,,,,0.000000,4.000000,4.000000,4.000000,4.000000,4.000000,4.000000,4.000000,4.000000,4.000000,4.000000,4.000000,4.000000,4.000000,4.000000,100.000000,,,,,,,,,,,,,,,,,,,,,,,,,,,,,,,,,,,,,,,,,,,,,,,,,,,,,,,,,,,,,,,,,,,,,,,,,,,,,,,,,,,,,,,,,,,,,,,,,,,,,,,,,,,,,,,,,,,,,,,,,,,,,,,,,
1739355662.098171,1739355662.098636,66.000000,0.000000,4449.487305,4406.922852,4460.000000,4550.512695,4383.717773,4370.897461,4365.641113,4285.000000,4385.000000,4386.538574,4690.641113,4652.436035,4515.897461,4618.077148,5567.000000,0.000000,13.000000,,,,0.000000,4.000000,4.000000,4.000000,4.000000,4.000000,4.000000,4.000000,4.000000,4.000000,4.000000,4.000000,4.000000,4.000000,4.000000,100.000000,,,,,,,,,,,,,,,,,,,,,,,,,,,,,,,,,,,,,,,,,,,,,,,,,,,,,,,,,,,,,,,,,,,,,,,,,,,,,,,,,,,,,,,,,,,,,,,,,,,,,,,,,,,,,,,,,,,,,,,,,,,,,,,,,
1739355662.105979,1739355662.106444,67.000000,0.000000,4430.897461,4392.307617,4439.487305,4527.179688,4369.102539,4357.436035,4350.000000,4272.692383,4363.589844,4375.000000,4671.794922,4623.974121,4497.563965,4599.615234,5502.000000,0.000000,13.000000,,,,0.000000,4.000000,4.000000,4.000000,4.000000,4.000000,4.000000,4.000000,4.000000,4.000000,4.000000,4.000000,4.000000,4.000000,4.000000,100.000000,,,,,,,,,,,,,,,,,,,,,,,,,,,,,,,,,,,,,,,,,,,,,,,,,,,,,,,,,,,,,,,,,,,,,,,,,,,,,,,,,,,,,,,,,,,,,,,,,,,,,,,,,,,,,,,,,,,,,,,,,,,,,,,,,
1739355662.113787,1739355662.114352,68.000000,0.000000,4463.333496,4421.666504,4463.589844,4550.769043,4399.102539,4387.436035,4383.333496,4276.794922,4385.897461,4400.512695,4694.358887,4654.487305,4511.666504,4626.922852,5487.000000,0.000000,13.000000,,,,0.000000,4.000000,4.000000,4.000000,4.000000,4.000000,4.000000,4.000000,4.000000,4.000000,4.000000,4.000000,4.000000,4.000000,4.000000,100.000000,,,,,,,,,,,,,,,,,17.000000,0.000000,0.679348,0.080627,-0.678711,0.267090,0.972775,-0.246612,0.064949,-39.791210,-31.094538,44.630466,,,,,,,,,,,,,,,,,,,,,,,,,,,,,,,,,,,,,,,,,,,,,,,,,,,,,,,,,,,,,,,,,,,,,,,,,,,,,,,,,,,,,,,,,,,,,,,,,,,,,
1739355662.121595,1739355662.122160,69.000000,0.000000,4469.743652,4428.461426,4472.563965,4551.282227,4407.307617,4395.897461,4393.846191,4292.051270,4394.743652,4397.563965,4700.000000,4670.384766,4514.358887,4634.102539,5484.000000,0.000000,13.000000,,,,0.000000,4.000000,4.000000,4.000000,4.000000,4.000000,4.000000,4.000000,4.000000,4.000000,4.000000,4.000000,4.000000,4.000000,4.000000,100.000000,,,,,,,,,,,,,,,,,,,,,,,,,,,,,,,,,,,,,,,,,,,,,,,,,,,,,,,,,,,,,,,,,,,,,,,,,,,,,,,,,,,,,,,,,,,,,,,,,,,,,,,,,,,,,,,,,,,,,,,,,,,,,,,,,
1739355662.129403,1739355662.130068,70.000000,0.000000,4443.846191,4406.922852,4459.102539,4528.974121,4393.461426,4377.051270,4377.436035,4307.820313,4378.077148,4371.538574,4687.563965,4657.436035,4502.307617,4616.538574,5452.000000,0.000000,13.000000,,,,0.000000,4.000000,4.000000,4.000000,4.000000,4.000000,4.000000,4.000000,4.000000,4.000000,4.000000,4.000000,4.000000,4.000000,4.000000,100.000000,,,,,,,,,,,,,,,,,,,,,,,,,,,,,,,,,,,,,,,,,,,,,,,,,,,,,,,,,,,,,,,,,,,,,,,,,,,,,,,,,,,,,,,,,,,,,,,,,,,,,,,,,,,,,,,,,,,,,,,,,,,,,,,,,
1739355662.137211,1739355662.137877,71.000000,0.000000,4442.051270,4404.102539,4461.282227,4520.128418,4394.743652,4378.717773,4381.666504,4310.769043,4381.410156,4376.666504,4690.384766,4659.871582,4500.769043,4617.692383,2129.000000,0.000000,13.000000,,,,0.000000,4.000000,4.000000,4.000000,4.000000,4.000000,4.000000,4.000000,4.000000,4.000000,4.000000,4.000000,4.000000,4.000000,4.000000,100.000000,,,,,,,,,,,,,,,,,,,,,,,,,,,,,,,,,,,,,,,,,,,,,,,,,,,,,,,,,,,,,,,,,,,,,,,,,,,,,,,,,,,,,,,,,,,,,,,,,,,,,,,,,,,,,,,,,,,,,,,,,,,,,,,,,
1739355662.145019,1739355662.145785,72.000000,0.000000,4444.615234,4405.000000,4458.974121,4507.436035,4389.615234,4381.538574,4388.077148,4303.846191,4386.025879,4376.922852,4686.666504,4654.615234,4492.692383,4616.922852,5238.000000,0.000000,13.000000,,,,0.000000,4.000000,4.000000,4.000000,4.000000,4.000000,4.000000,4.000000,4.000000,4.000000,4.000000,4.000000,4.000000,4.000000,4.000000,100.000000,1.000000,58.333332,4.000000,4.000000,3.000000,1.000000,3.000000,3.000000,3.000000,3.000000,3.000000,4.000000,4.000000,3.000000,4.000000,4.000000,18.000000,0.000000,0.679302,0.080505,-0.678772,0.267090,0.956171,-0.253937,0.067391,-39.812088,-31.101749,44.700752,,,,,,,,,,,,,,,,,,,,,,,,,,,,,,,,1.369697,2.408725,0.512562,0.581267,0.322117,3.667750,2.865637,0.881982,0.767188,0.494277,1.202963,1.250554,0.551480,0.508951,0.301009,1.203421,1.042884,0.388422,0.706026,0.410129,1.130375,0.388541,0.594753,0.891832,0.459109,1.318784,0.305946,0.574713,0.372852,0.305548,1.689142,0.519121,0.621541,0.462613,0.353873,0.263823,0.070930,0.077960,0.073675,0.058113,2.371676,1.052764,0.668826,0.651126,0.278070,3.164284,1.807596,0.678144,1.170688,0.579575,2.105905,1.702888,0.374635,0.645024,0.240535,1.795180,2.473311,0.517788,0.826237,0.441365,4.800975,1.396878,0.866281,0.431681,0.313568,1.571101,1.722849,0.538545,0.596696,0.327284
1739355662.152827,1739355662.153593,73.000000,0.000000,4442.692383,4408.205078,4459.487305,4507.692383,4385.384766,4380.512695,4390.769043,4308.974121,4387.051270,4382.051270,4693.461426,4655.000000,4493.333496,4621.538574,5597.000000,0.000000,13.000000,,,,0.000000,4.000000,4.000000,4.000000,4.000000,4.000000,4.000000,4.000000,4.000000,4.000000,4.000000,4.000000,4.000000,4.000000,4.000000,100.000000,,,,,,,,,,,,,,,,,,,,,,,,,,,,,,,,,,,,,,,,,,,,,,,,,,,,,,,,,,,,,,,,,,,,,,,,,,,,,,,,,,,,,,,,,,,,,,,,,,,,,,,,,,,,,,,,,,,,,,,,,,,,,,,,,
1739355662.160635,1739355662.161501,74.000000,0.000000,4448.461426,4418.333496,4469.487305,4518.205078,4391.025879,4387.820313,4396.538574,4310.641113,4395.000000,4404.102539,4708.461426,4665.512695,4506.922852,4633.077148,4864.000000,0.000000,13.000000,,,,0.000000,4.000000,4.000000,4.000000,4.000000,4.000000,4.000000,4.000000,4.000000,4.000000,4.000000,4.000000,4.000000,4.000000,4.000000,100.000000,,,,,,,,,,,,,,,,,,,,,,,,,,,,,,,,,,,,,,,,,,,,,,,,,,,,,,,,,,,,,,,,,,,,,,,,,,,,,,,,,,,,,,,,,,,,,,,,,,,,,,,,,,,,,,,,,,,,,,,,,,,,,,,,,
1739355662.168443,1739355662.169309,75.000000,0.000000,4444.743652,4413.461426,4463.205078,4507.179688,4394.743652,4389.871582,4394.230957,4300.512695,4398.974121,4405.128418,4703.717773,4660.641113,4504.487305,4627.051270,5475.000000,0.000000,13.000000,,,,0.000000,4.000000,4.000000,4.000000,4.000000,4.000000,4.000000,4.000000,4.000000,4.000000,4.000000,4.000000,4.000000,4.000000,4.000000,100.000000,,,,,,,,,,,,,,,,,,,,,,,,,,,,,,,,,,,,,,,,,,,,,,,,,,,,,,,,,,,,,,,,,,,,,,,,,,,,,,,,,,,,,,,,,,,,,,,,,,,,,,,,,,,,,,,,,,,,,,,,,,,,,,,,,
1739355662.176251,1739355662.177217,76.000000,0.000000,4431.282227,4396.410156,4450.769043,4488.589844,4399.230957,4383.589844,4385.769043,4301.153809,4396.538574,4392.051270,4698.333496,4653.077148,4496.666504,4621.666504,5369.000000,0.000000,13.000000,,,,0.000000,4.000000,4.000000,4.000000,4.000000,4.000000,4.000000,4.000000,4.000000,4.000000,4.000000,4.000000,4.000000,4.000000,4.000000,100.000000,,,,,,,,,,,,,,,,,19.000000,0.000000,0.679240,0.080505,-0.678833,0.267090,0.970333,-0.228544,0.059578,-39.764214,-31.208242,44.614010,,,,,,,,,,,,,,,,,,,,,,,,,,,,,,,,,,,,,,,,,,,,,,,,,,,,,,,,,,,,,,,,,,,,,,,,,,,,,,,,,,,,,,,,,,,,,,,,,,,,,
1739355662.184060,1739355662.185026,77.000000,0.000000,4423.974121,4384.230957,4442.948730,4473.846191,4387.563965,4367.179688,4368.461426,4300.769043,4380.256348,4375.384766,4693.974121,4643.333496,4496.153809,4617.436035,6497.000000,0.000000,13.000000,,,,0.000000,4.000000,4.000000,4.000000,4.000000,4.000000,4.000000,4.000000,4.000000,4.000000,4.000000,4.000000,4.000000,4.000000,4.000000,100.000000,,,,,,,,,,,,,,,,,,,,,,,,,,,,,,,,,,,,,,,,,,,,,,,,,,,,,,,,,,,,,,,,,,,,,,,,,,,,,,,,,,,,,,,,,,,,,,,,,,,,,,,,,,,,,,,,,,,,,,,,,,,,,,,,,
1739355662.191867,1739355662.192734,78.000000,0.000000,4430.128418,4390.897461,4442.436035,4467.563965,4374.230957,4362.563965,4360.384766,4296.794922,4368.205078,4368.333496,4690.512695,4640.256348,4497.820313,4617.820313,4864.000000,0.000000,13.000000,,,,0.000000,4.000000,4.000000,4.000000,4.000000,4.000000,4.000000,4.000000,4.000000,4.000000,4.000000,4.000000,4.000000,4.000000,4.000000,100.000000,,,,,,,,,,,,,,,,,,,,,,,,,,,,,,,,,,,,,,,,,,,,,,,,,,,,,,,,,,,,,,,,,,,,,,,,,,,,,,,,,,,,,,,,,,,,,,,,,,,,,,,,,,,,,,,,,,,,,,,,,,,,,,,,,
1739355662.199676,1739355662.200542,79.000000,0.000000,4427.948730,4390.769043,4444.230957,4461.410156,4372.179688,4365.897461,4362.563965,4297.948730,4363.846191,4366.794922,4687.179688,4638.077148,4487.051270,4618.974121,5475.000000,0.000000,13.000000,,,,0.000000,4.000000,4.000000,4.000000,4.000000,4.000000,4.000000,4.000000,4.000000,4.000000,4.000000,4.000000,4.000000,4.000000,4.000000,100.000000,,,,,,,,,,,,,,,,,,,,,,,,,,,,,,,,,,,,,,,,,,,,,,,,,,,,,,,,,,,,,,,,,,,,,,,,,,,,,,,,,,,,,,,,,,,,,,,,,,,,,,,,,,,,,,,,,,,,,,,,,,,,,,,,,
1739355662.207484,1739355662.208250,80.000000,0.000000,4429.230957,4386.025879,4452.820313,4463.717773,4376.922852,4368.077148,4369.230957,4306.153809,4366.922852,4367.307617,4691.025879,4640.128418,4490.769043,4622.692383,5369.000000,0.000000,13.000000,,,,0.000000,4.000000,4.000000,4.000000,4.000000,4.000000,4.000000,4.000000,4.000000,4.000000,4.000000,4.000000,4.000000,4.000000,4.000000,100.000000,,,,,,,,,,,,,,,,,20.000000,0.000000,0.679338,0.080505,-0.678711,0.267151,0.964473,-0.239287,0.071786,-39.704460,-31.204084,44.569275,,,,,,,,,,,,,,,,,,,,,,,,,,,,,,,,,,,,,,,,,,,,,,,,,,,,,,,,,,,,,,,,,,,,,,,,,,,,,,,,,,,,,,,,,,,,,,,,,,,,,
1739355662.215292,1739355662.216058,81.000000,0.000000,4459.743652,4413.077148,4474.102539,4492.820313,4399.615234,4391.922852,4394.102539,4314.102539,4383.461426,4377.436035,4710.384766,4667.563965,4522.051270,4646.410156,6497.000000,0.000000,13.000000,,,,0.000000,4.000000,4.000000,4.000000,4.000000,4.000000,4.000000,4.000000,4.000000,4.000000,4.000000,4.000000,4.000000,4.000000,4.000000,100.000000,,,,,,,,,,,,,,,,,,,,,,,,,,,,,,,,,,,,,,,,,,,,,,,,,,,,,,,,,,,,,,,,,,,,,,,,,,,,,,,,,,,,,,,,,,,,,,,,,,,,,,,,,,,,,,,,,,,,,,,,,,,,,,,,,
1739355662.223100,1739355662.223766,82.000000,0.000000,4474.615234,4436.410156,4482.820313,4510.897461,4421.025879,4412.820313,4411.794922,4311.794922,4391.153809,4385.512695,4718.717773,4684.871582,4531.794922,4660.128418,4864.000000,0.000000,13.000000,,,,0.000000,4.000000,4.000000,4.000000,4.000000,4.000000,4.000000,4.000000,4.000000,4.000000,4.000000,4.000000,4.000000,4.000000,4.000000,100.000000,,,,,,,,,,,,,,,,,,,,,,,,,,,,,,,,,,,,,,,,,,,,,,,,,,,,,,,,,,,,,,,,,,,,,,,,,,,,,,,,,,,,,,,,,,,,,,,,,,,,,,,,,,,,,,,,,,,,,,,,,,,,,,,,,
1739355662.230908,1739355662.231574,83.000000,0.000000,4447.563965,4417.692383,4467.179688,4489.615234,4410.512695,4394.487305,4396.282227,4303.974121,4380.128418,4378.717773,4698.846191,4661.153809,4512.692383,4642.563965,5475.000000,0.000000,13.000000,,,,0.000000,4.000000,4.000000,4.000000,4.000000,4.000000,4.000000,4.000000,4.000000,4.000000,4.000000,4.000000,4.000000,4.000000,4.000000,100.000000,,,,,,,,,,,,,,,,,,,,,,,,,,,,,,,,,,,,,,,,,,,,,,,,,,,,,,,,,,,,,,,,,,,,,,,,,,,,,,,,,,,,,,,,,,,,,,,,,,,,,,,,,,,,,,,,,,,,,,,,,,,,,,,,,
1739355662.238716,1739355662.239282,84.000000,0.000000,4433.077148,4402.436035,4457.307617,4471.922852,4395.512695,4382.948730,4383.717773,4305.256348,4378.717773,4369.230957,4684.743652,4644.871582,4503.717773,4629.102539,5369.000000,0.000000,13.000000,,,,0.000000,4.000000,4.000000,4.000000,4.000000,4.000000,4.000000,4.000000,4.000000,4.000000,4.000000,4.000000,4.000000,4.000000,4.000000,100.000000,,,,,,,,,,,,,,,,,21.000000,0.000000,0.679225,0.080139,-0.678772,0.267395,0.977658,-0.257356,0.082041,-39.867348,-31.200342,44.479015,,,,,,,,,,,,,,,,,,,,,,,,,,,,,,,,,,,,,,,,,,,,,,,,,,,,,,,,,,,,,,,,,,,,,,,,,,,,,,,,,,,,,,,,,,,,,,,,,,,,,
1739355662.246524,1739355662.247090,85.000000,0.000000,4438.589844,4409.743652,4456.538574,4472.563965,4396.410156,4396.153809,4387.563965,4310.897461,4388.205078,4368.333496,4690.384766,4653.717773,4501.666504,4631.410156,6497.000000,0.000000,13.000000,,,,0.000000,4.000000,4.000000,4.000000,4.000000,4.000000,4.000000,4.000000,4.000000,4.000000,4.000000,4.000000,4.000000,4.000000,4.000000,100.000000,,,,,,,,,,,,,,,,,,,,,,,,,,,,,,,,,,,,,,,,,,,,,,,,,,,,,,,,,,,,,,,,,,,,,,,,,,,,,,,,,,,,,,,,,,,,,,,,,,,,,,,,,,,,,,,,,,,,,,,,,,,,,,,,,
1739355662.254332,1739355662.254798,86.000000,0.000000,4426.410156,4405.000000,4446.794922,4459.487305,4390.384766,4385.384766,4378.717773,4313.461426,4382.820313,4361.922852,4689.102539,4646.410156,4491.922852,4624.615234,4864.000000,0.000000,13.000000,,,,0.000000,4.000000,4.000000,4.000000,4.000000,4.000000,4.000000,4.000000,4.000000,4.000000,4.000000,4.000000,4.000000,4.000000,4.000000,100.000000,,,,,,,,,,,,,,,,,,,,,,,,,,,,,,,,,,,,,,,,,,,,,,,,,,,,,,,,,,,,,,,,,,,,,,,,,,,,,,,,,,,,,,,,,,,,,,,,,,,,,,,,,,,,,,,,,,,,,,,,,,,,,,,,,
1739355662.262140,1739355662.262606,87.000000,0.000000,4430.000000,4407.820313,4453.846191,4457.051270,4395.384766,4383.077148,4381.666504,4326.794922,4386.025879,4371.794922,4697.436035,4651.282227,4504.615234,4632.692383,5475.000000,0.000000,13.000000,,,,0.000000,4.000000,4.000000,4.000000,4.000000,4.000000,4.000000,4.000000,4.000000,4.000000,4.000000,4.000000,4.000000,4.000000,4.000000,100.000000,,,,,,,,,,,,,,,,,,,,,,,,,,,,,,,,,,,,,,,,,,,,,,,,,,,,,,,,,,,,,,,,,,,,,,,,,,,,,,,,,,,,,,,,,,,,,,,,,,,,,,,,,,,,,,,,,,,,,,,,,,,,,,,,,
1739355662.269948,1739355662.270314,88.000000,0.000000,4462.563965,4435.641113,4481.282227,4479.615234,4423.205078,4411.538574,4403.333496,4340.128418,4406.922852,4401.153809,4723.461426,4686.794922,4529.743652,4663.077148,5369.000000,0.000000,13.000000,,,,0.000000,4.000000,4.000000,4.000000,4.000000,4.000000,4.000000,4.000000,4.000000,4.000000,4.000000,4.000000,4.000000,4.000000,4.000000,100.000000,,,,,,,,,,,,,,,,,22.000000,0.000000,0.678896,0.080139,-0.679077,0.267456,0.972775,-0.242705,0.070321,-39.830612,-31.280308,44.481113,,,,,,,,,,,,,,,,,,,,,,,,,,,,,,,,1.652282,3.063707,0.569903,0.718701,0.392694,4.267034,3.557375,1.047111,0.950360,0.589435,1.286440,1.455089,0.597753,0.621012,0.361814,2.167088,1.322206,0.410646,0.850411,0.468031,1.075799,0.390743,0.500143,0.934542,0.551396,1.313705,0.303773,0.488151,0.382707,0.375941,1.855092,0.555134,0.530944,0.510723,0.400494,0.285775,0.069583,0.078610,0.089041,0.073212,2.513521,0.985323,0.679474,0.774797,0.339034,3.600782,1.753314,0.681016,1.343812,0.608565,2.478776,1.823385,0.437799,0.794866,0.290971,1.876399,2.685167,0.581487,0.993886,0.517948,6.050896,1.493018,1.162436,0.534519,0.368667,1.725449,2.149006,0.591710,0.718603,0.395929
1739355662.277756,1739355662.278122,89.000000,0.000000,4468.974121,4447.692383,4484.871582,4483.717773,4421.410156,4408.461426,4400.256348,4338.846191,4405.641113,4407.820313,4733.205078,4697.820313,4525.384766,4671.922852,6497.000000,0.000000,13.000000,,,,0.000000,4.000000,4.000000,4.000000,4.000000,4.000000,4.000000,4.000000,4.000000,4.000000,4.000000,4.000000,4.000000,4.000000,4.000000,100.000000,,,,,,,,,,,,,,,,,,,,,,,,,,,,,,,,,,,,,,,,,,,,,,,,,,,,,,,,,,,,,,,,,,,,,,,,,,,,,,,,,,,,,,,,,,,,,,,,,,,,,,,,,,,,,,,,,,,,,,,,,,,,,,,,,
1739355662.285565,1739355662.285830,90.000000,0.000000,4452.051270,4437.307617,4469.102539,4467.563965,4390.512695,4383.077148,4380.769043,4338.461426,4388.077148,4392.307617,4725.512695,4678.846191,4518.205078,4660.384766,4864.000000,0.000000,13.000000,,,,0.000000,4.000000,4.000000,4.000000,4.000000,4.000000,4.000000,4.000000,4.000000,4.000000,4.000000,4.000000,4.000000,4.000000,4.000000,100.000000,,,,,,,,,,,,,,,,,,,,,,,,,,,,,,,,,,,,,,,,,,,,,,,,,,,,,,,,,,,,,,,,,,,,,,,,,,,,,,,,,,,,,,,,,,,,,,,,,,,,,,,,,,,,,,,,,,,,,,,,,,,,,,,,,
1739355662.293373,1739355662.293637,91.000000,0.000000,4468.077148,4445.000000,4479.615234,4478.589844,4405.128418,4400.128418,4390.384766,4348.333496,4400.769043,4401.025879,4736.025879,4687.051270,4546.666504,4672.436035,5475.000000,0.000000,13.000000,,,,0.000000,4.000000,4.000000,4.000000,4.000000,4.000000,4.000000,4.000000,4.000000,4.000000,4.000000,4.000000,4.000000,4.000000,4.000000,100.000000,,,,,,,,,,,,,,,,,,,,,,,,,,,,,,,,,,,,,,,,,,,,,,,,,,,,,,,,,,,,,,,,,,,,,,,,,,,,,,,,,,,,,,,,,,,,,,,,,,,,,,,,,,,,,,,,,,,,,,,,,,,,,,,,,
1739355662.301181,1739355662.301345,92.000000,0.000000,4486.538574,4457.307617,4493.461426,4498.717773,4436.922852,4417.179688,4406.794922,4350.769043,4421.794922,4421.922852,4750.897461,4704.871582,4564.358887,4687.692383,5369.000000,0.000000,13.000000,,,,0.000000,4.000000,4.000000,4.000000,4.000000,4.000000,4.000000,4.000000,4.000000,4.000000,4.000000,4.000000,4.000000,4.000000,4.000000,100.000000,,,,,,,,,,,,,,,,,23.000000,0.000000,0.678684,0.080383,-0.679260,0.267456,0.956171,-0.248077,0.067391,-39.947552,-31.335611,44.416336,,,,,,,,,,,,,,,,,,,,,,,,,,,,,,,,,,,,,,,,,,,,,,,,,,,,,,,,,,,,,,,,,,,,,,,,,,,,,,,,,,,,,,,,,,,,,,,,,,,,,
1739355662.308989,1739355662.309253,93.000000,0.000000,4456.666504,4431.794922,4469.871582,4475.769043,4413.077148,4391.410156,4389.102539,4343.589844,4404.615234,4400.384766,4732.051270,4677.051270,4537.436035,4664.487305,6497.000000,0.000000,13.000000,,,,0.000000,4.000000,4.000000,4.000000,4.000000,4.000000,4.000000,4.000000,4.000000,4.000000,4.000000,4.000000,4.000000,4.000000,4.000000,100.000000,,,,,,,,,,,,,,,,,,,,,,,,,,,,,,,,,,,,,,,,,,,,,,,,,,,,,,,,,,,,,,,,,,,,,,,,,,,,,,,,,,,,,,,,,,,,,,,,,,,,,,,,,,,,,,,,,,,,,,,,,,,,,,,,,
1739355662.316797,1739355662.317061,94.000000,0.000000,4451.282227,4425.000000,4462.436035,4463.077148,4396.666504,4394.743652,4390.256348,4349.743652,4400.512695,4390.641113,4731.282227,4672.436035,4537.948730,4661.922852,4864.000000,0.000000,13.000000,,,,0.000000,4.000000,4.000000,4.000000,4.000000,4.000000,4.000000,4.000000,4.000000,4.000000,4.000000,4.000000,4.000000,4.000000,4.000000,100.000000,,,,,,,,,,,,,,,,,,,,,,,,,,,,,,,,,,,,,,,,,,,,,,,,,,,,,,,,,,,,,,,,,,,,,,,,,,,,,,,,,,,,,,,,,,,,,,,,,,,,,,,,,,,,,,,,,,,,,,,,,,,,,,,,,
1739355662.324605,1739355662.324970,95.000000,0.000000,4472.307617,4440.384766,4476.538574,4472.307617,4411.025879,4415.256348,4405.512695,4352.051270,4411.282227,4406.025879,4746.538574,4696.282227,4552.692383,4682.051270,5475.000000,0.000000,13.000000,,,,0.000000,4.000000,4.000000,4.000000,4.000000,4.000000,4.000000,4.000000,4.000000,4.000000,4.000000,4.000000,4.000000,4.000000,4.000000,100.000000,,,,,,,,,,,,,,,,,,,,,,,,,,,,,,,,,,,,,,,,,,,,,,,,,,,,,,,,,,,,,,,,,,,,,,,,,,,,,,,,,,,,,,,,,,,,,,,,,,,,,,,,,,,,,,,,,,,,,,,,,,,,,,,,,
1739355662.332413,1739355662.332778,96.000000,0.000000,4451.410156,4419.487305,4464.871582,4453.846191,4399.230957,4395.641113,4388.205078,4343.846191,4394.743652,4386.025879,4728.589844,4678.589844,4528.461426,4665.256348,5369.000000,0.000000,13.000000,,,,0.000000,4.000000,4.000000,4.000000,4.000000,4.000000,4.000000,4.000000,4.000000,4.000000,4.000000,4.000000,4.000000,4.000000,4.000000,100.000000,,,,,,,,,,,,,,,,,24.000000,0.000000,0.678766,0.080811,-0.679199,0.267273,0.975705,-0.242705,0.070809,-39.886127,-31.335382,44.274700,,,,,,,,,,,,,,,,,,,,,,,,,,,,,,,,,,,,,,,,,,,,,,,,,,,,,,,,,,,,,,,,,,,,,,,,,,,,,,,,,,,,,,,,,,,,,,,,,,,,,
1739355662.340221,1739355662.340686,97.000000,0.000000,4431.922852,4405.897461,4454.615234,4443.077148,4389.230957,4379.615234,4377.436035,4343.846191,4386.410156,4366.922852,4708.205078,4658.974121,4510.641113,4646.025879,6497.000000,0.000000,13.000000,,,,0.000000,4.000000,4.000000,4.000000,4.000000,4.000000,4.000000,4.000000,4.000000,4.000000,4.000000,4.000000,4.000000,4.000000,4.000000,100.000000,,,,,,,,,,,,,,,,,,,,,,,,,,,,,,,,,,,,,,,,,,,,,,,,,,,,,,,,,,,,,,,,,,,,,,,,,,,,,,,,,,,,,,,,,,,,,,,,,,,,,,,,,,,,,,,,,,,,,,,,,,,,,,,,,
1739355662.348029,1739355662.348494,98.000000,0.000000,4461.666504,4438.461426,4477.563965,4476.153809,4415.641113,4404.615234,4404.871582,4353.333496,4413.717773,4398.589844,4725.897461,4686.666504,4530.256348,4671.410156,4864.000000,0.000000,13.000000,,,,0.000000,4.000000,4.000000,4.000000,4.000000,4.000000,4.000000,4.000000,4.000000,4.000000,4.000000,4.000000,4.000000,4.000000,4.000000,100.000000,,,,,,,,,,,,,,,,,,,,,,,,,,,,,,,,,,,,,,,,,,,,,,,,,,,,,,,,,,,,,,,,,,,,,,,,,,,,,,,,,,,,,,,,,,,,,,,,,,,,,,,,,,,,,,,,,,,,,,,,,,,,,,,,,
1739355662.355837,1739355662.356402,99.000000,0.000000,4477.179688,4448.974121,4490.128418,4486.922852,4418.846191,4415.897461,4416.666504,4355.256348,4427.179688,4414.487305,4738.077148,4700.769043,4536.282227,4685.641113,5475.000000,0.000000,13.000000,,,,0.000000,4.000000,4.000000,4.000000,4.000000,4.000000,4.000000,4.000000,4.000000,4.000000,4.000000,4.000000,4.000000,4.000000,4.000000,100.000000,,,,,,,,,,,,,,,,,,,,,,,,,,,,,,,,,,,,,,,,,,,,,,,,,,,,,,,,,,,,,,,,,,,,,,,,,,,,,,,,,,,,,,,,,,,,,,,,,,,,,,,,,,,,,,,,,,,,,,,,,,,,,,,,,
1739355662.363645,1739355662.364210,100.000000,0.000000,4447.563965,4417.692383,4465.897461,4454.487305,4388.717773,4389.743652,4387.820313,4345.000000,4404.871582,4381.282227,4715.000000,4666.410156,4517.051270,4654.615234,5369.000000,0.000000,13.000000,,,,0.000000,4.000000,4.000000,4.000000,4.000000,4.000000,4.000000,4.000000,4.000000,4.000000,4.000000,4.000000,4.000000,4.000000,4.000000,100.000000,,,,,,,,,,,,,,,,,25.000000,0.000000,0.678822,0.081055,-0.679138,0.267212,0.963008,-0.244659,0.060554,-39.830849,-31.418510,44.280563,,,,,,,,,,,,,,,,,,,,,,,,,,,,,,,,,,,,,,,,,,,,,,,,,,,,,,,,,,,,,,,,,,,,,,,,,,,,,,,,,,,,,,,,,,,,,,,,,,,,,
1739355662.371453,1739355662.372119,101.000000,0.000000,4434.230957,4408.461426,4450.769043,4445.256348,4380.897461,4377.051270,4374.871582,4340.384766,4392.692383,4366.794922,4704.743652,4647.563965,4513.333496,4636.922852,6497.000000,0.000000,13.000000,,,,0.000000,4.000000,4.000000,4.000000,4.000000,4.000000,4.000000,4.000000,4.000000,4.000000,4.000000,4.000000,4.000000,4.000000,4.000000,100.000000,,,,,,,,,,,,,,,,,,,,,,,,,,,,,,,,,,,,,,,,,,,,,,,,,,,,,,,,,,,,,,,,,,,,,,,,,,,,,,,,,,,,,,,,,,,,,,,,,,,,,,,,,,,,,,,,,,,,,,,,,,,,,,,,,
1739355662.379262,1739355662.379927,102.000000,0.000000,4447.820313,4426.538574,4465.769043,4464.487305,4399.358887,4393.205078,4394.487305,4348.589844,4409.871582,4398.333496,4726.410156,4668.077148,4532.820313,4651.538574,4864.000000,0.000000,13.000000,,,,0.000000,4.000000,4.000000,4.000000,4.000000,4.000000,4.000000,4.000000,4.000000,4.000000,4.000000,4.000000,4.000000,4.000000,4.000000,100.000000,,,,,,,,,,,,,,,,,,,,,,,,,,,,,,,,,,,,,,,,,,,,,,,,,,,,,,,,,,,,,,,,,,,,,,,,,,,,,,,,,,,,,,,,,,,,,,,,,,,,,,,,,,,,,,,,,,,,,,,,,,,,,,,,,
1739355662.387070,1739355662.387635,103.000000,0.000000,4454.743652,4436.025879,4474.871582,4470.256348,4407.051270,4402.692383,4401.153809,4355.128418,4424.615234,4422.820313,4741.282227,4683.974121,4549.871582,4661.025879,5475.000000,0.000000,13.000000,,,,0.000000,4.000000,4.000000,4.000000,4.000000,4.000000,4.000000,4.000000,4.000000,4.000000,4.000000,4.000000,4.000000,4.000000,4.000000,100.000000,,,,,,,,,,,,,,,,,,,,,,,,,,,,,,,,,,,,,,,,,,,,,,,,,,,,,,,,,,,,,,,,,,,,,,,,,,,,,,,,,,,,,,,,,,,,,,,,,,,,,,,,,,,,,,,,,,,,,,,,,,,,,,,,,
1739355662.394878,1739355662.395443,104.000000,0.000000,4436.410156,4415.769043,4456.538574,4448.077148,4380.384766,4378.589844,4371.282227,4346.410156,4402.948730,4393.205078,4720.641113,4659.871582,4529.743652,4640.641113,5369.000000,0.000000,13.000000,,,,0.000000,4.000000,4.000000,4.000000,4.000000,4.000000,4.000000,4.000000,4.000000,4.000000,4.000000,4.000000,4.000000,4.000000,4.000000,100.000000,,,,,,,,,,,,,,,,,26.000000,0.000000,0.678891,0.081299,-0.679016,0.267273,0.964473,-0.249542,0.071298,-39.764431,-31.559994,44.302509,,,,,,,,,,,,,,,,,,,,,,,,,,,,,,,,1.898365,3.843240,0.733566,0.898688,0.518502,4.625247,4.142063,1.262639,1.148916,0.713698,1.330299,1.718080,0.707753,0.770580,0.471453,4.211451,1.651593,0.507399,1.001131,0.588975,0.969429,0.460601,0.470177,0.952038,0.712314,1.237943,0.359969,0.414209,0.415146,0.504418,1.936619,0.676097,0.461673,0.609668,0.506494,0.314568,0.090243,0.091569,0.118236,0.101552,2.520865,0.884189,0.707437,0.951015,0.451956,3.871955,1.683318,0.801991,1.581353,0.700970,2.660601,1.941903,0.544173,1.016701,0.397023,1.815202,2.921707,0.753923,1.221632,0.674015,6.756363,1.709424,1.499958,0.673772,0.462850,1.752595,2.655558,0.729174,0.874207,0.519816
1739355662.402686,1739355662.403151,105.000000,0.000000,4443.846191,4414.487305,4464.487305,4453.077148,4378.589844,4378.205078,4377.820313,4349.743652,4399.358887,4383.205078,4727.436035,4667.948730,4525.897461,4647.820313,6497.000000,0.000000,13.000000,,,,0.000000,4.000000,4.000000,4.000000,4.000000,4.000000,4.000000,4.000000,4.000000,4.000000,4.000000,4.000000,4.000000,4.000000,4.000000,100.000000,,,,,,,,,,,,,,,,,,,,,,,,,,,,,,,,,,,,,,,,,,,,,,,,,,,,,,,,,,,,,,,,,,,,,,,,,,,,,,,,,,,,,,,,,,,,,,,,,,,,,,,,,,,,,,,,,,,,,,,,,,,,,,,,,
1739355662.410494,1739355662.410959,106.000000,0.000000,4483.461426,4452.051270,4505.384766,4494.358887,4421.410156,4419.487305,4429.102539,4365.512695,4439.487305,4430.512695,4772.179688,4724.102539,4563.717773,4693.846191,4864.000000,0.000000,13.000000,,,,0.000000,4.000000,4.000000,4.000000,4.000000,4.000000,4.000000,4.000000,4.000000,4.000000,4.000000,4.000000,4.000000,4.000000,4.000000,100.000000,,,,,,,,,,,,,,,,,,,,,,,,,,,,,,,,,,,,,,,,,,,,,,,,,,,,,,,,,,,,,,,,,,,,,,,,,,,,,,,,,,,,,,,,,,,,,,,,,,,,,,,,,,,,,,,,,,,,,,,,,,,,,,,,,
1739355662.418302,1739355662.418667,107.000000,0.000000,4468.717773,4443.589844,4492.563965,4484.487305,4421.410156,4420.256348,4422.307617,4358.205078,4430.641113,4422.436035,4755.000000,4709.615234,4550.512695,4683.077148,5475.000000,0.000000,13.000000,,,,0.000000,4.000000,4.000000,4.000000,4.000000,4.000000,4.000000,4.000000,4.000000,4.000000,4.000000,4.000000,4.000000,4.000000,4.000000,100.000000,,,,,,,,,,,,,,,,,,,,,,,,,,,,,,,,,,,,,,,,,,,,,,,,,,,,,,,,,,,,,,,,,,,,,,,,,,,,,,,,,,,,,,,,,,,,,,,,,,,,,,,,,,,,,,,,,,,,,,,,,,,,,,,,,
1739355662.426110,1739355662.426475,108.000000,0.000000,4445.641113,4420.128418,4470.641113,4464.743652,4410.384766,4409.743652,4405.769043,4353.077148,4405.897461,4385.128418,4727.436035,4678.333496,4520.769043,4658.077148,5369.000000,0.000000,13.000000,,,,0.000000,4.000000,4.000000,4.000000,4.000000,4.000000,4.000000,4.000000,4.000000,4.000000,4.000000,4.000000,4.000000,4.000000,4.000000,100.000000,,,,,,,,,,,,,,,,,27.000000,0.000000,0.678813,0.081238,-0.679077,0.267334,0.972775,-0.252961,0.069344,-39.737988,-31.520660,44.322258,,,,,,,,,,,,,,,,,,,,,,,,,,,,,,,,,,,,,,,,,,,,,,,,,,,,,,,,,,,,,,,,,,,,,,,,,,,,,,,,,,,,,,,,,,,,,,,,,,,,,
1739355662.433918,1739355662.434183,109.000000,0.000000,4467.948730,4436.410156,4495.512695,4490.769043,4434.871582,4429.230957,4434.358887,4362.179688,4428.717773,4400.769043,4754.102539,4705.769043,4537.692383,4680.641113,6497.000000,0.000000,13.000000,,,,0.000000,4.000000,4.000000,4.000000,4.000000,4.000000,4.000000,4.000000,4.000000,4.000000,4.000000,4.000000,4.000000,4.000000,4.000000,100.000000,,,,,,,,,,,,,,,,,,,,,,,,,,,,,,,,,,,,,,,,,,,,,,,,,,,,,,,,,,,,,,,,,,,,,,,,,,,,,,,,,,,,,,,,,,,,,,,,,,,,,,,,,,,,,,,,,,,,,,,,,,,,,,,,,
1739355662.441726,1739355662.441991,110.000000,0.000000,4455.512695,4426.794922,4486.922852,4478.333496,4419.230957,4415.384766,4421.666504,4357.179688,4425.000000,4396.153809,4752.051270,4695.384766,4531.410156,4671.538574,4864.000000,0.000000,13.000000,,,,0.000000,4.000000,4.000000,4.000000,4.000000,4.000000,4.000000,4.000000,4.000000,4.000000,4.000000,4.000000,4.000000,4.000000,4.000000,100.000000,,,,,,,,,,,,,,,,,,,,,,,,,,,,,,,,,,,,,,,,,,,,,,,,,,,,,,,,,,,,,,,,,,,,,,,,,,,,,,,,,,,,,,,,,,,,,,,,,,,,,,,,,,,,,,,,,,,,,,,,,,,,,,,,,
1739355662.449534,1739355662.449699,111.000000,0.000000,4421.025879,4396.538574,4451.794922,4438.461426,4382.179688,4386.282227,4380.512695,4351.410156,4393.846191,4368.077148,4722.436035,4654.358887,4505.000000,4632.948730,5475.000000,0.000000,13.000000,,,,0.000000,4.000000,4.000000,4.000000,4.000000,4.000000,4.000000,4.000000,4.000000,4.000000,4.000000,4.000000,4.000000,4.000000,4.000000,100.000000,,,,,,,,,,,,,,,,,,,,,,,,,,,,,,,,,,,,,,,,,,,,,,,,,,,,,,,,,,,,,,,,,,,,,,,,,,,,,,,,,,,,,,,,,,,,,,,,,,,,,,,,,,,,,,,,,,,,,,,,,,,,,,,,,
1739355662.457342,1739355662.457607,112.000000,0.000000,4447.307617,4419.358887,4474.615234,4466.538574,4402.820313,4405.512695,4400.641113,4361.794922,4414.871582,4396.153809,4748.333496,4683.461426,4531.922852,4655.000000,5369.000000,0.000000,13.000000,,,,0.000000,4.000000,4.000000,4.000000,4.000000,4.000000,4.000000,4.000000,4.000000,4.000000,4.000000,4.000000,4.000000,4.000000,4.000000,100.000000,,,,,,,,,,,,,,,,,28.000000,0.000000,0.678730,0.081116,-0.679199,0.267273,0.976193,-0.251496,0.065438,-39.864189,-31.551928,44.323364,,,,,,,,,,,,,,,,,,,,,,,,,,,,,,,,,,,,,,,,,,,,,,,,,,,,,,,,,,,,,,,,,,,,,,,,,,,,,,,,,,,,,,,,,,,,,,,,,,,,,
1739355662.465150,1739355662.465416,113.000000,0.000000,4476.666504,4443.333496,4503.717773,4498.333496,4421.922852,4419.487305,4427.307617,4366.025879,4444.487305,4423.974121,4781.794922,4720.128418,4560.897461,4688.717773,6497.000000,0.000000,13.000000,,,,0.000000,4.000000,4.000000,4.000000,4.000000,4.000000,4.000000,4.000000,4.000000,4.000000,4.000000,4.000000,4.000000,4.000000,4.000000,100.000000,,,,,,,,,,,,,,,,,,,,,,,,,,,,,,,,,,,,,,,,,,,,,,,,,,,,,,,,,,,,,,,,,,,,,,,,,,,,,,,,,,,,,,,,,,,,,,,,,,,,,,,,,,,,,,,,,,,,,,,,,,,,,,,,,
1739355662.472958,1739355662.473324,114.000000,0.000000,4445.128418,4413.077148,4470.641113,4462.051270,4391.538574,4391.153809,4394.102539,4356.153809,4418.205078,4399.743652,4756.538574,4686.538574,4539.102539,4659.871582,4864.000000,0.000000,13.000000,,,,0.000000,4.000000,4.000000,4.000000,4.000000,4.000000,4.000000,4.000000,4.000000,4.000000,4.000000,4.000000,4.000000,4.000000,4.000000,100.000000,,,,,,,,,,,,,,,,,,,,,,,,,,,,,,,,,,,,,,,,,,,,,,,,,,,,,,,,,,,,,,,,,,,,,,,,,,,,,,,,,,,,,,,,,,,,,,,,,,,,,,,,,,,,,,,,,,,,,,,,,,,,,,,,,
1739355662.480767,1739355662.481133,115.000000,0.000000,4418.717773,4395.512695,4442.563965,4436.153809,4376.282227,4375.512695,4367.051270,4351.538574,4391.282227,4378.589844,4732.179688,4652.948730,4519.743652,4631.282227,5475.000000,0.000000,13.000000,,,,0.000000,4.000000,4.000000,4.000000,4.000000,4.000000,4.000000,4.000000,4.000000,4.000000,4.000000,4.000000,4.000000,4.000000,4.000000,100.000000,,,,,,,,,,,,,,,,,,,,,,,,,,,,,,,,,,,,,,,,,,,,,,,,,,,,,,,,,,,,,,,,,,,,,,,,,,,,,,,,,,,,,,,,,,,,,,,,,,,,,,,,,,,,,,,,,,,,,,,,,,,,,,,,,
1739355662.488575,1739355662.489041,116.000000,0.000000,4443.589844,4423.974121,4469.487305,4463.333496,4400.000000,4395.641113,4393.846191,4359.871582,4416.282227,4401.025879,4762.051270,4681.666504,4544.743652,4659.743652,5369.000000,0.000000,13.000000,,,,0.000000,4.000000,4.000000,4.000000,4.000000,4.000000,4.000000,4.000000,4.000000,4.000000,4.000000,4.000000,4.000000,4.000000,4.000000,100.000000,,,,,,,,,,,,,,,,,29.000000,0.000000,0.678732,0.080688,-0.679199,0.267395,0.965938,-0.244170,0.063973,-39.811104,-31.530069,44.441029,,,,,,,,,,,,,,,,,,,,,,,,,,,,,,,,,,,,,,,,,,,,,,,,,,,,,,,,,,,,,,,,,,,,,,,,,,,,,,,,,,,,,,,,,,,,,,,,,,,,,
1739355662.496383,1739355662.496849,117.000000,0.000000,4444.358887,4415.384766,4469.487305,4458.461426,4395.128418,4391.922852,4393.589844,4355.769043,4417.051270,4399.743652,4767.820313,4685.000000,4546.794922,4662.436035,6497.000000,0.000000,13.000000,,,,0.000000,4.000000,4.000000,4.000000,4.000000,4.000000,4.000000,4.000000,4.000000,4.000000,4.000000,4.000000,4.000000,4.000000,4.000000,100.000000,,,,,,,,,,,,,,,,,,,,,,,,,,,,,,,,,,,,,,,,,,,,,,,,,,,,,,,,,,,,,,,,,,,,,,,,,,,,,,,,,,,,,,,,,,,,,,,,,,,,,,,,,,,,,,,,,,,,,,,,,,,,,,,,,
1739355662.504191,1739355662.504757,118.000000,0.000000,4422.820313,4390.641113,4444.102539,4435.897461,4375.641113,4375.000000,4368.589844,4347.948730,4384.358887,4372.307617,4742.307617,4657.307617,4527.307617,4636.922852,4864.000000,0.000000,13.000000,,,,0.000000,4.000000,4.000000,4.000000,4.000000,4.000000,4.000000,4.000000,4.000000,4.000000,4.000000,4.000000,4.000000,4.000000,4.000000,100.000000,,,,,,,,,,,,,,,,,,,,,,,,,,,,,,,,,,,,,,,,,,,,,,,,,,,,,,,,,,,,,,,,,,,,,,,,,,,,,,,,,,,,,,,,,,,,,,,,,,,,,,,,,,,,,,,,,,,,,,,,,,,,,,,,,
1739355662.511999,1739355662.512565,119.000000,0.000000,4453.717773,4429.102539,4469.871582,4467.948730,4402.436035,4399.871582,4395.512695,4359.871582,4403.333496,4393.717773,4765.256348,4687.436035,4551.025879,4668.461426,5475.000000,0.000000,13.000000,,,,0.000000,4.000000,4.000000,4.000000,4.000000,4.000000,4.000000,4.000000,4.000000,4.000000,4.000000,4.000000,4.000000,4.000000,4.000000,100.000000,,,,,,,,,,,,,,,,,,,,,,,,,,,,,,,,,,,,,,,,,,,,,,,,,,,,,,,,,,,,,,,,,,,,,,,,,,,,,,,,,,,,,,,,,,,,,,,,,,,,,,,,,,,,,,,,,,,,,,,,,,,,,,,,,
1739355662.519807,1739355662.520473,120.000000,0.000000,4461.282227,4437.820313,4477.563965,4472.820313,4408.717773,4404.102539,4399.358887,4357.692383,4411.538574,4397.948730,4770.000000,4690.512695,4552.948730,4679.102539,5369.000000,0.000000,13.000000,,,,0.000000,4.000000,4.000000,4.000000,4.000000,4.000000,4.000000,4.000000,4.000000,4.000000,4.000000,4.000000,4.000000,4.000000,4.000000,100.000000,,,,,,,,,,,,,,,,,30.000000,0.000000,0.678728,0.080322,-0.679199,0.267517,0.963985,-0.243682,0.062996,-39.796661,-31.677061,44.380260,,,,,,,,,,,,,,,,,,,,,,,,,,,,,,,,2.132860,4.586241,0.977191,1.098966,0.700863,4.835359,4.489514,1.471751,1.339365,0.859674,1.419244,1.973643,0.876169,0.957846,0.620974,7.461508,1.965564,0.653968,1.166929,0.774130,0.901272,0.597931,0.513480,0.976523,0.925933,1.159751,0.465111,0.379821,0.495080,0.688394,1.947692,0.862710,0.444205,0.772779,0.675054,0.355924,0.159782,0.136954,0.162564,0.140953,2.448205,0.761260,0.734801,1.169831,0.610650,3.995045,1.600744,1.037582,1.836094,0.859491,2.657667,2.030243,0.669752,1.281099,0.551286,1.734445,3.122375,1.021181,1.498813,0.906818,6.647587,2.031895,1.798073,0.824829,0.584273,1.677323,3.122300,0.934111,1.049964,0.691680
1739355662.527615,1739355662.528281,121.000000,0.000000,4412.051270,4388.974121,4437.307617,4427.563965,4368.205078,4364.871582,4355.128418,4341.538574,4371.282227,4352.307617,4729.615234,4637.179688,4514.871582,4632.307617,6497.000000,0.000000,13.000000,,,,0.000000,4.000000,4.000000,4.000000,4.000000,4.000000,4.000000,4.000000,4.000000,4.000000,4.000000,4.000000,4.000000,4.000000,4.000000,100.000000,,,,,,,,,,,,,,,,,,,,,,,,,,,,,,,,,,,,,,,,,,,,,,,,,,,,,,,,,,,,,,,,,,,,,,,,,,,,,,,,,,,,,,,,,,,,,,,,,,,,,,,,,,,,,,,,,,,,,,,,,,,,,,,,,
1739355662.535423,1739355662.536190,122.000000,0.000000,4409.743652,4391.153809,4436.153809,4427.436035,4359.230957,4359.487305,4355.897461,4350.512695,4373.589844,4352.307617,4738.077148,4642.948730,4522.307617,4631.282227,4864.000000,0.000000,13.000000,,,,0.000000,4.000000,4.000000,4.000000,4.000000,4.000000,4.000000,4.000000,4.000000,4.000000,4.000000,4.000000,4.000000,4.000000,4.000000,100.000000,,,,,,,,,,,,,,,,,,,,,,,,,,,,,,,,,,,,,,,,,,,,,,,,,,,,,,,,,,,,,,,,,,,,,,,,,,,,,,,,,,,,,,,,,,,,,,,,,,,,,,,,,,,,,,,,,,,,,,,,,,,,,,,,,
1739355662.543231,1739355662.543998,123.000000,0.000000,4464.358887,4439.487305,4477.948730,4470.641113,4395.000000,4395.897461,4397.051270,4370.512695,4422.307617,4413.205078,4789.358887,4703.205078,4572.948730,4685.897461,5475.000000,0.000000,13.000000,,,,0.000000,4.000000,4.000000,4.000000,4.000000,4.000000,4.000000,4.000000,4.000000,4.000000,4.000000,4.000000,4.000000,4.000000,4.000000,100.000000,,,,,,,,,,,,,,,,,,,,,,,,,,,,,,,,,,,,,,,,,,,,,,,,,,,,,,,,,,,,,,,,,,,,,,,,,,,,,,,,,,,,,,,,,,,,,,,,,,,,,,,,,,,,,,,,,,,,,,,,,,,,,,,,,
1739355662.551039,1739355662.551906,124.000000,0.000000,4485.000000,4452.820313,4491.538574,4483.205078,4413.333496,4409.358887,4402.692383,4367.692383,4436.410156,4441.410156,4804.743652,4719.230957,4587.307617,4707.307617,5369.000000,0.000000,13.000000,,,,0.000000,4.000000,4.000000,4.000000,4.000000,4.000000,4.000000,4.000000,4.000000,4.000000,4.000000,4.000000,4.000000,4.000000,4.000000,100.000000,,,,,,,,,,,,,,,,,31.000000,0.000000,0.678593,0.079834,-0.679199,0.268005,0.973752,-0.254426,0.068368,-39.700329,-31.559355,44.292233,,,,,,,,,,,,,,,,,,,,,,,,,,,,,,,,,,,,,,,,,,,,,,,,,,,,,,,,,,,,,,,,,,,,,,,,,,,,,,,,,,,,,,,,,,,,,,,,,,,,,
1739355662.558848,1739355662.559714,125.000000,0.000000,4461.282227,4431.922852,4469.102539,4462.179688,4401.025879,4391.410156,4381.025879,4357.563965,4414.615234,4408.846191,4776.922852,4691.153809,4564.230957,4682.692383,6497.000000,0.000000,13.000000,,,,0.000000,4.000000,4.000000,4.000000,4.000000,4.000000,4.000000,4.000000,4.000000,4.000000,4.000000,4.000000,4.000000,4.000000,4.000000,100.000000,,,,,,,,,,,,,,,,,,,,,,,,,,,,,,,,,,,,,,,,,,,,,,,,,,,,,,,,,,,,,,,,,,,,,,,,,,,,,,,,,,,,,,,,,,,,,,,,,,,,,,,,,,,,,,,,,,,,,,,,,,,,,,,,,
1739355662.566656,1739355662.567422,126.000000,0.000000,4444.615234,4418.205078,4453.333496,4446.410156,4388.077148,4382.051270,4376.153809,4358.333496,4399.743652,4379.871582,4753.589844,4672.436035,4546.153809,4663.333496,4864.000000,0.000000,13.000000,,,,0.000000,4.000000,4.000000,4.000000,4.000000,4.000000,4.000000,4.000000,4.000000,4.000000,4.000000,4.000000,4.000000,4.000000,4.000000,100.000000,,,,,,,,,,,,,,,,,,,,,,,,,,,,,,,,,,,,,,,,,,,,,,,,,,,,,,,,,,,,,,,,,,,,,,,,,,,,,,,,,,,,,,,,,,,,,,,,,,,,,,,,,,,,,,,,,,,,,,,,,,,,,,,,,
1739355662.574463,1739355662.575230,127.000000,0.000000,4453.846191,4428.077148,4463.589844,4458.205078,4399.487305,4398.461426,4393.717773,4365.384766,4405.897461,4391.153809,4764.358887,4680.641113,4552.051270,4673.717773,13.000000,0.000000,13.000000,,,,0.000000,4.000000,4.000000,4.000000,4.000000,4.000000,4.000000,4.000000,4.000000,4.000000,4.000000,4.000000,4.000000,4.000000,4.000000,100.000000,,,,,,,,,,,,,,,,,,,,,,,,,,,,,,,,,,,,,,,,,,,,,,,,,,,,,,,,,,,,,,,,,,,,,,,,,,,,,,,,,,,,,,,,,,,,,,,,,,,,,,,,,,,,,,,,,,,,,,,,,,,,,,,,,
1739355662.582272,1739355662.582938,0.000000,0.000000,4467.307617,4445.641113,4483.333496,4480.641113,4421.410156,4419.487305,4409.358887,4370.128418,4420.128418,4412.948730,4782.692383,4697.820313,4567.307617,4691.410156,5020.000000,0.000000,13.000000,,,,0.000000,4.000000,4.000000,4.000000,4.000000,4.000000,4.000000,4.000000,4.000000,4.000000,4.000000,4.000000,4.000000,4.000000,4.000000,100.000000,,,,,,,,,,,,,,,,,0.000000,0.000000,0.678751,0.079529,-0.679077,0.268005,0.952265,-0.258332,0.067391,-39.663628,-31.503420,44.413010,,,,,,,,,,,,,,,,,,,,,,,,,,,,,,,,,,,,,,,,,,,,,,,,,,,,,,,,,,,,,,,,,,,,,,,,,,,,,,,,,,,,,,,,,,,,,,,,,,,,,
1739355662.590080,1739355662.590746,1.000000,0.000000,4447.563965,4430.512695,4474.743652,4466.794922,4408.846191,4405.641113,4391.922852,4361.538574,4403.333496,4388.717773,4757.436035,4678.589844,4548.077148,4670.128418,5556.000000,0.000000,13.000000,,,,0.000000,4.000000,4.000000,4.000000,4.000000,4.000000,4.000000,4.000000,4.000000,4.000000,4.000000,4.000000,4.000000,4.000000,4.000000,100.000000,,,,,,,,,,,,,,,,,,,,,,,,,,,,,,,,,,,,,,,,,,,,,,,,,,,,,,,,,,,,,,,,,,,,,,,,,,,,,,,,,,,,,,,,,,,,,,,,,,,,,,,,,,,,,,,,,,,,,,,,,,,,,,,,,
1739355662.597888,1739355662.598454,2.000000,0.000000,4439.230957,4420.384766,4467.436035,4453.974121,4399.615234,4394.871582,4386.282227,4357.563965,4388.333496,4367.948730,4744.615234,4670.897461,4533.589844,4658.461426,5564.000000,0.000000,13.000000,,,,0.000000,4.000000,4.000000,4.000000,4.000000,4.000000,4.000000,4.000000,4.000000,4.000000,4.000000,4.000000,4.000000,4.000000,4.000000,100.000000,,,,,,,,,,,,,,,,,,,,,,,,,,,,,,,,,,,,,,,,,,,,,,,,,,,,,,,,,,,,,,,,,,,,,,,,,,,,,,,,,,,,,,,,,,,,,,,,,,,,,,,,,,,,,,,,,,,,,,,,,,,,,,,,,
1739355662.605696,1739355662.606363,3.000000,0.000000,4461.666504,4436.282227,4478.589844,4471.666504,4415.641113,4408.846191,4402.948730,4363.205078,4399.487305,4386.153809,4769.358887,4692.563965,4549.743652,4680.000000,5507.000000,0.000000,13.000000,,,,0.000000,4.000000,4.000000,4.000000,4.000000,4.000000,4.000000,4.000000,4.000000,4.000000,4.000000,4.000000,4.000000,4.000000,4.000000,100.000000,,,,,,,,,,,,,,,,,,,,,,,,,,,,,,,,,,,,,,,,,,,,,,,,,,,,,,,,,,,,,,,,,,,,,,,,,,,,,,,,,,,,,,,,,,,,,,,,,,,,,,,,,,,,,,,,,,,,,,,,,,,,,,,,,
1739355662.613504,1739355662.614171,4.000000,0.000000,4462.948730,4439.487305,4476.153809,4477.179688,4413.205078,4409.487305,4396.794922,4363.077148,4402.436035,4391.153809,4767.948730,4691.282227,4552.948730,4681.922852,5475.000000,0.000000,13.000000,,,,0.000000,4.000000,4.000000,4.000000,4.000000,4.000000,4.000000,4.000000,4.000000,4.000000,4.000000,4.000000,4.000000,4.000000,4.000000,100.000000,,,,,,,,,,,,,,,,,1.000000,0.000000,0.678847,0.079529,-0.679077,0.267761,0.973752,-0.250031,0.056159,-39.580597,-31.536411,44.488377,,,,,,,,,,,,,,,,,,,,,,,,,,,,,,,,,,,,,,,,,,,,,,,,,,,,,,,,,,,,,,,,,,,,,,,,,,,,,,,,,,,,,,,,,,,,,,,,,,,,,
1739355662.621312,1739355662.621980,5.000000,0.000000,4456.794922,4440.128418,4481.025879,4475.384766,4408.846191,4407.307617,4391.794922,4364.358887,4408.974121,4394.358887,4760.384766,4692.307617,4551.282227,4679.743652,5475.000000,0.000000,13.000000,,,,0.000000,4.000000,4.000000,4.000000,4.000000,4.000000,4.000000,4.000000,4.000000,4.000000,4.000000,4.000000,4.000000,4.000000,4.000000,100.000000,,,,,,,,,,,,,,,,,,,,,,,,,,,,,,,,,,,,,,,,,,,,,,,,,,,,,,,,,,,,,,,,,,,,,,,,,,,,,,,,,,,,,,,,,,,,,,,,,,,,,,,,,,,,,,,,,,,,,,,,,,,,,,,,,
1739355662.629120,1739355662.629688,6.000000,0.000000,4466.410156,4442.307617,4492.436035,4475.512695,4412.051270,4404.615234,4396.282227,4368.333496,4417.948730,4404.871582,4769.358887,4703.333496,4560.000000,4686.410156,5425.000000,0.000000,13.000000,,,,0.000000,4.000000,4.000000,4.000000,4.000000,4.000000,4.000000,4.000000,4.000000,4.000000,4.000000,4.000000,4.000000,4.000000,4.000000,100.000000,,,,,,,,,,,,,,,,,,,,,,,,,,,,,,,,,,,,,,,,,,,,,,,,,,,,,,,,,,,,,,,,,,,,,,,,,,,,,,,,,,,,,,,,,,,,,,,,,,,,,,,,,,,,,,,,,,,,,,,,,,,,,,,,,
1739355662.636928,1739355662.637496,7.000000,0.000000,4474.871582,4444.102539,4490.256348,4475.641113,4407.820313,4396.538574,4394.871582,4368.461426,4418.717773,4407.948730,4775.000000,4706.410156,4569.102539,4690.641113,2105.000000,0.000000,13.000000,,,,0.000000,4.000000,4.000000,4.000000,4.000000,4.000000,4.000000,4.000000,4.000000,4.000000,4.000000,4.000000,4.000000,4.000000,4.000000,100.000000,,,,,,,,,,,,,,,,,,,,,,,,,,,,,,,,,,,,,,,,,,,,,,,,,,,,,,,,,,,,,,,,,,,,,,,,,,,,,,,,,,,,,,,,,,,,,,,,,,,,,,,,,,,,,,,,,,,,,,,,,,,,,,,,,
1739355662.644736,1739355662.645204,8.000000,0.000000,4468.974121,4443.461426,4480.641113,4473.717773,4402.820313,4395.769043,4389.102539,4363.461426,4411.025879,4400.641113,4768.717773,4697.436035,4563.974121,4687.051270,5192.000000,0.000000,13.000000,,,,0.000000,4.000000,4.000000,4.000000,4.000000,4.000000,4.000000,4.000000,4.000000,4.000000,4.000000,4.000000,4.000000,4.000000,4.000000,100.000000,1.000000,25.000000,3.000000,4.000000,1.000000,1.000000,3.000000,3.000000,1.000000,4.000000,3.000000,3.000000,3.000000,3.000000,4.000000,3.000000,2.000000,0.000000,0.678904,0.079346,-0.679138,0.267517,0.961055,-0.236845,0.080088,-39.589207,-31.732771,44.422871,,,,,,,,,,,,,,,,,,,,,,,,,,,,,,,,2.176430,5.093637,1.280507,1.289416,0.932507,4.755923,4.502957,1.654012,1.497831,1.020334,1.437169,2.134253,1.110230,1.163606,0.795933,11.406467,2.180467,0.861077,1.354095,1.008304,0.864396,0.767244,0.625987,1.043989,1.160078,1.069492,0.597753,0.402816,0.629693,0.909814,1.840510,1.088433,0.507379,0.987532,0.891357,0.436330,0.291554,0.231011,0.217709,0.185505,2.316492,0.639542,0.757258,1.398111,0.798284,3.953306,1.520955,1.342389,2.043107,1.068866,2.486406,2.073412,0.798088,1.531808,0.737399,1.644013,3.191487,1.370727,1.788218,1.196586,5.770811,2.393583,1.989886,0.960835,0.721114,1.510689,3.408420,1.197978,1.221852,0.895021
1739355662.652544,1739355662.653012,9.000000,0.000000,4457.820313,4432.948730,4473.846191,4465.384766,4405.256348,4399.615234,4385.641113,4362.820313,4400.384766,4390.128418,4761.410156,4686.282227,4551.410156,4677.307617,5542.000000,0.000000,13.000000,,,,0.000000,4.000000,4.000000,4.000000,4.000000,4.000000,4.000000,4.000000,4.000000,4.000000,4.000000,4.000000,4.000000,4.000000,4.000000,100.000000,,,,,,,,,,,,,,,,,,,,,,,,,,,,,,,,,,,,,,,,,,,,,,,,,,,,,,,,,,,,,,,,,,,,,,,,,,,,,,,,,,,,,,,,,,,,,,,,,,,,,,,,,,,,,,,,,,,,,,,,,,,,,,,,,
1739355662.660353,1739355662.660719,10.000000,0.000000,4450.000000,4421.922852,4468.077148,4453.205078,4406.410156,4397.820313,4385.128418,4364.230957,4395.512695,4383.461426,4757.948730,4677.179688,4546.794922,4669.615234,4806.000000,0.000000,13.000000,,,,0.000000,4.000000,4.000000,4.000000,4.000000,4.000000,4.000000,4.000000,4.000000,4.000000,4.000000,4.000000,4.000000,4.000000,4.000000,100.000000,,,,,,,,,,,,,,,,,,,,,,,,,,,,,,,,,,,,,,,,,,,,,,,,,,,,,,,,,,,,,,,,,,,,,,,,,,,,,,,,,,,,,,,,,,,,,,,,,,,,,,,,,,,,,,,,,,,,,,,,,,,,,,,,,
1739355662.668161,1739355662.668628,11.000000,0.000000,4443.717773,4418.205078,4458.077148,4445.384766,4399.743652,4390.000000,4381.922852,4360.128418,4386.282227,4371.282227,4747.563965,4664.871582,4542.692383,4663.717773,5417.000000,0.000000,13.000000,,,,0.000000,4.000000,4.000000,4.000000,4.000000,4.000000,4.000000,4.000000,4.000000,4.000000,4.000000,4.000000,4.000000,4.000000,4.000000,100.000000,,,,,,,,,,,,,,,,,,,,,,,,,,,,,,,,,,,,,,,,,,,,,,,,,,,,,,,,,,,,,,,,,,,,,,,,,,,,,,,,,,,,,,,,,,,,,,,,,,,,,,,,,,,,,,,,,,,,,,,,,,,,,,,,,
1739355662.675969,1739355662.676436,12.000000,0.000000,4443.333496,4416.410156,4456.410156,4450.384766,4394.871582,4386.410156,4379.487305,4357.436035,4371.538574,4357.948730,4736.666504,4661.538574,4534.871582,4657.051270,5305.000000,0.000000,13.000000,,,,0.000000,4.000000,4.000000,4.000000,4.000000,4.000000,4.000000,4.000000,4.000000,4.000000,4.000000,4.000000,4.000000,4.000000,4.000000,100.000000,,,,,,,,,,,,,,,,,3.000000,0.000000,0.678932,0.079102,-0.679138,0.267517,0.964962,-0.244659,0.064461,-39.480286,-31.692827,44.497250,,,,,,,,,,,,,,,,,,,,,,,,,,,,,,,,,,,,,,,,,,,,,,,,,,,,,,,,,,,,,,,,,,,,,,,,,,,,,,,,,,,,,,,,,,,,,,,,,,,,,
1739355662.683777,1739355662.684344,13.000000,0.000000,4448.717773,4420.512695,4466.025879,4461.538574,4399.487305,4393.077148,4384.358887,4357.563965,4369.358887,4353.205078,4735.256348,4669.615234,4532.307617,4659.487305,6422.000000,0.000000,13.000000,,,,0.000000,4.000000,4.000000,4.000000,4.000000,4.000000,4.000000,4.000000,4.000000,4.000000,4.000000,4.000000,4.000000,4.000000,4.000000,100.000000,,,,,,,,,,,,,,,,,,,,,,,,,,,,,,,,,,,,,,,,,,,,,,,,,,,,,,,,,,,,,,,,,,,,,,,,,,,,,,,,,,,,,,,,,,,,,,,,,,,,,,,,,,,,,,,,,,,,,,,,,,,,,,,,,
1739355662.691585,1739355662.692152,14.000000,0.000000,4435.256348,4414.230957,4456.410156,4446.282227,4394.102539,4386.794922,4375.000000,4351.922852,4366.922852,4350.000000,4729.230957,4658.461426,4526.922852,4654.871582,4806.000000,0.000000,13.000000,,,,0.000000,4.000000,4.000000,4.000000,4.000000,4.000000,4.000000,4.000000,4.000000,4.000000,4.000000,4.000000,4.000000,4.000000,4.000000,100.000000,,,,,,,,,,,,,,,,,,,,,,,,,,,,,,,,,,,,,,,,,,,,,,,,,,,,,,,,,,,,,,,,,,,,,,,,,,,,,,,,,,,,,,,,,,,,,,,,,,,,,,,,,,,,,,,,,,,,,,,,,,,,,,,,,
1739355662.699393,1739355662.700060,15.000000,0.000000,4407.692383,4383.077148,4427.820313,4409.487305,4375.000000,4362.307617,4348.077148,4346.538574,4352.948730,4340.897461,4715.384766,4630.384766,4517.179688,4631.025879,5417.000000,0.000000,13.000000,,,,0.000000,4.000000,4.000000,4.000000,4.000000,4.000000,4.000000,4.000000,4.000000,4.000000,4.000000,4.000000,4.000000,4.000000,4.000000,100.000000,,,,,,,,,,,,,,,,,,,,,,,,,,,,,,,,,,,,,,,,,,,,,,,,,,,,,,,,,,,,,,,,,,,,,,,,,,,,,,,,,,,,,,,,,,,,,,,,,,,,,,,,,,,,,,,,,,,,,,,,,,,,,,,,,
1739355662.707201,1739355662.707868,16.000000,0.000000,4407.307617,4371.666504,4429.615234,4403.205078,4368.846191,4354.487305,4339.615234,4352.436035,4357.563965,4339.615234,4718.717773,4634.615234,4520.897461,4628.333496,0.000000,0.000000,13.000000,,,,0.000000,4.000000,4.000000,4.000000,4.000000,4.000000,4.000000,4.000000,4.000000,4.000000,4.000000,4.000000,4.000000,4.000000,4.000000,100.000000,,,,,,,,,,,,,,,,,4.000000,0.000000,0.679037,0.079041,-0.679016,0.267578,0.973263,-0.254426,0.071298,-39.532257,-31.590210,44.497524,,,,,,,,,,,,,,,,,,,,,,,,,,,,,,,,,,,,,,,,,,,,,,,,,,,,,,,,,,,,,,,,,,,,,,,,,,,,,,,,,,,,,,,,,,,,,,,,,,,,,
1739355662.715009,1739355662.715776,17.000000,0.000000,4421.282227,4385.641113,4446.666504,4416.538574,4370.512695,4357.563965,4342.692383,4357.179688,4370.641113,4346.922852,4726.410156,4651.153809,4530.128418,4644.871582,0.000000,0.000000,13.000000,,,,0.000000,4.000000,4.000000,4.000000,4.000000,4.000000,4.000000,4.000000,4.000000,4.000000,4.000000,4.000000,4.000000,4.000000,4.000000,100.000000,,,,,,,,,,,,,,,,,,,,,,,,,,,,,,,,,,,,,,,,,,,,,,,,,,,,,,,,,,,,,,,,,,,,,,,,,,,,,,,,,,,,,,,,,,,,,,,,,,,,,,,,,,,,,,,,,,,,,,,,,,,,,,,,,
1739355662.722817,1739355662.723585,18.000000,0.000000,4410.512695,4381.794922,4431.410156,4406.282227,4359.743652,4347.436035,4332.179688,4349.743652,4359.358887,4346.025879,4712.820313,4634.358887,4521.025879,4634.743652,0.000000,0.000000,13.000000,,,,0.000000,4.000000,4.000000,4.000000,4.000000,4.000000,4.000000,4.000000,4.000000,4.000000,4.000000,4.000000,4.000000,4.000000,4.000000,100.000000,,,,,,,,,,,,,,,,,,,,,,,,,,,,,,,,,,,,,,,,,,,,,,,,,,,,,,,,,,,,,,,,,,,,,,,,,,,,,,,,,,,,,,,,,,,,,,,,,,,,,,,,,,,,,,,,,,,,,,,,,,,,,,,,,
1739355662.730625,1739355662.731493,19.000000,0.000000,4389.102539,4368.589844,4409.743652,4389.615234,4351.410156,4338.077148,4321.538574,4345.384766,4340.769043,4331.666504,4696.282227,4610.512695,4508.589844,4614.358887,0.000000,0.000000,13.000000,,,,0.000000,4.000000,4.000000,4.000000,4.000000,4.000000,4.000000,4.000000,4.000000,4.000000,4.000000,4.000000,4.000000,4.000000,4.000000,100.000000,,,,,,,,,,,,,,,,,,,,,,,,,,,,,,,,,,,,,,,,,,,,,,,,,,,,,,,,,,,,,,,,,,,,,,,,,,,,,,,,,,,,,,,,,,,,,,,,,,,,,,,,,,,,,,,,,,,,,,,,,,,,,,,,,
1739355662.738433,1739355662.739301,20.000000,0.000000,4382.051270,4362.307617,4407.948730,4381.666504,4347.051270,4333.461426,4317.692383,4345.512695,4330.256348,4311.538574,4692.179688,4605.512695,4514.487305,4611.025879,0.000000,0.000000,13.000000,,,,0.000000,4.000000,4.000000,4.000000,4.000000,4.000000,4.000000,4.000000,4.000000,4.000000,4.000000,4.000000,4.000000,4.000000,4.000000,100.000000,,,,,,,,,,,,,,,,,5.000000,0.000000,0.679101,0.079224,-0.678955,0.267517,0.972775,-0.248077,0.068856,-39.579029,-31.547855,44.414440,,,,,,,,,,,,,,,,,,,,,,,,,,,,,,,,,,,,,,,,,,,,,,,,,,,,,,,,,,,,,,,,,,,,,,,,,,,,,,,,,,,,,,,,,,,,,,,,,,,,,
1739355662.746241,1739355662.747209,21.000000,0.000000,4373.846191,4348.461426,4402.436035,4366.538574,4330.769043,4319.487305,4308.717773,4340.000000,4319.487305,4298.717773,4685.769043,4595.256348,4514.230957,4602.436035,0.000000,0.000000,13.000000,,,,0.000000,4.000000,4.000000,4.000000,4.000000,4.000000,4.000000,4.000000,4.000000,4.000000,4.000000,4.000000,4.000000,4.000000,4.000000,100.000000,,,,,,,,,,,,,,,,,,,,,,,,,,,,,,,,,,,,,,,,,,,,,,,,,,,,,,,,,,,,,,,,,,,,,,,,,,,,,,,,,,,,,,,,,,,,,,,,,,,,,,,,,,,,,,,,,,,,,,,,,,,,,,,,,
1739355662.754049,1739355662.755017,22.000000,0.000000,4359.102539,4338.077148,4388.205078,4353.205078,4323.333496,4310.000000,4298.717773,4334.871582,4308.205078,4291.922852,4672.563965,4571.410156,4494.615234,4584.487305,0.000000,0.000000,13.000000,,,,0.000000,4.000000,4.000000,4.000000,4.000000,4.000000,4.000000,4.000000,4.000000,4.000000,4.000000,4.000000,4.000000,4.000000,4.000000,100.000000,,,,,,,,,,,,,,,,,,,,,,,,,,,,,,,,,,,,,,,,,,,,,,,,,,,,,,,,,,,,,,,,,,,,,,,,,,,,,,,,,,,,,,,,,,,,,,,,,,,,,,,,,,,,,,,,,,,,,,,,,,,,,,,,,
1739355662.761858,1739355662.762725,23.000000,0.000000,4346.666504,4337.051270,4377.307617,4350.256348,4327.179688,4305.384766,4289.743652,4333.974121,4296.153809,4278.205078,4663.205078,4556.282227,4482.692383,4573.717773,0.000000,0.000000,13.000000,,,,0.000000,4.000000,4.000000,4.000000,4.000000,4.000000,4.000000,4.000000,4.000000,4.000000,4.000000,4.000000,4.000000,4.000000,4.000000,100.000000,,,,,,,,,,,,,,,,,,,,,,,,,,,,,,,,,,,,,,,,,,,,,,,,,,,,,,,,,,,,,,,,,,,,,,,,,,,,,,,,,,,,,,,,,,,,,,,,,,,,,,,,,,,,,,,,,,,,,,,,,,,,,,,,,
1739355662.769666,1739355662.770533,24.000000,0.000000,4332.436035,4320.384766,4365.000000,4332.820313,4312.307617,4289.487305,4275.128418,4330.897461,4282.692383,4261.025879,4648.717773,4543.974121,4480.384766,4560.897461,0.000000,0.000000,13.000000,,,,0.000000,4.000000,4.000000,4.000000,4.000000,4.000000,4.000000,4.000000,4.000000,4.000000,4.000000,4.000000,4.000000,4.000000,4.000000,100.000000,,,,,,,,,,,,,,,,,6.000000,0.000000,0.678999,0.079163,-0.679016,0.267639,0.951288,-0.248077,0.064461,-39.587795,-31.526403,44.489662,,,,,,,,,,,,,,,,,,,,,,,,,,,,,,,,2.239513,5.208932,1.582130,1.445375,1.205498,4.752122,4.170037,1.793405,1.605127,1.199231,1.550346,2.129183,1.382007,1.352270,0.988809,15.201918,2.231449,1.131801,1.555019,1.274446,0.988530,0.929321,0.791706,1.173804,1.385742,1.069109,0.744055,0.488571,0.802048,1.145214,1.711231,1.334131,0.668795,1.216592,1.138912,0.568703,0.469728,0.370561,0.273846,0.228168,2.214527,0.543364,0.778276,1.588852,1.001104,3.837270,1.469636,1.643588,2.148655,1.315319,2.370488,2.076187,0.906367,1.710422,0.945433,1.759504,3.054280,1.747244,2.039747,1.524469,4.437923,2.714059,2.043139,1.068728,0.872733,1.421584,3.418506,1.479098,1.367712,1.122256
1739355662.777474,1739355662.778241,25.000000,0.000000,4323.461426,4305.897461,4358.205078,4313.846191,4291.666504,4276.538574,4263.333496,4324.487305,4275.641113,4254.487305,4635.256348,4529.615234,4473.717773,4549.871582,0.000000,0.000000,13.000000,,,,0.000000,4.000000,4.000000,4.000000,4.000000,4.000000,4.000000,4.000000,4.000000,4.000000,4.000000,4.000000,4.000000,4.000000,4.000000,100.000000,,,,,,,,,,,,,,,,,,,,,,,,,,,,,,,,,,,,,,,,,,,,,,,,,,,,,,,,,,,,,,,,,,,,,,,,,,,,,,,,,,,,,,,,,,,,,,,,,,,,,,,,,,,,,,,,,,,,,,,,,,,,,,,,,
1739355662.785282,1739355662.786049,26.000000,0.000000,4311.538574,4296.922852,4345.641113,4300.512695,4277.820313,4263.333496,4246.153809,4317.948730,4265.128418,4240.641113,4623.846191,4514.358887,4461.922852,4537.051270,0.000000,0.000000,13.000000,,,,0.000000,4.000000,4.000000,4.000000,4.000000,4.000000,4.000000,4.000000,4.000000,4.000000,4.000000,4.000000,4.000000,4.000000,4.000000,100.000000,,,,,,,,,,,,,,,,,,,,,,,,,,,,,,,,,,,,,,,,,,,,,,,,,,,,,,,,,,,,,,,,,,,,,,,,,,,,,,,,,,,,,,,,,,,,,,,,,,,,,,,,,,,,,,,,,,,,,,,,,,,,,,,,,
1739355662.793090,1739355662.793757,27.000000,0.000000,4294.615234,4280.000000,4329.743652,4284.102539,4263.974121,4248.205078,4230.256348,4317.948730,4254.358887,4220.128418,4613.717773,4503.333496,4456.153809,4525.641113,0.000000,0.000000,13.000000,,,,0.000000,4.000000,4.000000,4.000000,4.000000,4.000000,4.000000,4.000000,4.000000,4.000000,4.000000,4.000000,4.000000,4.000000,4.000000,100.000000,,,,,,,,,,,,,,,,,,,,,,,,,,,,,,,,,,,,,,,,,,,,,,,,,,,,,,,,,,,,,,,,,,,,,,,,,,,,,,,,,,,,,,,,,,,,,,,,,,,,,,,,,,,,,,,,,,,,,,,,,,,,,,,,,
1739355662.800898,1739355662.801565,28.000000,0.000000,4297.563965,4279.487305,4336.025879,4285.256348,4262.179688,4247.692383,4233.205078,4323.974121,4263.717773,4236.282227,4621.282227,4510.128418,4463.205078,4536.025879,0.000000,0.000000,13.000000,,,,0.000000,4.000000,4.000000,4.000000,4.000000,4.000000,4.000000,4.000000,4.000000,4.000000,4.000000,4.000000,4.000000,4.000000,4.000000,100.000000,,,,,,,,,,,,,,,,,7.000000,0.000000,0.678883,0.079224,-0.679077,0.267761,0.952265,-0.255891,0.055671,-39.579014,-31.440430,44.540695,,,,,,,,,,,,,,,,,,,,,,,,,,,,,,,,,,,,,,,,,,,,,,,,,,,,,,,,,,,,,,,,,,,,,,,,,,,,,,,,,,,,,,,,,,,,,,,,,,,,,
1739355662.808706,1739355662.809274,29.000000,0.000000,4294.487305,4276.666504,4335.384766,4284.358887,4256.538574,4238.717773,4224.358887,4317.948730,4257.563965,4241.410156,4616.922852,4504.230957,4457.436035,4533.589844,0.000000,0.000000,13.000000,,,,0.000000,4.000000,4.000000,4.000000,4.000000,4.000000,4.000000,4.000000,4.000000,4.000000,4.000000,4.000000,4.000000,4.000000,4.000000,100.000000,,,,,,,,,,,,,,,,,,,,,,,,,,,,,,,,,,,,,,,,,,,,,,,,,,,,,,,,,,,,,,,,,,,,,,,,,,,,,,,,,,,,,,,,,,,,,,,,,,,,,,,,,,,,,,,,,,,,,,,,,,,,,,,,,
1739355662.816514,1739355662.817082,30.000000,0.000000,4269.487305,4252.948730,4311.922852,4260.256348,4236.794922,4216.410156,4201.538574,4306.282227,4231.410156,4207.179688,4590.000000,4477.948730,4434.615234,4502.179688,0.000000,0.000000,13.000000,,,,0.000000,4.000000,4.000000,4.000000,4.000000,4.000000,4.000000,4.000000,4.000000,4.000000,4.000000,4.000000,4.000000,4.000000,4.000000,100.000000,,,,,,,,,,,,,,,,,,,,,,,,,,,,,,,,,,,,,,,,,,,,,,,,,,,,,,,,,,,,,,,,,,,,,,,,,,,,,,,,,,,,,,,,,,,,,,,,,,,,,,,,,,,,,,,,,,,,,,,,,,,,,,,,,
1739355662.824322,1739355662.824790,31.000000,0.000000,4255.512695,4243.461426,4299.743652,4243.077148,4228.333496,4210.256348,4198.077148,4308.333496,4226.282227,4195.769043,4578.974121,4465.256348,4424.487305,4487.948730,0.000000,0.000000,13.000000,,,,0.000000,4.000000,4.000000,4.000000,4.000000,4.000000,4.000000,4.000000,4.000000,4.000000,4.000000,4.000000,4.000000,4.000000,4.000000,100.000000,,,,,,,,,,,,,,,,,,,,,,,,,,,,,,,,,,,,,,,,,,,,,,,,,,,,,,,,,,,,,,,,,,,,,,,,,,,,,,,,,,,,,,,,,,,,,,,,,,,,,,,,,,,,,,,,,,,,,,,,,,,,,,,,,
1739355662.832130,1739355662.832598,32.000000,0.000000,4249.615234,4243.333496,4296.025879,4242.179688,4226.410156,4212.692383,4199.871582,4311.538574,4221.410156,4193.333496,4580.128418,4459.230957,4419.230957,4488.717773,0.000000,0.000000,13.000000,,,,0.000000,4.000000,4.000000,4.000000,4.000000,4.000000,4.000000,4.000000,4.000000,4.000000,4.000000,4.000000,4.000000,4.000000,4.000000,100.000000,,,,,,,,,,,,,,,,,8.000000,0.000000,0.678917,0.079346,-0.679077,0.267639,0.973752,-0.244170,0.075693,-39.637779,-31.479721,44.519958,,,,,,,,,,,,,,,,,,,,,,,,,,,,,,,,,,,,,,,,,,,,,,,,,,,,,,,,,,,,,,,,,,,,,,,,,,,,,,,,,,,,,,,,,,,,,,,,,,,,,
1739355662.839939,1739355662.840305,33.000000,0.000000,4234.615234,4222.820313,4283.205078,4232.179688,4210.641113,4200.256348,4187.820313,4304.871582,4197.436035,4161.153809,4561.922852,4440.128418,4402.051270,4472.563965,0.000000,0.000000,13.000000,,,,0.000000,4.000000,4.000000,4.000000,4.000000,4.000000,4.000000,4.000000,4.000000,4.000000,4.000000,4.000000,4.000000,4.000000,4.000000,100.000000,,,,,,,,,,,,,,,,,,,,,,,,,,,,,,,,,,,,,,,,,,,,,,,,,,,,,,,,,,,,,,,,,,,,,,,,,,,,,,,,,,,,,,,,,,,,,,,,,,,,,,,,,,,,,,,,,,,,,,,,,,,,,,,,,
1739355662.847746,1739355662.848113,34.000000,0.000000,4226.410156,4211.153809,4277.179688,4220.384766,4200.769043,4188.717773,4180.256348,4300.897461,4187.948730,4142.820313,4544.487305,4431.025879,4394.743652,4462.179688,0.000000,0.000000,13.000000,,,,0.000000,4.000000,4.000000,4.000000,4.000000,4.000000,4.000000,4.000000,4.000000,4.000000,4.000000,4.000000,4.000000,4.000000,4.000000,100.000000,,,,,,,,,,,,,,,,,,,,,,,,,,,,,,,,,,,,,,,,,,,,,,,,,,,,,,,,,,,,,,,,,,,,,,,,,,,,,,,,,,,,,,,,,,,,,,,,,,,,,,,,,,,,,,,,,,,,,,,,,,,,,,,,,
1739355662.855555,1739355662.855821,35.000000,0.000000,4221.153809,4216.153809,4272.179688,4215.256348,4200.000000,4186.153809,4176.153809,4300.256348,4185.897461,4145.641113,4539.102539,4425.769043,4389.230957,4463.974121,0.000000,0.000000,13.000000,,,,0.000000,4.000000,4.000000,4.000000,4.000000,4.000000,4.000000,4.000000,4.000000,4.000000,4.000000,4.000000,4.000000,4.000000,4.000000,100.000000,,,,,,,,,,,,,,,,,,,,,,,,,,,,,,,,,,,,,,,,,,,,,,,,,,,,,,,,,,,,,,,,,,,,,,,,,,,,,,,,,,,,,,,,,,,,,,,,,,,,,,,,,,,,,,,,,,,,,,,,,,,,,,,,,
1739355662.863363,1739355662.863629,36.000000,0.000000,4210.128418,4208.205078,4258.589844,4204.358887,4190.641113,4178.205078,4163.333496,4296.025879,4169.487305,4132.307617,4526.538574,4408.589844,4369.230957,4450.897461,0.000000,0.000000,13.000000,,,,0.000000,4.000000,4.000000,4.000000,4.000000,4.000000,4.000000,4.000000,4.000000,4.000000,4.000000,4.000000,4.000000,4.000000,4.000000,100.000000,,,,,,,,,,,,,,,,,9.000000,0.000000,0.679210,0.079224,-0.678894,0.267395,0.954706,-0.260774,0.071298,-39.690670,-31.465082,44.534630,,,,,,,,,,,,,,,,,,,,,,,,,,,,,,,,,,,,,,,,,,,,,,,,,,,,,,,,,,,,,,,,,,,,,,,,,,,,,,,,,,,,,,,,,,,,,,,,,,,,,
1739355662.871171,1739355662.871337,37.000000,0.000000,4214.871582,4199.871582,4262.436035,4200.128418,4183.974121,4168.461426,4156.922852,4295.897461,4167.051270,4133.333496,4524.487305,4410.641113,4369.358887,4446.922852,0.000000,0.000000,13.000000,,,,0.000000,4.000000,4.000000,4.000000,4.000000,4.000000,4.000000,4.000000,4.000000,4.000000,4.000000,4.000000,4.000000,4.000000,4.000000,100.000000,,,,,,,,,,,,,,,,,,,,,,,,,,,,,,,,,,,,,,,,,,,,,,,,,,,,,,,,,,,,,,,,,,,,,,,,,,,,,,,,,,,,,,,,,,,,,,,,,,,,,,,,,,,,,,,,,,,,,,,,,,,,,,,,,
1739355662.878979,1739355662.879245,38.000000,0.000000,4214.743652,4194.871582,4264.615234,4192.692383,4174.230957,4157.307617,4148.077148,4295.128418,4170.512695,4140.897461,4524.102539,4413.717773,4375.641113,4452.051270,0.000000,0.000000,13.000000,,,,0.000000,4.000000,4.000000,4.000000,4.000000,4.000000,4.000000,4.000000,4.000000,4.000000,4.000000,4.000000,4.000000,4.000000,4.000000,100.000000,,,,,,,,,,,,,,,,,,,,,,,,,,,,,,,,,,,,,,,,,,,,,,,,,,,,,,,,,,,,,,,,,,,,,,,,,,,,,,,,,,,,,,,,,,,,,,,,,,,,,,,,,,,,,,,,,,,,,,,,,,,,,,,,,
1739355662.886787,1739355662.887053,39.000000,0.000000,4199.102539,4182.179688,4248.974121,4172.948730,4159.871582,4148.974121,4134.871582,4287.436035,4162.563965,4126.538574,4510.512695,4396.153809,4366.410156,4442.820313,0.000000,0.000000,13.000000,,,,0.000000,4.000000,4.000000,4.000000,4.000000,4.000000,4.000000,4.000000,4.000000,4.000000,4.000000,4.000000,4.000000,4.000000,4.000000,100.000000,,,,,,,,,,,,,,,,,,,,,,,,,,,,,,,,,,,,,,,,,,,,,,,,,,,,,,,,,,,,,,,,,,,,,,,,,,,,,,,,,,,,,,,,,,,,,,,,,,,,,,,,,,,,,,,,,,,,,,,,,,,,,,,,,
1739355662.894595,1739355662.894961,40.000000,0.000000,4200.769043,4181.538574,4246.794922,4169.871582,4162.436035,4152.820313,4137.436035,4289.102539,4166.538574,4130.384766,4513.077148,4400.897461,4371.025879,4442.436035,0.000000,0.000000,13.000000,,,,0.000000,4.000000,4.000000,4.000000,4.000000,4.000000,4.000000,4.000000,4.000000,4.000000,4.000000,4.000000,4.000000,4.000000,4.000000,100.000000,,,,,,,,,,,,,,,,,10.000000,0.000000,0.679260,0.078796,-0.678894,0.267395,0.970333,-0.262239,0.065438,-39.571602,-31.418573,44.514500,,,,,,,,,,,,,,,,,,,,,,,,,,,,,,,,2.078730,4.887161,1.830733,1.560506,1.509740,4.504632,3.570838,1.882378,1.652622,1.405982,1.550372,1.941634,1.642927,1.490269,1.198095,17.092131,2.105498,1.444422,1.745721,1.558205,1.204626,1.036341,0.981679,1.349648,1.585257,1.169704,0.876847,0.621980,0.973512,1.372947,1.677360,1.557009,0.907037,1.407685,1.403397,0.744606,0.652789,0.528545,0.317894,0.263645,2.151158,0.494901,0.833979,1.698269,1.211913,3.590910,1.485102,1.920792,2.142290,1.594006,2.241733,2.066409,1.001435,1.783697,1.175854,1.919186,2.699161,2.103937,2.215270,1.875821,2.998489,2.944376,1.985354,1.147884,1.046555,1.314003,3.151592,1.740083,1.475032,1.376936
1739355662.902403,1739355662.902769,41.000000,0.000000,4210.384766,4191.922852,4254.487305,4177.051270,4166.025879,4153.333496,4137.948730,4293.589844,4168.846191,4142.436035,4521.538574,4415.128418,4378.974121,4450.641113,0.000000,0.000000,13.000000,,,,0.000000,4.000000,4.000000,4.000000,4.000000,4.000000,4.000000,4.000000,4.000000,4.000000,4.000000,4.000000,4.000000,4.000000,4.000000,100.000000,,,,,,,,,,,,,,,,,,,,,,,,,,,,,,,,,,,,,,,,,,,,,,,,,,,,,,,,,,,,,,,,,,,,,,,,,,,,,,,,,,,,,,,,,,,,,,,,,,,,,,,,,,,,,,,,,,,,,,,,,,,,,,,,,
1739355662.910211,1739355662.910677,42.000000,0.000000,4201.410156,4183.077148,4247.307617,4165.128418,4154.615234,4140.512695,4126.153809,4285.769043,4153.461426,4120.769043,4501.794922,4398.717773,4360.000000,4436.794922,0.000000,0.000000,13.000000,,,,0.000000,4.000000,4.000000,4.000000,4.000000,4.000000,4.000000,4.000000,4.000000,4.000000,4.000000,4.000000,4.000000,4.000000,4.000000,100.000000,,,,,,,,,,,,,,,,,,,,,,,,,,,,,,,,,,,,,,,,,,,,,,,,,,,,,,,,,,,,,,,,,,,,,,,,,,,,,,,,,,,,,,,,,,,,,,,,,,,,,,,,,,,,,,,,,,,,,,,,,,,,,,,,,
1739355662.918019,1739355662.918485,43.000000,0.000000,4189.230957,4167.948730,4239.102539,4152.051270,4151.666504,4136.025879,4127.307617,4283.589844,4146.666504,4099.871582,4483.461426,4381.794922,4347.948730,4422.179688,0.000000,0.000000,13.000000,,,,0.000000,4.000000,4.000000,4.000000,4.000000,4.000000,4.000000,4.000000,4.000000,4.000000,4.000000,4.000000,4.000000,4.000000,4.000000,100.000000,,,,,,,,,,,,,,,,,,,,,,,,,,,,,,,,,,,,,,,,,,,,,,,,,,,,,,,,,,,,,,,,,,,,,,,,,,,,,,,,,,,,,,,,,,,,,,,,,,,,,,,,,,,,,,,,,,,,,,,,,,,,,,,,,
1739355662.925827,1739355662.926394,44.000000,0.000000,4189.615234,4170.384766,4240.641113,4158.077148,4159.615234,4150.256348,4140.769043,4288.205078,4148.846191,4107.307617,4489.230957,4384.743652,4361.922852,4427.051270,0.000000,0.000000,13.000000,,,,0.000000,4.000000,4.000000,4.000000,4.000000,4.000000,4.000000,4.000000,4.000000,4.000000,4.000000,4.000000,4.000000,4.000000,4.000000,100.000000,,,,,,,,,,,,,,,,,11.000000,0.000000,0.679157,0.078613,-0.679138,0.267090,0.956660,-0.256379,0.064949,-39.581108,-31.326715,44.529716,,,,,,,,,,,,,,,,,,,,,,,,,,,,,,,,,,,,,,,,,,,,,,,,,,,,,,,,,,,,,,,,,,,,,,,,,,,,,,,,,,,,,,,,,,,,,,,,,,,,,
1739355662.933635,1739355662.934202,45.000000,0.000000,4185.641113,4169.487305,4233.974121,4156.538574,4155.000000,4150.897461,4135.641113,4283.333496,4136.922852,4101.410156,4482.307617,4375.000000,4358.589844,4421.666504,0.000000,0.000000,13.000000,,,,0.000000,4.000000,4.000000,4.000000,4.000000,4.000000,4.000000,4.000000,4.000000,4.000000,4.000000,4.000000,4.000000,4.000000,4.000000,100.000000,,,,,,,,,,,,,,,,,,,,,,,,,,,,,,,,,,,,,,,,,,,,,,,,,,,,,,,,,,,,,,,,,,,,,,,,,,,,,,,,,,,,,,,,,,,,,,,,,,,,,,,,,,,,,,,,,,,,,,,,,,,,,,,,,
1739355662.941444,1739355662.942010,46.000000,0.000000,4181.794922,4165.769043,4228.974121,4152.307617,4150.769043,4140.256348,4123.205078,4281.666504,4131.666504,4091.153809,4471.794922,4366.282227,4348.333496,4413.461426,0.000000,0.000000,13.000000,,,,0.000000,4.000000,4.000000,4.000000,4.000000,4.000000,4.000000,4.000000,4.000000,4.000000,4.000000,4.000000,4.000000,4.000000,4.000000,100.000000,,,,,,,,,,,,,,,,,,,,,,,,,,,,,,,,,,,,,,,,,,,,,,,,,,,,,,,,,,,,,,,,,,,,,,,,,,,,,,,,,,,,,,,,,,,,,,,,,,,,,,,,,,,,,,,,,,,,,,,,,,,,,,,,,
1739355662.949252,1739355662.949818,47.000000,0.000000,4189.743652,4173.717773,4237.820313,4161.666504,4154.102539,4143.974121,4127.820313,4286.025879,4141.666504,4106.538574,4481.153809,4375.897461,4357.179688,4420.641113,0.000000,0.000000,13.000000,,,,0.000000,4.000000,4.000000,4.000000,4.000000,4.000000,4.000000,4.000000,4.000000,4.000000,4.000000,4.000000,4.000000,4.000000,4.000000,100.000000,,,,,,,,,,,,,,,,,,,,,,,,,,,,,,,,,,,,,,,,,,,,,,,,,,,,,,,,,,,,,,,,,,,,,,,,,,,,,,,,,,,,,,,,,,,,,,,,,,,,,,,,,,,,,,,,,,,,,,,,,,,,,,,,,
1739355662.957060,1739355662.957526,48.000000,0.000000,4187.307617,4171.922852,4234.358887,4158.717773,4148.717773,4144.871582,4131.794922,4282.179688,4139.102539,4110.128418,4482.948730,4372.563965,4362.179688,4417.692383,0.000000,0.000000,13.000000,,,,0.000000,4.000000,4.000000,4.000000,4.000000,4.000000,4.000000,4.000000,4.000000,4.000000,4.000000,4.000000,4.000000,4.000000,4.000000,100.000000,,,,,,,,,,,,,,,,,12.000000,0.000000,0.679384,0.078857,-0.678955,0.266907,0.954706,-0.249542,0.048834,-39.722996,-31.410711,44.543411,,,,,,,,,,,,,,,,,,,,,,,,,,,,,,,,,,,,,,,,,,,,,,,,,,,,,,,,,,,,,,,,,,,,,,,,,,,,,,,,,,,,,,,,,,,,,,,,,,,,,
1739355662.964868,1739355662.965334,49.000000,0.000000,4168.205078,4153.333496,4215.769043,4136.666504,4132.820313,4127.436035,4119.358887,4278.846191,4129.230957,4087.564209,4466.538574,4353.717773,4348.974121,4398.205078,0.000000,0.000000,13.000000,,,,0.000000,4.000000,4.000000,4.000000,4.000000,4.000000,4.000000,4.000000,4.000000,4.000000,4.000000,4.000000,4.000000,4.000000,4.000000,100.000000,,,,,,,,,,,,,,,,,,,,,,,,,,,,,,,,,,,,,,,,,,,,,,,,,,,,,,,,,,,,,,,,,,,,,,,,,,,,,,,,,,,,,,,,,,,,,,,,,,,,,,,,,,,,,,,,,,,,,,,,,,,,,,,,,
1739355662.972676,1739355662.973042,50.000000,0.000000,4162.692383,4147.948730,4212.692383,4129.358887,4127.436035,4118.333496,4108.205078,4280.897461,4133.077148,4086.794922,4464.102539,4350.384766,4343.846191,4392.436035,0.000000,0.000000,13.000000,,,,0.000000,4.000000,4.000000,4.000000,4.000000,4.000000,4.000000,4.000000,4.000000,4.000000,4.000000,4.000000,4.000000,4.000000,4.000000,100.000000,,,,,,,,,,,,,,,,,,,,,,,,,,,,,,,,,,,,,,,,,,,,,,,,,,,,,,,,,,,,,,,,,,,,,,,,,,,,,,,,,,,,,,,,,,,,,,,,,,,,,,,,,,,,,,,,,,,,,,,,,,,,,,,,,
1739355662.980484,1739355662.980850,51.000000,0.000000,4174.743652,4155.128418,4223.205078,4136.410156,4136.282227,4126.922852,4110.256348,4280.512695,4143.589844,4110.256348,4477.563965,4359.743652,4360.256348,4404.102539,0.000000,0.000000,13.000000,,,,0.000000,4.000000,4.000000,4.000000,4.000000,4.000000,4.000000,4.000000,4.000000,4.000000,4.000000,4.000000,4.000000,4.000000,4.000000,100.000000,,,,,,,,,,,,,,,,,,,,,,,,,,,,,,,,,,,,,,,,,,,,,,,,,,,,,,,,,,,,,,,,,,,,,,,,,,,,,,,,,,,,,,,,,,,,,,,,,,,,,,,,,,,,,,,,,,,,,,,,,,,,,,,,,
1739355662.988292,1739355662.988558,52.000000,0.000000,4168.333496,4146.922852,4213.974121,4127.820313,4126.025879,4118.974121,4104.871582,4278.717773,4140.128418,4105.641113,4472.692383,4353.461426,4361.282227,4400.000000,0.000000,0.000000,13.000000,,,,0.000000,4.000000,4.000000,4.000000,4.000000,4.000000,4.000000,4.000000,4.000000,4.000000,4.000000,4.000000,4.000000,4.000000,4.000000,100.000000,,,,,,,,,,,,,,,,,13.000000,0.000000,0.679402,0.079224,-0.678894,0.266907,0.969845,-0.244659,0.059578,-39.700699,-31.252974,44.622406,,,,,,,,,,,,,,,,,,,,,,,,,,,,,,,,,,,,,,,,,,,,,,,,,,,,,,,,,,,,,,,,,,,,,,,,,,,,,,,,,,,,,,,,,,,,,,,,,,,,,
1739355662.996100,1739355662.996366,53.000000,0.000000,4157.179688,4136.410156,4205.128418,4116.538574,4108.717773,4103.974121,4092.435791,4277.692383,4131.538574,4086.794922,4460.128418,4343.461426,4348.077148,4388.461426,0.000000,0.000000,13.000000,,,,0.000000,4.000000,4.000000,4.000000,4.000000,4.000000,4.000000,4.000000,4.000000,4.000000,4.000000,4.000000,4.000000,4.000000,4.000000,100.000000,,,,,,,,,,,,,,,,,,,,,,,,,,,,,,,,,,,,,,,,,,,,,,,,,,,,,,,,,,,,,,,,,,,,,,,,,,,,,,,,,,,,,,,,,,,,,,,,,,,,,,,,,,,,,,,,,,,,,,,,,,,,,,,,,
1739355663.003908,1739355663.004074,54.000000,0.000000,4165.256348,4141.538574,4214.743652,4122.179688,4118.717773,4106.666504,4093.718018,4275.256348,4127.179688,4089.102539,4462.436035,4349.102539,4346.410156,4393.461426,0.000000,0.000000,13.000000,,,,0.000000,4.000000,4.000000,4.000000,4.000000,4.000000,4.000000,4.000000,4.000000,4.000000,4.000000,4.000000,4.000000,4.000000,4.000000,100.000000,,,,,,,,,,,,,,,,,,,,,,,,,,,,,,,,,,,,,,,,,,,,,,,,,,,,,,,,,,,,,,,,,,,,,,,,,,,,,,,,,,,,,,,,,,,,,,,,,,,,,,,,,,,,,,,,,,,,,,,,,,,,,,,,,
1739355663.011716,1739355663.011882,55.000000,0.000000,4160.000000,4136.410156,4211.410156,4119.358887,4123.461426,4105.641113,4093.076904,4267.563965,4111.153809,4085.256348,4453.846191,4341.153809,4337.436035,4389.102539,0.000000,0.000000,13.000000,,,,0.000000,4.000000,4.000000,4.000000,4.000000,4.000000,4.000000,4.000000,4.000000,4.000000,4.000000,4.000000,4.000000,4.000000,4.000000,100.000000,,,,,,,,,,,,,,,,,,,,,,,,,,,,,,,,,,,,,,,,,,,,,,,,,,,,,,,,,,,,,,,,,,,,,,,,,,,,,,,,,,,,,,,,,,,,,,,,,,,,,,,,,,,,,,,,,,,,,,,,,,,,,,,,,
1739355663.019524,1739355663.019590,56.000000,0.000000,4136.025879,4119.358887,4195.000000,4104.487305,4104.230957,4097.307617,4083.846191,4259.230957,4092.051270,4058.974365,4431.666504,4318.846191,4318.205078,4368.333496,0.000000,0.000000,13.000000,,,,0.000000,4.000000,4.000000,4.000000,4.000000,4.000000,4.000000,4.000000,4.000000,4.000000,4.000000,4.000000,4.000000,4.000000,4.000000,100.000000,,,,,,,,,,,,,,,,,14.000000,0.000000,0.679378,0.079224,-0.678894,0.266968,0.963497,-0.252472,0.062996,-39.547295,-31.194344,44.743496,,,,,,,,,,,,,,,,,,,,,,,,,,,,,,,,1.945705,4.228679,2.003200,1.636095,1.818182,4.239130,2.858216,1.921407,1.640023,1.633167,1.668316,1.622652,1.837800,1.555460,1.414144,17.003155,1.837322,1.743563,1.891236,1.835082,1.576587,1.063315,1.155667,1.519862,1.745253,1.456587,0.970695,0.767589,1.097699,1.569692,1.829313,1.704064,1.163491,1.514229,1.660898,0.936839,0.786190,0.661605,0.338380,0.288881,2.160094,0.525558,0.963516,1.701044,1.418051,3.356043,1.626454,2.195039,2.046733,1.891733,2.311054,2.082860,1.105539,1.749883,1.423045,2.301122,2.222531,2.411702,2.295939,2.224680,2.008530,3.087519,1.896267,1.202213,1.240785,1.386551,2.715430,1.956757,1.535120,1.652885
1739355663.027332,1739355663.027498,57.000000,0.000000,4136.794922,4124.487305,4196.025879,4106.538574,4103.077148,4103.717773,4093.846191,4263.589844,4097.436035,4054.230713,4438.461426,4321.666504,4327.436035,4370.000000,0.000000,0.000000,13.000000,,,,0.000000,4.000000,4.000000,4.000000,4.000000,4.000000,4.000000,4.000000,4.000000,4.000000,4.000000,4.000000,4.000000,4.000000,4.000000,100.000000,,,,,,,,,,,,,,,,,,,,,,,,,,,,,,,,,,,,,,,,,,,,,,,,,,,,,,,,,,,,,,,,,,,,,,,,,,,,,,,,,,,,,,,,,,,,,,,,,,,,,,,,,,,,,,,,,,,,,,,,,,,,,,,,,
1739355663.035140,1739355663.035307,58.000000,0.000000,4157.179688,4140.512695,4204.230957,4116.922852,4114.615234,4112.948730,4108.589844,4273.974121,4115.641113,4076.153809,4461.153809,4341.410156,4346.794922,4386.153809,0.000000,0.000000,13.000000,,,,0.000000,4.000000,4.000000,4.000000,4.000000,4.000000,4.000000,4.000000,4.000000,4.000000,4.000000,4.000000,4.000000,4.000000,4.000000,100.000000,,,,,,,,,,,,,,,,,,,,,,,,,,,,,,,,,,,,,,,,,,,,,,,,,,,,,,,,,,,,,,,,,,,,,,,,,,,,,,,,,,,,,,,,,,,,,,,,,,,,,,,,,,,,,,,,,,,,,,,,,,,,,,,,,
1739355663.042949,1739355663.043215,59.000000,0.000000,4156.025879,4136.794922,4202.051270,4114.230957,4102.436035,4106.410156,4099.487305,4272.051270,4115.769043,4080.641113,4458.205078,4342.051270,4333.717773,4384.230957,0.000000,0.000000,13.000000,,,,0.000000,4.000000,4.000000,4.000000,4.000000,4.000000,4.000000,4.000000,4.000000,4.000000,4.000000,4.000000,4.000000,4.000000,4.000000,100.000000,,,,,,,,,,,,,,,,,,,,,,,,,,,,,,,,,,,,,,,,,,,,,,,,,,,,,,,,,,,,,,,,,,,,,,,,,,,,,,,,,,,,,,,,,,,,,,,,,,,,,,,,,,,,,,,,,,,,,,,,,,,,,,,,,
1739355663.050757,1739355663.051023,60.000000,0.000000,4149.871582,4133.077148,4205.384766,4115.512695,4094.871826,4100.512695,4090.641113,4265.384766,4110.641113,4076.410156,4450.897461,4340.000000,4323.077148,4382.948730,0.000000,0.000000,13.000000,,,,0.000000,4.000000,4.000000,4.000000,4.000000,4.000000,4.000000,4.000000,4.000000,4.000000,4.000000,4.000000,4.000000,4.000000,4.000000,100.000000,,,,,,,,,,,,,,,,,15.000000,0.000000,0.679344,0.079102,-0.678894,0.267090,0.963497,-0.240264,0.067879,-39.475899,-31.291574,44.619148,,,,,,,,,,,,,,,,,,,,,,,,,,,,,,,,,,,,,,,,,,,,,,,,,,,,,,,,,,,,,,,,,,,,,,,,,,,,,,,,,,,,,,,,,,,,,,,,,,,,,
1739355663.058565,1739355663.058931,61.000000,0.000000,4161.538574,4141.282227,4213.077148,4124.871582,4110.769043,4106.282227,4097.436035,4267.692383,4116.282227,4087.435791,4458.333496,4350.128418,4332.692383,4392.820313,0.000000,0.000000,13.000000,,,,0.000000,4.000000,4.000000,4.000000,4.000000,4.000000,4.000000,4.000000,4.000000,4.000000,4.000000,4.000000,4.000000,4.000000,4.000000,100.000000,,,,,,,,,,,,,,,,,,,,,,,,,,,,,,,,,,,,,,,,,,,,,,,,,,,,,,,,,,,,,,,,,,,,,,,,,,,,,,,,,,,,,,,,,,,,,,,,,,,,,,,,,,,,,,,,,,,,,,,,,,,,,,,,,
1739355663.066373,1739355663.066739,62.000000,0.000000,4173.077148,4143.077148,4214.487305,4127.051270,4121.153809,4109.487305,4096.794922,4270.641113,4121.153809,4096.666504,4464.487305,4356.794922,4332.692383,4396.282227,0.000000,0.000000,13.000000,,,,0.000000,4.000000,4.000000,4.000000,4.000000,4.000000,4.000000,4.000000,4.000000,4.000000,4.000000,4.000000,4.000000,4.000000,4.000000,100.000000,,,,,,,,,,,,,,,,,,,,,,,,,,,,,,,,,,,,,,,,,,,,,,,,,,,,,,,,,,,,,,,,,,,,,,,,,,,,,,,,,,,,,,,,,,,,,,,,,,,,,,,,,,,,,,,,,,,,,,,,,,,,,,,,,
1739355663.074181,1739355663.074647,63.000000,0.000000,4169.487305,4139.230957,4212.563965,4121.282227,4112.436035,4099.230957,4081.410156,4265.897461,4119.230957,4087.307617,4461.794922,4354.615234,4323.717773,4393.205078,0.000000,0.000000,13.000000,,,,0.000000,4.000000,4.000000,4.000000,4.000000,4.000000,4.000000,4.000000,4.000000,4.000000,4.000000,4.000000,4.000000,4.000000,4.000000,100.000000,,,,,,,,,,,,,,,,,,,,,,,,,,,,,,,,,,,,,,,,,,,,,,,,,,,,,,,,,,,,,,,,,,,,,,,,,,,,,,,,,,,,,,,,,,,,,,,,,,,,,,,,,,,,,,,,,,,,,,,,,,,,,,,,,
1739355663.081989,1739355663.082456,64.000000,0.000000,4165.384766,4142.051270,4212.051270,4124.487305,4103.717773,4093.076904,4077.435791,4262.051270,4119.743652,4089.230713,4460.897461,4355.384766,4328.974121,4396.153809,5023.000000,0.000000,13.000000,,,,0.000000,4.000000,4.000000,4.000000,4.000000,4.000000,4.000000,4.000000,4.000000,4.000000,4.000000,4.000000,4.000000,4.000000,4.000000,100.000000,,,,,,,,,,,,,,,,,16.000000,0.000000,0.679325,0.079041,-0.679016,0.266846,0.951776,-0.239287,0.071786,-39.494976,-31.295752,44.507233,,,,,,,,,,,,,,,,,,,,,,,,,,,,,,,,,,,,,,,,,,,,,,,,,,,,,,,,,,,,,,,,,,,,,,,,,,,,,,,,,,,,,,,,,,,,,,,,,,,,,
1739355663.089797,1739355663.090364,65.000000,0.000000,4171.666504,4145.769043,4214.230957,4136.538574,4110.000000,4105.512695,4096.282227,4266.922852,4125.384766,4105.512695,4466.282227,4360.641113,4341.025879,4401.922852,5564.000000,0.000000,13.000000,,,,0.000000,4.000000,4.000000,4.000000,4.000000,4.000000,4.000000,4.000000,4.000000,4.000000,4.000000,4.000000,4.000000,4.000000,4.000000,100.000000,,,,,,,,,,,,,,,,,,,,,,,,,,,,,,,,,,,,,,,,,,,,,,,,,,,,,,,,,,,,,,,,,,,,,,,,,,,,,,,,,,,,,,,,,,,,,,,,,,,,,,,,,,,,,,,,,,,,,,,,,,,,,,,,,
1739355663.097605,1739355663.098172,66.000000,0.000000,4169.871582,4142.563965,4214.487305,4136.538574,4121.025879,4113.333496,4107.948730,4269.487305,4125.512695,4100.641113,4461.538574,4355.128418,4337.051270,4399.487305,5569.000000,0.000000,13.000000,,,,0.000000,4.000000,4.000000,4.000000,4.000000,4.000000,4.000000,4.000000,4.000000,4.000000,4.000000,4.000000,4.000000,4.000000,4.000000,100.000000,,,,,,,,,,,,,,,,,,,,,,,,,,,,,,,,,,,,,,,,,,,,,,,,,,,,,,,,,,,,,,,,,,,,,,,,,,,,,,,,,,,,,,,,,,,,,,,,,,,,,,,,,,,,,,,,,,,,,,,,,,,,,,,,,
1739355663.105413,1739355663.106080,67.000000,0.000000,4156.794922,4138.461426,4209.615234,4125.769043,4122.179688,4107.948730,4101.282227,4266.025879,4118.589844,4086.794922,4448.461426,4343.846191,4328.205078,4391.282227,5524.000000,0.000000,13.000000,,,,0.000000,4.000000,4.000000,4.000000,4.000000,4.000000,4.000000,4.000000,4.000000,4.000000,4.000000,4.000000,4.000000,4.000000,4.000000,100.000000,,,,,,,,,,,,,,,,,,,,,,,,,,,,,,,,,,,,,,,,,,,,,,,,,,,,,,,,,,,,,,,,,,,,,,,,,,,,,,,,,,,,,,,,,,,,,,,,,,,,,,,,,,,,,,,,,,,,,,,,,,,,,,,,,
1739355663.113221,1739355663.113888,68.000000,0.000000,4150.897461,4137.051270,4203.205078,4123.333496,4115.256348,4110.512695,4102.563965,4266.153809,4115.897461,4090.128174,4447.179688,4340.769043,4328.589844,4387.948730,5489.000000,0.000000,13.000000,,,,0.000000,4.000000,4.000000,4.000000,4.000000,4.000000,4.000000,4.000000,4.000000,4.000000,4.000000,4.000000,4.000000,4.000000,4.000000,100.000000,,,,,,,,,,,,,,,,,17.000000,0.000000,0.679619,0.079529,-0.678833,0.266418,0.967892,-0.238310,0.077646,-39.562145,-31.299509,44.573177,,,,,,,,,,,,,,,,,,,,,,,,,,,,,,,,,,,,,,,,,,,,,,,,,,,,,,,,,,,,,,,,,,,,,,,,,,,,,,,,,,,,,,,,,,,,,,,,,,,,,
1739355663.121030,1739355663.121796,69.000000,0.000000,4152.948730,4133.077148,4201.025879,4126.538574,4113.333496,4117.948730,4111.666504,4269.230957,4121.410156,4093.461426,4453.205078,4341.282227,4325.641113,4386.922852,5472.000000,0.000000,13.000000,,,,0.000000,4.000000,4.000000,4.000000,4.000000,4.000000,4.000000,4.000000,4.000000,4.000000,4.000000,4.000000,4.000000,4.000000,4.000000,100.000000,,,,,,,,,,,,,,,,,,,,,,,,,,,,,,,,,,,,,,,,,,,,,,,,,,,,,,,,,,,,,,,,,,,,,,,,,,,,,,,,,,,,,,,,,,,,,,,,,,,,,,,,,,,,,,,,,,,,,,,,,,,,,,,,,
1739355663.128837,1739355663.129605,70.000000,0.000000,4153.461426,4129.487305,4202.563965,4124.487305,4113.077148,4115.256348,4109.102539,4268.717773,4127.051270,4091.281982,4457.307617,4345.256348,4323.333496,4389.102539,5437.000000,0.000000,13.000000,,,,0.000000,4.000000,4.000000,4.000000,4.000000,4.000000,4.000000,4.000000,4.000000,4.000000,4.000000,4.000000,4.000000,4.000000,4.000000,100.000000,,,,,,,,,,,,,,,,,,,,,,,,,,,,,,,,,,,,,,,,,,,,,,,,,,,,,,,,,,,,,,,,,,,,,,,,,,,,,,,,,,,,,,,,,,,,,,,,,,,,,,,,,,,,,,,,,,,,,,,,,,,,,,,,,
1739355663.136646,1739355663.137313,71.000000,0.000000,4152.051270,4125.641113,4202.820313,4122.051270,4105.128418,4105.769043,4101.410156,4264.615234,4124.102539,4090.769287,4455.000000,4349.102539,4322.820313,4389.615234,2102.000000,0.000000,13.000000,,,,0.000000,4.000000,4.000000,4.000000,4.000000,4.000000,4.000000,4.000000,4.000000,4.000000,4.000000,4.000000,4.000000,4.000000,4.000000,100.000000,,,,,,,,,,,,,,,,,,,,,,,,,,,,,,,,,,,,,,,,,,,,,,,,,,,,,,,,,,,,,,,,,,,,,,,,,,,,,,,,,,,,,,,,,,,,,,,,,,,,,,,,,,,,,,,,,,,,,,,,,,,,,,,,,
1739355663.144454,1739355663.145121,72.000000,0.000000,4150.384766,4123.974121,4201.666504,4126.025879,4107.436035,4103.205078,4100.000000,4263.717773,4116.538574,4087.948730,4448.589844,4346.538574,4314.487305,4383.205078,5220.000000,0.000000,13.000000,,,,0.000000,4.000000,4.000000,4.000000,4.000000,4.000000,4.000000,4.000000,4.000000,4.000000,4.000000,4.000000,4.000000,4.000000,4.000000,100.000000,1.000000,25.000000,1.000000,1.000000,1.000000,1.000000,1.000000,1.000000,1.000000,4.000000,3.000000,1.000000,1.000000,1.000000,3.000000,1.000000,18.000000,0.000000,0.679702,0.079956,-0.678772,0.266235,0.969357,-0.228055,0.056648,-39.639263,-31.286224,44.615860,,,,,,,,,,,,,,,,,,,,,,,,,,,,,,,,1.811551,3.420489,2.086868,1.669144,2.081043,3.845730,2.165565,1.901422,1.571562,1.845258,1.849766,1.264701,1.913481,1.539713,1.608645,14.875164,1.488439,1.950688,1.952539,2.064356,2.000549,1.011423,1.274273,1.617938,1.847127,1.864301,1.012197,0.878468,1.137143,1.707078,2.174913,1.740283,1.357918,1.510278,1.871659,1.074669,0.827635,0.727760,0.329922,0.302506,2.153944,0.680620,1.182141,1.598349,1.592326,3.046808,1.952710,2.503700,1.899693,2.172720,2.385468,2.155097,1.231776,1.632026,1.659640,2.737720,1.798914,2.642410,2.278222,2.522572,1.524730,3.175396,1.847846,1.228965,1.430472,1.500927,2.274489,2.110398,1.540429,1.917125
1739355663.152262,1739355663.152829,73.000000,0.000000,4153.846191,4133.461426,4207.307617,4134.358887,4122.820313,4115.384766,4104.102539,4267.563965,4120.256348,4095.512939,4450.769043,4350.769043,4317.436035,4383.717773,5581.000000,0.000000,13.000000,,,,0.000000,4.000000,4.000000,4.000000,4.000000,4.000000,4.000000,4.000000,4.000000,4.000000,4.000000,4.000000,4.000000,4.000000,4.000000,100.000000,,,,,,,,,,,,,,,,,,,,,,,,,,,,,,,,,,,,,,,,,,,,,,,,,,,,,,,,,,,,,,,,,,,,,,,,,,,,,,,,,,,,,,,,,,,,,,,,,,,,,,,,,,,,,,,,,,,,,,,,,,,,,,,,,
1739355663.160070,1739355663.160737,74.000000,0.000000,4166.922852,4143.461426,4216.410156,4140.384766,4126.922852,4124.358887,4108.589844,4268.717773,4133.974121,4110.000000,4464.358887,4363.461426,4335.769043,4394.743652,4831.000000,0.000000,13.000000,,,,0.000000,4.000000,4.000000,4.000000,4.000000,4.000000,4.000000,4.000000,4.000000,4.000000,4.000000,4.000000,4.000000,4.000000,4.000000,100.000000,,,,,,,,,,,,,,,,,,,,,,,,,,,,,,,,,,,,,,,,,,,,,,,,,,,,,,,,,,,,,,,,,,,,,,,,,,,,,,,,,,,,,,,,,,,,,,,,,,,,,,,,,,,,,,,,,,,,,,,,,,,,,,,,,
1739355663.167878,1739355663.168546,75.000000,0.000000,4167.563965,4140.769043,4217.307617,4139.358887,4122.820313,4118.589844,4106.282227,4265.128418,4136.025879,4104.871582,4466.410156,4363.589844,4334.487305,4394.102539,5435.000000,0.000000,13.000000,,,,0.000000,4.000000,4.000000,4.000000,4.000000,4.000000,4.000000,4.000000,4.000000,4.000000,4.000000,4.000000,4.000000,4.000000,4.000000,100.000000,,,,,,,,,,,,,,,,,,,,,,,,,,,,,,,,,,,,,,,,,,,,,,,,,,,,,,,,,,,,,,,,,,,,,,,,,,,,,,,,,,,,,,,,,,,,,,,,,,,,,,,,,,,,,,,,,,,,,,,,,,,,,,,,,
1739355663.175686,1739355663.176454,76.000000,0.000000,4156.666504,4137.179688,4212.692383,4139.615234,4120.641113,4114.871582,4103.461426,4263.717773,4129.871582,4094.743652,4455.384766,4356.410156,4315.256348,4383.846191,5337.000000,0.000000,13.000000,,,,0.000000,4.000000,4.000000,4.000000,4.000000,4.000000,4.000000,4.000000,4.000000,4.000000,4.000000,4.000000,4.000000,4.000000,4.000000,100.000000,,,,,,,,,,,,,,,,,19.000000,0.000000,0.679599,0.080017,-0.678772,0.266479,0.958613,-0.250519,0.065438,-39.608669,-31.290936,44.704273,,,,,,,,,,,,,,,,,,,,,,,,,,,,,,,,,,,,,,,,,,,,,,,,,,,,,,,,,,,,,,,,,,,,,,,,,,,,,,,,,,,,,,,,,,,,,,,,,,,,,
1739355663.183494,1739355663.184262,77.000000,0.000000,4156.922852,4138.846191,4212.692383,4140.641113,4118.589844,4120.897461,4105.769043,4265.641113,4132.820313,4103.333496,4457.051270,4359.102539,4314.358887,4384.358887,6466.000000,0.000000,13.000000,,,,0.000000,4.000000,4.000000,4.000000,4.000000,4.000000,4.000000,4.000000,4.000000,4.000000,4.000000,4.000000,4.000000,4.000000,4.000000,100.000000,,,,,,,,,,,,,,,,,,,,,,,,,,,,,,,,,,,,,,,,,,,,,,,,,,,,,,,,,,,,,,,,,,,,,,,,,,,,,,,,,,,,,,,,,,,,,,,,,,,,,,,,,,,,,,,,,,,,,,,,,,,,,,,,,
1739355663.191302,1739355663.192071,78.000000,0.000000,4162.692383,4139.615234,4215.512695,4138.077148,4128.589844,4125.641113,4108.974121,4265.769043,4141.153809,4116.153809,4464.102539,4363.077148,4326.794922,4390.769043,4831.000000,0.000000,13.000000,,,,0.000000,4.000000,4.000000,4.000000,4.000000,4.000000,4.000000,4.000000,4.000000,4.000000,4.000000,4.000000,4.000000,4.000000,4.000000,100.000000,,,,,,,,,,,,,,,,,,,,,,,,,,,,,,,,,,,,,,,,,,,,,,,,,,,,,,,,,,,,,,,,,,,,,,,,,,,,,,,,,,,,,,,,,,,,,,,,,,,,,,,,,,,,,,,,,,,,,,,,,,,,,,,,,
1739355663.199110,1739355663.199779,79.000000,0.000000,4159.743652,4139.230957,4210.128418,4139.743652,4137.436035,4124.102539,4113.205078,4265.769043,4138.974121,4107.307617,4457.179688,4356.666504,4326.153809,4385.000000,5435.000000,0.000000,13.000000,,,,0.000000,4.000000,4.000000,4.000000,4.000000,4.000000,4.000000,4.000000,4.000000,4.000000,4.000000,4.000000,4.000000,4.000000,4.000000,100.000000,,,,,,,,,,,,,,,,,,,,,,,,,,,,,,,,,,,,,,,,,,,,,,,,,,,,,,,,,,,,,,,,,,,,,,,,,,,,,,,,,,,,,,,,,,,,,,,,,,,,,,,,,,,,,,,,,,,,,,,,,,,,,,,,,
1739355663.206918,1739355663.207587,80.000000,0.000000,4155.512695,4140.256348,4206.794922,4148.974121,4131.538574,4127.948730,4119.358887,4266.794922,4135.256348,4095.256348,4451.666504,4352.179688,4319.487305,4377.820313,5337.000000,0.000000,13.000000,,,,0.000000,4.000000,4.000000,4.000000,4.000000,4.000000,4.000000,4.000000,4.000000,4.000000,4.000000,4.000000,4.000000,4.000000,4.000000,100.000000,,,,,,,,,,,,,,,,,20.000000,0.000000,0.679798,0.080078,-0.678589,0.266418,0.966427,-0.252472,0.069344,-39.797802,-31.428509,44.783844,,,,,,,,,,,,,,,,,,,,,,,,,,,,,,,,,,,,,,,,,,,,,,,,,,,,,,,,,,,,,,,,,,,,,,,,,,,,,,,,,,,,,,,,,,,,,,,,,,,,,
1739355663.214726,1739355663.215295,81.000000,0.000000,4157.307617,4142.820313,4215.641113,4156.410156,4135.384766,4138.717773,4124.871582,4267.051270,4137.692383,4102.563965,4457.563965,4361.538574,4318.846191,4382.051270,6466.000000,0.000000,13.000000,,,,0.000000,4.000000,4.000000,4.000000,4.000000,4.000000,4.000000,4.000000,4.000000,4.000000,4.000000,4.000000,4.000000,4.000000,4.000000,100.000000,,,,,,,,,,,,,,,,,,,,,,,,,,,,,,,,,,,,,,,,,,,,,,,,,,,,,,,,,,,,,,,,,,,,,,,,,,,,,,,,,,,,,,,,,,,,,,,,,,,,,,,,,,,,,,,,,,,,,,,,,,,,,,,,,
1739355663.222535,1739355663.223102,82.000000,0.000000,4156.922852,4142.307617,4215.769043,4148.589844,4139.102539,4142.307617,4124.487305,4266.153809,4134.871582,4109.743652,4455.256348,4366.025879,4316.666504,4383.205078,4831.000000,0.000000,13.000000,,,,0.000000,4.000000,4.000000,4.000000,4.000000,4.000000,4.000000,4.000000,4.000000,4.000000,4.000000,4.000000,4.000000,4.000000,4.000000,100.000000,,,,,,,,,,,,,,,,,,,,,,,,,,,,,,,,,,,,,,,,,,,,,,,,,,,,,,,,,,,,,,,,,,,,,,,,,,,,,,,,,,,,,,,,,,,,,,,,,,,,,,,,,,,,,,,,,,,,,,,,,,,,,,,,,
1739355663.230343,1739355663.230810,83.000000,0.000000,4153.461426,4136.282227,4203.974121,4139.487305,4125.897461,4136.153809,4121.666504,4264.102539,4132.692383,4104.743652,4448.589844,4358.205078,4312.948730,4377.179688,5435.000000,0.000000,13.000000,,,,0.000000,4.000000,4.000000,4.000000,4.000000,4.000000,4.000000,4.000000,4.000000,4.000000,4.000000,4.000000,4.000000,4.000000,4.000000,100.000000,,,,,,,,,,,,,,,,,,,,,,,,,,,,,,,,,,,,,,,,,,,,,,,,,,,,,,,,,,,,,,,,,,,,,,,,,,,,,,,,,,,,,,,,,,,,,,,,,,,,,,,,,,,,,,,,,,,,,,,,,,,,,,,,,
1739355663.238151,1739355663.238718,84.000000,0.000000,4153.333496,4135.384766,4205.641113,4147.820313,4126.153809,4134.487305,4123.717773,4263.205078,4140.897461,4111.666504,4454.871582,4355.256348,4318.589844,4379.871582,5337.000000,0.000000,13.000000,,,,0.000000,4.000000,4.000000,4.000000,4.000000,4.000000,4.000000,4.000000,4.000000,4.000000,4.000000,4.000000,4.000000,4.000000,4.000000,100.000000,,,,,,,,,,,,,,,,,21.000000,0.000000,0.680086,0.080200,-0.678406,0.266113,0.973752,-0.247589,0.077646,-39.818024,-31.568991,44.888794,,,,,,,,,,,,,,,,,,,,,,,,,,,,,,,,,,,,,,,,,,,,,,,,,,,,,,,,,,,,,,,,,,,,,,,,,,,,,,,,,,,,,,,,,,,,,,,,,,,,,
1739355663.245959,1739355663.246527,85.000000,0.000000,4160.256348,4142.179688,4216.153809,4157.692383,4142.051270,4141.025879,4128.077148,4265.384766,4144.487305,4121.538574,4457.820313,4360.769043,4324.487305,4387.820313,6466.000000,0.000000,13.000000,,,,0.000000,4.000000,4.000000,4.000000,4.000000,4.000000,4.000000,4.000000,4.000000,4.000000,4.000000,4.000000,4.000000,4.000000,4.000000,100.000000,,,,,,,,,,,,,,,,,,,,,,,,,,,,,,,,,,,,,,,,,,,,,,,,,,,,,,,,,,,,,,,,,,,,,,,,,,,,,,,,,,,,,,,,,,,,,,,,,,,,,,,,,,,,,,,,,,,,,,,,,,,,,,,,,
1739355663.253767,1739355663.254435,86.000000,0.000000,4169.743652,4145.641113,4217.436035,4156.282227,4142.051270,4142.051270,4127.179688,4267.179688,4138.589844,4112.563965,4452.563965,4364.358887,4322.820313,4391.666504,4831.000000,0.000000,13.000000,,,,0.000000,4.000000,4.000000,4.000000,4.000000,4.000000,4.000000,4.000000,4.000000,4.000000,4.000000,4.000000,4.000000,4.000000,4.000000,100.000000,,,,,,,,,,,,,,,,,,,,,,,,,,,,,,,,,,,,,,,,,,,,,,,,,,,,,,,,,,,,,,,,,,,,,,,,,,,,,,,,,,,,,,,,,,,,,,,,,,,,,,,,,,,,,,,,,,,,,,,,,,,,,,,,,
1739355663.261575,1739355663.262243,87.000000,0.000000,4170.256348,4142.179688,4214.871582,4153.333496,4134.743652,4137.692383,4120.512695,4263.333496,4140.897461,4107.179688,4453.846191,4362.051270,4323.717773,4391.538574,5435.000000,0.000000,13.000000,,,,0.000000,4.000000,4.000000,4.000000,4.000000,4.000000,4.000000,4.000000,4.000000,4.000000,4.000000,4.000000,4.000000,4.000000,4.000000,100.000000,,,,,,,,,,,,,,,,,,,,,,,,,,,,,,,,,,,,,,,,,,,,,,,,,,,,,,,,,,,,,,,,,,,,,,,,,,,,,,,,,,,,,,,,,,,,,,,,,,,,,,,,,,,,,,,,,,,,,,,,,,,,,,,,,
1739355663.269383,1739355663.270151,88.000000,0.000000,4162.820313,4135.000000,4213.589844,4154.102539,4135.128418,4140.897461,4123.846191,4261.025879,4143.974121,4110.000000,4457.436035,4359.615234,4326.666504,4389.743652,5337.000000,0.000000,13.000000,,,,0.000000,4.000000,4.000000,4.000000,4.000000,4.000000,4.000000,4.000000,4.000000,4.000000,4.000000,4.000000,4.000000,4.000000,4.000000,100.000000,,,,,,,,,,,,,,,,,22.000000,0.000000,0.680445,0.080322,-0.678223,0.265625,0.963985,-0.238799,0.076670,-39.786221,-31.445425,44.733250,,,,,,,,,,,,,,,,,,,,,,,,,,,,,,,,1.713699,2.650222,2.065928,1.653669,2.237131,3.310675,1.573698,1.803934,1.460799,1.984405,2.058823,0.953971,1.834136,1.452771,1.738155,11.292064,1.134613,1.993244,1.907732,2.195002,2.411387,0.904361,1.305400,1.595178,1.866965,2.333763,1.008528,0.916527,1.080885,1.755791,2.669674,1.673706,1.423756,1.400138,1.987137,1.105875,0.764400,0.705729,0.296111,0.304045,2.102641,0.984550,1.458962,1.420123,1.695678,2.653744,2.466030,2.842474,1.737310,2.379168,2.351384,2.267852,1.368275,1.467793,1.836908,3.110689,1.575732,2.756488,2.173465,2.703707,1.464547,3.219982,1.859426,1.221454,1.571105,1.614822,1.946529,2.172933,1.488654,2.110798
1739355663.277191,1739355663.277959,89.000000,0.000000,4165.000000,4137.179688,4215.512695,4160.384766,4142.692383,4153.077148,4140.897461,4266.666504,4142.948730,4113.461426,4460.128418,4364.230957,4329.871582,4393.461426,6466.000000,0.000000,13.000000,,,,0.000000,4.000000,4.000000,4.000000,4.000000,4.000000,4.000000,4.000000,4.000000,4.000000,4.000000,4.000000,4.000000,4.000000,4.000000,100.000000,,,,,,,,,,,,,,,,,,,,,,,,,,,,,,,,,,,,,,,,,,,,,,,,,,,,,,,,,,,,,,,,,,,,,,,,,,,,,,,,,,,,,,,,,,,,,,,,,,,,,,,,,,,,,,,,,,,,,,,,,,,,,,,,,
1739355663.284999,1739355663.285867,90.000000,0.000000,4168.205078,4144.230957,4216.153809,4168.333496,4151.153809,4158.717773,4147.179688,4268.589844,4143.974121,4116.922852,4461.282227,4364.230957,4323.846191,4395.000000,4831.000000,0.000000,13.000000,,,,0.000000,4.000000,4.000000,4.000000,4.000000,4.000000,4.000000,4.000000,4.000000,4.000000,4.000000,4.000000,4.000000,4.000000,4.000000,100.000000,,,,,,,,,,,,,,,,,,,,,,,,,,,,,,,,,,,,,,,,,,,,,,,,,,,,,,,,,,,,,,,,,,,,,,,,,,,,,,,,,,,,,,,,,,,,,,,,,,,,,,,,,,,,,,,,,,,,,,,,,,,,,,,,,
1739355663.292807,1739355663.293776,91.000000,0.000000,4158.205078,4139.230957,4211.282227,4166.410156,4150.769043,4154.358887,4138.717773,4262.820313,4141.410156,4113.974121,4455.256348,4352.563965,4310.769043,4384.871582,5435.000000,0.000000,13.000000,,,,0.000000,4.000000,4.000000,4.000000,4.000000,4.000000,4.000000,4.000000,4.000000,4.000000,4.000000,4.000000,4.000000,4.000000,4.000000,100.000000,,,,,,,,,,,,,,,,,,,,,,,,,,,,,,,,,,,,,,,,,,,,,,,,,,,,,,,,,,,,,,,,,,,,,,,,,,,,,,,,,,,,,,,,,,,,,,,,,,,,,,,,,,,,,,,,,,,,,,,,,,,,,,,,,
1739355663.300615,1739355663.301585,92.000000,0.000000,4162.436035,4141.922852,4215.128418,4168.333496,4155.128418,4158.205078,4143.461426,4265.769043,4144.743652,4119.358887,4459.615234,4359.871582,4317.307617,4390.641113,5337.000000,0.000000,13.000000,,,,0.000000,4.000000,4.000000,4.000000,4.000000,4.000000,4.000000,4.000000,4.000000,4.000000,4.000000,4.000000,4.000000,4.000000,4.000000,100.000000,,,,,,,,,,,,,,,,,23.000000,0.000000,0.680547,0.080383,-0.678162,0.265503,0.966915,-0.235869,0.078135,-39.774265,-31.400883,44.559925,,,,,,,,,,,,,,,,,,,,,,,,,,,,,,,,,,,,,,,,,,,,,,,,,,,,,,,,,,,,,,,,,,,,,,,,,,,,,,,,,,,,,,,,,,,,,,,,,,,,,
1739355663.308423,1739355663.309393,93.000000,0.000000,4169.102539,4147.820313,4217.820313,4171.538574,4156.410156,4157.820313,4141.410156,4268.077148,4142.692383,4120.512695,4464.615234,4367.820313,4319.743652,4398.461426,6466.000000,0.000000,13.000000,,,,0.000000,4.000000,4.000000,4.000000,4.000000,4.000000,4.000000,4.000000,4.000000,4.000000,4.000000,4.000000,4.000000,4.000000,4.000000,100.000000,,,,,,,,,,,,,,,,,,,,,,,,,,,,,,,,,,,,,,,,,,,,,,,,,,,,,,,,,,,,,,,,,,,,,,,,,,,,,,,,,,,,,,,,,,,,,,,,,,,,,,,,,,,,,,,,,,,,,,,,,,,,,,,,,
1739355663.316232,1739355663.317301,94.000000,0.000000,4161.922852,4145.897461,4215.256348,4167.051270,4144.743652,4148.589844,4125.256348,4260.256348,4135.256348,4111.922852,4459.102539,4357.948730,4305.641113,4387.820313,4831.000000,0.000000,13.000000,,,,0.000000,4.000000,4.000000,4.000000,4.000000,4.000000,4.000000,4.000000,4.000000,4.000000,4.000000,4.000000,4.000000,4.000000,4.000000,100.000000,,,,,,,,,,,,,,,,,,,,,,,,,,,,,,,,,,,,,,,,,,,,,,,,,,,,,,,,,,,,,,,,,,,,,,,,,,,,,,,,,,,,,,,,,,,,,,,,,,,,,,,,,,,,,,,,,,,,,,,,,,,,,,,,,
1739355663.324040,1739355663.325110,95.000000,0.000000,4174.615234,4155.897461,4230.512695,4180.000000,4147.436035,4158.077148,4134.102539,4262.051270,4151.794922,4127.051270,4470.384766,4372.563965,4315.128418,4398.077148,5435.000000,0.000000,13.000000,,,,0.000000,4.000000,4.000000,4.000000,4.000000,4.000000,4.000000,4.000000,4.000000,4.000000,4.000000,4.000000,4.000000,4.000000,4.000000,100.000000,,,,,,,,,,,,,,,,,,,,,,,,,,,,,,,,,,,,,,,,,,,,,,,,,,,,,,,,,,,,,,,,,,,,,,,,,,,,,,,,,,,,,,,,,,,,,,,,,,,,,,,,,,,,,,,,,,,,,,,,,,,,,,,,,
1739355663.331848,1739355663.332818,96.000000,0.000000,4188.717773,4165.769043,4240.897461,4190.384766,4157.692383,4165.256348,4144.871582,4268.461426,4165.512695,4140.128418,4482.692383,4391.153809,4330.512695,4416.666504,5337.000000,0.000000,13.000000,,,,0.000000,4.000000,4.000000,4.000000,4.000000,4.000000,4.000000,4.000000,4.000000,4.000000,4.000000,4.000000,4.000000,4.000000,4.000000,100.000000,,,,,,,,,,,,,,,,,24.000000,0.000000,0.680780,0.080444,-0.678040,0.265198,0.972287,-0.226590,0.070809,-39.730171,-31.227461,44.487263,,,,,,,,,,,,,,,,,,,,,,,,,,,,,,,,,,,,,,,,,,,,,,,,,,,,,,,,,,,,,,,,,,,,,,,,,,,,,,,,,,,,,,,,,,,,,,,,,,,,,
