title:Yousef Rihani1739354417057, start timestamp:1739354418.559490, stop timestamp:1739354481.445740, headset type:EPOCX, headset serial:E50208A5, headset firmware:720, channels:168, sampling rate:eeg_128;mot_32;pm_0.1;pow_8, samples:8055      , version:2.2, 
Timestamp,OriginalTimestamp,EEG.Counter,EEG.Interpolated,EEG.AF3,EEG.F7,EEG.F3,EEG.FC5,EEG.T7,EEG.P7,EEG.O1,EEG.O2,EEG.P8,EEG.T8,EEG.FC6,EEG.F4,EEG.F8,EEG.AF4,EEG.RawCq,EEG.Battery,EEG.BatteryPercent,MarkerIndex,MarkerType,MarkerValueInt,EEG.MarkerHardware,CQ.AF3,CQ.F7,CQ.F3,CQ.FC5,CQ.T7,CQ.P7,CQ.O1,CQ.O2,CQ.P8,CQ.T8,CQ.FC6,CQ.F4,CQ.F8,CQ.AF4,CQ.Overall,EQ.SampleRateQuality,EQ.OVERALL,EQ.AF3,EQ.F7,EQ.F3,EQ.FC5,EQ.T7,EQ.P7,EQ.O1,EQ.O2,EQ.P8,EQ.T8,EQ.FC6,EQ.F4,EQ.F8,EQ.AF4,MOT.CounterMems,MOT.InterpolatedMems,MOT.Q0,MOT.Q1,MOT.Q2,MOT.Q3,MOT.AccX,MOT.AccY,MOT.AccZ,MOT.MagX,MOT.MagY,MOT.MagZ,PM.Attention.IsActive,PM.Attention.Scaled,PM.Attention.Raw,PM.Attention.Min,PM.Attention.Max,PM.Engagement.IsActive,PM.Engagement.Scaled,PM.Engagement.Raw,PM.Engagement.Min,PM.Engagement.Max,PM.Excitement.IsActive,PM.Excitement.Scaled,PM.Excitement.Raw,PM.Excitement.Min,PM.Excitement.Max,PM.LongTermExcitement,PM.Stress.IsActive,PM.Stress.Scaled,PM.Stress.Raw,PM.Stress.Min,PM.Stress.Max,PM.Relaxation.IsActive,PM.Relaxation.Scaled,PM.Relaxation.Raw,PM.Relaxation.Min,PM.Relaxation.Max,PM.Interest.IsActive,PM.Interest.Scaled,PM.Interest.Raw,PM.Interest.Min,PM.Interest.Max,POW.AF3.Theta,POW.AF3.Alpha,POW.AF3.BetaL,POW.AF3.BetaH,POW.AF3.Gamma,POW.F7.Theta,POW.F7.Alpha,POW.F7.BetaL,POW.F7.BetaH,POW.F7.Gamma,POW.F3.Theta,POW.F3.Alpha,POW.F3.BetaL,POW.F3.BetaH,POW.F3.Gamma,POW.FC5.Theta,POW.FC5.Alpha,POW.FC5.BetaL,POW.FC5.BetaH,POW.FC5.Gamma,POW.T7.Theta,POW.T7.Alpha,POW.T7.BetaL,POW.T7.BetaH,POW.T7.Gamma,POW.P7.Theta,POW.P7.Alpha,POW.P7.BetaL,POW.P7.BetaH,POW.P7.Gamma,POW.O1.Theta,POW.O1.Alpha,POW.O1.BetaL,POW.O1.BetaH,POW.O1.Gamma,POW.O2.Theta,POW.O2.Alpha,POW.O2.BetaL,POW.O2.BetaH,POW.O2.Gamma,POW.P8.Theta,POW.P8.Alpha,POW.P8.BetaL,POW.P8.BetaH,POW.P8.Gamma,POW.T8.Theta,POW.T8.Alpha,POW.T8.BetaL,POW.T8.BetaH,POW.T8.Gamma,POW.FC6.Theta,POW.FC6.Alpha,POW.FC6.BetaL,POW.FC6.BetaH,POW.FC6.Gamma,POW.F4.Theta,POW.F4.Alpha,POW.F4.BetaL,POW.F4.BetaH,POW.F4.Gamma,POW.F8.Theta,POW.F8.Alpha,POW.F8.BetaL,POW.F8.BetaH,POW.F8.Gamma,POW.AF4.Theta,POW.AF4.Alpha,POW.AF4.BetaL,POW.AF4.BetaH,POW.AF4.Gamma
1739354418.559490,1739354418.559630,35.000000,0.000000,4140.256348,4195.384766,4258.077148,3850.769287,4223.333496,4223.717773,4155.128418,4198.461426,4156.538574,4188.205078,3822.051270,4409.358887,4253.077148,4294.102539,0.000000,1.000000,17.000000,,,,0.000000,4.000000,4.000000,4.000000,4.000000,4.000000,4.000000,4.000000,4.000000,4.000000,4.000000,4.000000,4.000000,4.000000,4.000000,100.000000,,,,,,,,,,,,,,,,,,,,,,,,,,,,,,,,,,,,,,,,,,,,,,,,,,,,,,,,,,,,,,,,,,,,,,,,,,,,,,,,,,,,,,,,,,,,,,,,,,,,,,,,,,,,,,,,,,,,,,,,,,,,,,,,,
1739354418.567298,1739354418.567538,36.000000,0.000000,4151.794922,4202.436035,4279.871582,3812.051270,4230.384766,4246.538574,4189.615234,4192.307617,4163.077148,4186.410156,3852.179443,4423.717773,4266.153809,4303.974121,0.000000,1.000000,17.000000,,,,0.000000,4.000000,4.000000,4.000000,4.000000,4.000000,4.000000,4.000000,4.000000,4.000000,4.000000,4.000000,4.000000,4.000000,4.000000,100.000000,,,,,,,,,,,,,,,,,9.000000,0.000000,0.311009,0.534668,-0.457031,0.639160,0.956171,-0.268099,0.014162,-39.959602,-28.310614,43.581165,,,,,,,,,,,,,,,,,,,,,,,,,,,,,,,,,,,,,,,,,,,,,,,,,,,,,,,,,,,,,,,,,,,,,,,,,,,,,,,,,,,,,,,,,,,,,,,,,,,,,
1739354418.575106,1739354418.575346,37.000000,0.000000,4113.974121,4183.846191,4245.384766,3815.256348,4201.666504,4226.922852,4166.025879,4185.384766,4137.436035,4152.692383,3829.743652,4384.615234,4245.384766,4269.871582,0.000000,1.000000,17.000000,,,,0.000000,4.000000,4.000000,4.000000,4.000000,4.000000,4.000000,4.000000,4.000000,4.000000,4.000000,4.000000,4.000000,4.000000,4.000000,100.000000,,,,,,,,,,,,,,,,,,,,,,,,,,,,,,,,,,,,,,,,,,,,,,,,,,,,,,,,,,,,,,,,,,,,,,,,,,,,,,,,,,,,,,,,,,,,,,,,,,,,,,,,,,,,,,,,,,,,,,,,,,,,,,,,,
1739354418.582914,1739354418.583254,38.000000,0.000000,4102.820313,4179.743652,4231.922852,3852.307617,4197.436035,4207.563965,4145.897461,4200.512695,4126.025879,4144.487305,3807.692383,4373.974121,4239.743652,4260.512695,0.000000,1.000000,17.000000,,,,0.000000,4.000000,4.000000,4.000000,4.000000,4.000000,4.000000,4.000000,4.000000,4.000000,4.000000,4.000000,4.000000,4.000000,4.000000,100.000000,,,,,,,,,,,,,,,,,,,,,,,,,,,,,,,,,,,,,,,,,,,,,,,,,,,,,,,,,,,,,,,,,,,,,,,,,,,,,,,,,,,,,,,,,,,,,,,,,,,,,,,,,,,,,,,,,,,,,,,,,,,,,,,,,
1739354418.590722,1739354418.591063,39.000000,0.000000,4140.512695,4203.461426,4269.487305,3842.564209,4213.974121,4235.512695,4179.230957,4218.717773,4147.436035,4167.436035,3861.153809,4414.102539,4274.102539,4298.205078,0.000000,1.000000,17.000000,,,,0.000000,4.000000,4.000000,4.000000,4.000000,4.000000,4.000000,4.000000,4.000000,4.000000,4.000000,4.000000,4.000000,4.000000,4.000000,100.000000,,,,,,,,,,,,,,,,,,,,,,,,,,,,,,,,,,,,,,,,,,,,,,,,,,,,,,,,,,,,,,,,,,,,,,,,,,,,,,,,,,,,,,,,,,,,,,,,,,,,,,,,,,,,,,,,,,,,,,,,,,,,,,,,,
1739354418.598530,1739354418.598971,40.000000,0.000000,4149.102539,4206.282227,4276.282227,3827.307617,4218.077148,4255.641113,4191.666504,4221.153809,4157.051270,4179.743652,3919.230713,4422.307617,4286.666504,4312.820313,0.000000,1.000000,17.000000,,,,0.000000,4.000000,4.000000,4.000000,4.000000,4.000000,4.000000,4.000000,4.000000,4.000000,4.000000,4.000000,4.000000,4.000000,4.000000,100.000000,,,,,,,,,,,,,,,,,10.000000,0.000000,0.310118,0.534058,-0.458008,0.639404,0.946405,-0.250031,0.019045,-40.063641,-28.362885,43.489716,,,,,,,,,,,,,,,,,,,,,,,,,,,,,,,,,,,,,,,,,,,,,,,,,,,,,,,,,,,,,,,,,,,,,,,,,,,,,,,,,,,,,,,,,,,,,,,,,,,,,
1739354418.606338,1739354418.606779,41.000000,0.000000,4125.512695,4197.820313,4249.615234,3829.487061,4215.512695,4235.897461,4164.358887,4216.922852,4144.358887,4164.615234,3922.948730,4391.666504,4260.256348,4289.102539,0.000000,1.000000,17.000000,,,,0.000000,4.000000,4.000000,4.000000,4.000000,4.000000,4.000000,4.000000,4.000000,4.000000,4.000000,4.000000,4.000000,4.000000,4.000000,100.000000,,,,,,,,,,,,,,,,,,,,,,,,,,,,,,,,,,,,,,,,,,,,,,,,,,,,,,,,,,,,,,,,,,,,,,,,,,,,,,,,,,,,,,,,,,,,,,,,,,,,,,,,,,,,,,,,,,,,,,,,,,,,,,,,,
1739354418.614146,1739354418.614687,42.000000,0.000000,4109.487305,4189.358887,4231.922852,3807.564209,4194.743652,4205.000000,4147.051270,4205.641113,4133.974121,4142.179688,3919.358887,4365.512695,4236.922852,4266.666504,0.000000,1.000000,17.000000,,,,0.000000,4.000000,4.000000,4.000000,4.000000,4.000000,4.000000,4.000000,4.000000,4.000000,4.000000,4.000000,4.000000,4.000000,4.000000,100.000000,,,,,,,,,,,,,,,,,,,,,,,,,,,,,,,,,,,,,,,,,,,,,,,,,,,,,,,,,,,,2.205715,2.232765,4.297244,1.608457,4.154957,1.812340,3.493886,2.944669,1.922998,3.626828,2.092157,1.788194,3.358760,1.234472,3.859963,51.395542,5.362176,3.498929,4.044514,6.562576,1.508072,1.905631,1.716351,1.560200,3.584602,1.058731,0.774195,0.811051,1.175863,3.878922,1.210049,0.993752,1.692045,0.999803,4.898275,0.342721,0.225511,0.759938,0.251020,1.257565,1.390174,1.188859,4.311553,1.297798,4.664160,3.621980,2.618898,5.982975,3.518128,5.938356,81.295898,27.335730,20.974945,6.763361,6.737153,3.818825,2.432667,5.831272,1.849575,6.156314,4.495445,1.674042,4.600669,2.064773,4.029606,1.773077,1.826988,3.880956,1.525531,3.862133
1739354418.621954,1739354418.622495,43.000000,0.000000,4110.384766,4184.230957,4234.743652,3794.615479,4182.436035,4200.384766,4158.717773,4198.589844,4143.589844,4157.563965,3960.256348,4366.794922,4257.820313,4274.102539,0.000000,1.000000,17.000000,,,,0.000000,4.000000,4.000000,4.000000,4.000000,4.000000,4.000000,4.000000,4.000000,4.000000,4.000000,4.000000,4.000000,4.000000,4.000000,100.000000,,,,,,,,,,,,,,,,,,,,,,,,,,,,,,,,,,,,,,,,,,,,,,,,,,,,,,,,,,,,,,,,,,,,,,,,,,,,,,,,,,,,,,,,,,,,,,,,,,,,,,,,,,,,,,,,,,,,,,,,,,,,,,,,,
1739354418.629762,1739354418.630403,44.000000,0.000000,4133.589844,4196.410156,4259.615234,3837.948730,4196.025879,4225.384766,4182.051270,4209.358887,4155.256348,4202.563965,4011.025635,4400.000000,4297.563965,4303.589844,0.000000,1.000000,17.000000,,,,0.000000,4.000000,4.000000,4.000000,4.000000,4.000000,4.000000,4.000000,4.000000,4.000000,4.000000,4.000000,4.000000,4.000000,4.000000,100.000000,,,,,,,,,,,,,,,,,11.000000,0.000000,0.309616,0.533386,-0.458618,0.639771,0.966427,-0.246612,0.013185,-39.973946,-28.343264,43.507412,,,,,,,,,,,,,,,,,,,,,,,,,,,,,,,,,,,,,,,,,,,,,,,,,,,,,,,,,,,,,,,,,,,,,,,,,,,,,,,,,,,,,,,,,,,,,,,,,,,,,
1739354418.637571,1739354418.638211,45.000000,0.000000,4146.538574,4198.461426,4272.563965,3832.820557,4192.179688,4236.153809,4177.179688,4212.436035,4148.974121,4195.641113,4013.718018,4414.871582,4298.717773,4309.615234,0.000000,1.000000,17.000000,,,,0.000000,4.000000,4.000000,4.000000,4.000000,4.000000,4.000000,4.000000,4.000000,4.000000,4.000000,4.000000,4.000000,4.000000,4.000000,100.000000,,,,,,,,,,,,,,,,,,,,,,,,,,,,,,,,,,,,,,,,,,,,,,,,,,,,,,,,,,,,,,,,,,,,,,,,,,,,,,,,,,,,,,,,,,,,,,,,,,,,,,,,,,,,,,,,,,,,,,,,,,,,,,,,,
1739354418.645378,1739354418.646119,46.000000,0.000000,4108.205078,4178.077148,4237.948730,3775.384521,4174.615234,4210.000000,4132.436035,4194.487305,4123.077148,4133.461426,3964.358887,4372.179688,4257.820313,4275.384766,0.000000,1.000000,17.000000,,,,0.000000,4.000000,4.000000,4.000000,4.000000,4.000000,4.000000,4.000000,4.000000,4.000000,4.000000,4.000000,4.000000,4.000000,4.000000,100.000000,,,,,,,,,,,,,,,,,,,,,,,,,,,,,,,,,,,,,,,,,,,,,,,,,,,,,,,,,,,,,,,,,,,,,,,,,,,,,,,,,,,,,,,,,,,,,,,,,,,,,,,,,,,,,,,,,,,,,,,,,,,,,,,,,
1739354418.653187,1739354418.653927,47.000000,0.000000,4087.307617,4170.512695,4217.692383,3780.897461,4185.256348,4199.487305,4121.666504,4197.051270,4118.077148,4128.846191,3948.718018,4353.333496,4252.179688,4263.333496,0.000000,1.000000,17.000000,,,,0.000000,4.000000,4.000000,4.000000,4.000000,4.000000,4.000000,4.000000,4.000000,4.000000,4.000000,4.000000,4.000000,4.000000,4.000000,100.000000,,,,,,,,,,,,,,,,,,,,,,,,,,,,,,,,,,,,,,,,,,,,,,,,,,,,,,,,,,,,,,,,,,,,,,,,,,,,,,,,,,,,,,,,,,,,,,,,,,,,,,,,,,,,,,,,,,,,,,,,,,,,,,,,,
1739354418.660995,1739354418.661835,48.000000,0.000000,4116.025879,4185.769043,4243.333496,3796.153809,4192.820313,4213.974121,4164.230957,4221.282227,4142.948730,4171.410156,3981.666748,4390.384766,4281.410156,4290.384766,0.000000,1.000000,17.000000,,,,0.000000,4.000000,4.000000,4.000000,4.000000,4.000000,4.000000,4.000000,4.000000,4.000000,4.000000,4.000000,4.000000,4.000000,4.000000,100.000000,,,,,,,,,,,,,,,,,12.000000,0.000000,0.309177,0.532593,-0.458984,0.640381,0.963985,-0.247100,0.005372,-40.043217,-28.475603,43.540005,,,,,,,,,,,,,,,,,,,,,,,,,,,,,,,,,,,,,,,,,,,,,,,,,,,,,,,,,,,,,,,,,,,,,,,,,,,,,,,,,,,,,,,,,,,,,,,,,,,,,
1739354418.668803,1739354418.669643,49.000000,0.000000,4132.179688,4176.922852,4264.358887,3765.769287,4166.282227,4222.179688,4195.000000,4228.974121,4152.820313,4163.077148,3962.307617,4415.897461,4275.897461,4304.743652,0.000000,1.000000,17.000000,,,,0.000000,4.000000,4.000000,4.000000,4.000000,4.000000,4.000000,4.000000,4.000000,4.000000,4.000000,4.000000,4.000000,4.000000,4.000000,100.000000,,,,,,,,,,,,,,,,,,,,,,,,,,,,,,,,,,,,,,,,,,,,,,,,,,,,,,,,,,,,,,,,,,,,,,,,,,,,,,,,,,,,,,,,,,,,,,,,,,,,,,,,,,,,,,,,,,,,,,,,,,,,,,,,,
1739354418.676611,1739354418.677351,50.000000,0.000000,4122.307617,4163.717773,4261.025879,3767.435791,4168.974121,4233.589844,4189.615234,4221.794922,4146.410156,4140.512695,3926.410156,4403.205078,4264.871582,4298.333496,0.000000,1.000000,17.000000,,,,0.000000,4.000000,4.000000,4.000000,4.000000,4.000000,4.000000,4.000000,4.000000,4.000000,4.000000,4.000000,4.000000,4.000000,4.000000,100.000000,,,,,,,,,,,,,,,,,,,,,,,,,,,,,,,,,,,,,,,,,,,,,,,,,,,,,,,,,,,,,,,,,,,,,,,,,,,,,,,,,,,,,,,,,,,,,,,,,,,,,,,,,,,,,,,,,,,,,,,,,,,,,,,,,
1739354418.684419,1739354418.685159,51.000000,0.000000,4093.718018,4158.717773,4232.436035,3777.820557,4174.102539,4218.974121,4149.743652,4207.563965,4120.512695,4137.820313,3917.435791,4364.358887,4254.102539,4274.102539,0.000000,1.000000,17.000000,,,,0.000000,4.000000,4.000000,4.000000,4.000000,4.000000,4.000000,4.000000,4.000000,4.000000,4.000000,4.000000,4.000000,4.000000,4.000000,100.000000,,,,,,,,,,,,,,,,,,,,,,,,,,,,,,,,,,,,,,,,,,,,,,,,,,,,,,,,,,,,,,,,,,,,,,,,,,,,,,,,,,,,,,,,,,,,,,,,,,,,,,,,,,,,,,,,,,,,,,,,,,,,,,,,,
1739354418.692227,1739354418.692867,52.000000,0.000000,4081.923096,4153.974121,4220.000000,3765.641113,4151.922852,4181.410156,4120.641113,4200.897461,4099.871582,4120.000000,3897.435791,4351.794922,4236.153809,4259.102539,0.000000,1.000000,17.000000,,,,0.000000,4.000000,4.000000,4.000000,4.000000,4.000000,4.000000,4.000000,4.000000,4.000000,4.000000,4.000000,4.000000,4.000000,4.000000,100.000000,,,,,,,,,,,,,,,,,13.000000,0.000000,0.308377,0.531860,-0.458923,0.641418,0.960566,-0.265657,0.010743,-40.188896,-28.344709,43.569336,,,,,,,,,,,,,,,,,,,,,,,,,,,,,,,,,,,,,,,,,,,,,,,,,,,,,,,,,,,,,,,,,,,,,,,,,,,,,,,,,,,,,,,,,,,,,,,,,,,,,
1739354418.700035,1739354418.700775,53.000000,0.000000,4120.897461,4172.307617,4261.025879,3773.333252,4162.051270,4198.077148,4156.794922,4215.256348,4132.692383,4131.025879,3884.230713,4400.769043,4257.436035,4291.282227,0.000000,1.000000,17.000000,,,,0.000000,4.000000,4.000000,4.000000,4.000000,4.000000,4.000000,4.000000,4.000000,4.000000,4.000000,4.000000,4.000000,4.000000,4.000000,100.000000,,,,,,,,,,,,,,,,,,,,,,,,,,,,,,,,,,,,,,,,,,,,,,,,,,,,,,,,,,,,,,,,,,,,,,,,,,,,,,,,,,,,,,,,,,,,,,,,,,,,,,,,,,,,,,,,,,,,,,,,,,,,,,,,,
1739354418.707843,1739354418.708583,54.000000,0.000000,4137.179688,4182.307617,4277.948730,3771.025635,4188.205078,4229.615234,4183.461426,4217.563965,4159.743652,4170.769043,3890.897461,4418.846191,4279.358887,4308.974121,0.000000,1.000000,17.000000,,,,0.000000,4.000000,4.000000,4.000000,4.000000,4.000000,4.000000,4.000000,4.000000,4.000000,4.000000,4.000000,4.000000,4.000000,4.000000,100.000000,,,,,,,,,,,,,,,,,,,,,,,,,,,,,,,,,,,,,,,,,,,,,,,,,,,,,,,,,,,,,,,,,,,,,,,,,,,,,,,,,,,,,,,,,,,,,,,,,,,,,,,,,,,,,,,,,,,,,,,,,,,,,,,,,
1739354418.715651,1739354418.716491,55.000000,0.000000,4099.871582,4158.717773,4241.153809,3765.256348,4173.974121,4206.922852,4150.256348,4204.871582,4129.487305,4137.436035,3868.846191,4375.000000,4250.897461,4279.102539,0.000000,1.000000,17.000000,,,,0.000000,4.000000,4.000000,4.000000,4.000000,4.000000,4.000000,4.000000,4.000000,4.000000,4.000000,4.000000,4.000000,4.000000,4.000000,100.000000,,,,,,,,,,,,,,,,,,,,,,,,,,,,,,,,,,,,,,,,,,,,,,,,,,,,,,,,,,,,,,,,,,,,,,,,,,,,,,,,,,,,,,,,,,,,,,,,,,,,,,,,,,,,,,,,,,,,,,,,,,,,,,,,,
1739354418.723459,1739354418.724299,56.000000,0.000000,4090.384521,4146.282227,4236.666504,3778.718018,4155.769043,4192.179688,4135.256348,4209.615234,4119.615234,4094.102539,3837.435791,4372.179688,4236.410156,4268.974121,0.000000,1.000000,17.000000,,,,0.000000,4.000000,4.000000,4.000000,4.000000,4.000000,4.000000,4.000000,4.000000,4.000000,4.000000,4.000000,4.000000,4.000000,4.000000,100.000000,,,,,,,,,,,,,,,,,14.000000,0.000000,0.308116,0.531433,-0.458740,0.642029,0.952753,-0.273959,0.016604,-40.203339,-28.410238,43.629070,,,,,,,,,,,,,,,,,,,,,,,,,,,,,,,,,,,,,,,,,,,,,,,,,,,,,,,,,,,,,,,,,,,,,,,,,,,,,,,,,,,,,,,,,,,,,,,,,,,,,
1739354418.731267,1739354418.732108,57.000000,0.000000,4110.769043,4156.282227,4258.077148,3759.102539,4157.179688,4205.256348,4158.077148,4222.692383,4145.384766,4139.102539,3856.666748,4398.589844,4264.871582,4285.000000,0.000000,1.000000,17.000000,,,,0.000000,4.000000,4.000000,4.000000,4.000000,4.000000,4.000000,4.000000,4.000000,4.000000,4.000000,4.000000,4.000000,4.000000,4.000000,100.000000,,,,,,,,,,,,,,,,,,,,,,,,,,,,,,,,,,,,,,,,,,,,,,,,,,,,,,,,,,,,,,,,,,,,,,,,,,,,,,,,,,,,,,,,,,,,,,,,,,,,,,,,,,,,,,,,,,,,,,,,,,,,,,,,,
1739354418.739076,1739354418.739816,58.000000,0.000000,4110.512695,4158.846191,4255.897461,3733.205078,4155.000000,4201.666504,4172.179688,4225.769043,4143.974121,4179.230957,3884.871826,4395.384766,4278.974121,4288.717773,0.000000,1.000000,17.000000,,,,0.000000,4.000000,4.000000,4.000000,4.000000,4.000000,4.000000,4.000000,4.000000,4.000000,4.000000,4.000000,4.000000,4.000000,4.000000,100.000000,,,,,,,,,,,,,,,,,,,,,,,,,,,,,,,,,,,,,,,,,,,,,,,,,,,,,,,,,,,,2.281148,2.658260,5.654644,1.576812,3.980782,1.525290,3.647146,4.044641,1.736806,3.515773,2.122601,2.168868,4.523326,1.317234,3.817860,40.195412,4.564929,3.497225,3.118368,6.171735,1.389063,1.743140,1.935619,1.528706,3.382566,0.998435,0.606191,0.933115,1.356044,3.757249,1.139156,0.936987,2.144179,1.199562,5.087101,0.309616,0.193012,0.845482,0.272582,1.233341,1.295889,1.101324,4.362558,1.195550,4.377620,3.656224,2.363607,6.161930,2.684449,5.240556,85.201813,26.568880,22.245470,6.194387,6.445990,3.785454,2.789364,7.417788,2.031765,5.896691,4.302200,1.116873,5.241026,1.645694,3.886213,1.778260,1.798372,4.888738,1.506690,3.764993
1739354418.746884,1739354418.747624,59.000000,0.000000,4106.153809,4157.948730,4252.563965,3751.025635,4165.641113,4199.743652,4166.922852,4223.333496,4135.897461,4155.641113,3881.025635,4391.282227,4272.948730,4288.846191,0.000000,1.000000,17.000000,,,,0.000000,4.000000,4.000000,4.000000,4.000000,4.000000,4.000000,4.000000,4.000000,4.000000,4.000000,4.000000,4.000000,4.000000,4.000000,100.000000,,,,,,,,,,,,,,,,,,,,,,,,,,,,,,,,,,,,,,,,,,,,,,,,,,,,,,,,,,,,,,,,,,,,,,,,,,,,,,,,,,,,,,,,,,,,,,,,,,,,,,,,,,,,,,,,,,,,,,,,,,,,,,,,,
1739354418.754692,1739354418.755332,60.000000,0.000000,4107.051270,4145.384766,4259.743652,3747.820557,4161.922852,4201.794922,4152.563965,4216.922852,4138.461426,4134.487305,3863.333252,4392.820313,4266.025879,4288.846191,0.000000,1.000000,17.000000,,,,0.000000,4.000000,4.000000,4.000000,4.000000,4.000000,4.000000,4.000000,4.000000,4.000000,4.000000,4.000000,4.000000,4.000000,4.000000,100.000000,,,,,,,,,,,,,,,,,15.000000,0.000000,0.308297,0.530884,-0.457886,0.643005,0.953241,-0.271518,0.030277,-40.249672,-28.285881,43.732830,,,,,,,,,,,,,,,,,,,,,,,,,,,,,,,,,,,,,,,,,,,,,,,,,,,,,,,,,,,,,,,,,,,,,,,,,,,,,,,,,,,,,,,,,,,,,,,,,,,,,
1739354418.762500,1739354418.763140,61.000000,0.000000,4114.230957,4144.230957,4268.077148,3750.641113,4150.897461,4202.051270,4152.692383,4218.846191,4135.897461,4147.948730,3867.179443,4400.256348,4268.717773,4294.871582,0.000000,1.000000,17.000000,,,,0.000000,4.000000,4.000000,4.000000,4.000000,4.000000,4.000000,4.000000,4.000000,4.000000,4.000000,4.000000,4.000000,4.000000,4.000000,100.000000,,,,,,,,,,,,,,,,,,,,,,,,,,,,,,,,,,,,,,,,,,,,,,,,,,,,,,,,,,,,,,,,,,,,,,,,,,,,,,,,,,,,,,,,,,,,,,,,,,,,,,,,,,,,,,,,,,,,,,,,,,,,,,,,,
1739354418.770308,1739354418.770848,62.000000,0.000000,4107.820313,4163.077148,4257.307617,3764.743652,4157.436035,4196.282227,4147.307617,4218.846191,4122.179688,4148.974121,3870.256348,4392.948730,4269.487305,4293.077148,0.000000,1.000000,17.000000,,,,0.000000,4.000000,4.000000,4.000000,4.000000,4.000000,4.000000,4.000000,4.000000,4.000000,4.000000,4.000000,4.000000,4.000000,4.000000,100.000000,,,,,,,,,,,,,,,,,,,,,,,,,,,,,,,,,,,,,,,,,,,,,,,,,,,,,,,,,,,,,,,,,,,,,,,,,,,,,,,,,,,,,,,,,,,,,,,,,,,,,,,,,,,,,,,,,,,,,,,,,,,,,,,,,
1739354418.778116,1739354418.778756,63.000000,0.000000,4089.358887,4146.410156,4243.717773,3700.769287,4152.436035,4183.846191,4137.307617,4213.461426,4114.615234,4133.589844,3844.358887,4373.974121,4258.077148,4277.051270,0.000000,1.000000,17.000000,,,,0.000000,4.000000,4.000000,4.000000,4.000000,4.000000,4.000000,4.000000,4.000000,4.000000,4.000000,4.000000,4.000000,4.000000,4.000000,100.000000,,,,,,,,,,,,,,,,,,,,,,,,,,,,,,,,,,,,,,,,,,,,,,,,,,,,,,,,,,,,,,,,,,,,,,,,,,,,,,,,,,,,,,,,,,,,,,,,,,,,,,,,,,,,,,,,,,,,,,,,,,,,,,,,,
1739354418.785924,1739354418.786564,64.000000,0.000000,4095.897461,4123.077148,4254.743652,3666.923096,4134.487305,4189.743652,4158.589844,4218.333496,4134.871582,4147.692383,3847.564209,4378.589844,4267.051270,4281.922852,5197.000000,1.000000,17.000000,,,,0.000000,4.000000,4.000000,4.000000,4.000000,4.000000,4.000000,4.000000,4.000000,4.000000,4.000000,4.000000,4.000000,4.000000,4.000000,100.000000,,,,,,,,,,,,,,,,,16.000000,0.000000,0.308727,0.530334,-0.457031,0.643860,0.976682,-0.270541,0.029789,-40.191372,-28.290627,43.709545,,,,,,,,,,,,,,,,,,,,,,,,,,,,,,,,,,,,,,,,,,,,,,,,,,,,,,,,,,,,,,,,,,,,,,,,,,,,,,,,,,,,,,,,,,,,,,,,,,,,,
1739354418.793732,1739354418.794472,65.000000,0.000000,4096.922852,4133.846191,4255.512695,3723.846191,4138.974121,4204.615234,4162.307617,4213.589844,4141.794922,4161.410156,3855.897461,4378.077148,4272.307617,4286.666504,5751.000000,1.000000,17.000000,,,,0.000000,4.000000,4.000000,4.000000,4.000000,4.000000,4.000000,4.000000,4.000000,4.000000,4.000000,4.000000,4.000000,4.000000,4.000000,100.000000,,,,,,,,,,,,,,,,,,,,,,,,,,,,,,,,,,,,,,,,,,,,,,,,,,,,,,,,,,,,,,,,,,,,,,,,,,,,,,,,,,,,,,,,,,,,,,,,,,,,,,,,,,,,,,,,,,,,,,,,,,,,,,,,,
1739354418.801540,1739354418.802280,66.000000,0.000000,4082.179443,4143.461426,4241.025879,3758.333252,4162.948730,4198.717773,4138.974121,4203.205078,4122.563965,4137.179688,3830.256348,4364.358887,4252.692383,4271.538574,5591.000000,1.000000,17.000000,,,,0.000000,4.000000,4.000000,4.000000,4.000000,4.000000,4.000000,4.000000,4.000000,4.000000,4.000000,4.000000,4.000000,4.000000,4.000000,100.000000,,,,,,,,,,,,,,,,,,,,,,,,,,,,,,,,,,,,,,,,,,,,,,,,,,,,,,,,,,,,,,,,,,,,,,,,,,,,,,,,,,,,,,,,,,,,,,,,,,,,,,,,,,,,,,,,,,,,,,,,,,,,,,,,,
1739354418.809348,1739354418.810189,67.000000,0.000000,4098.205078,4139.358887,4256.538574,3719.871826,4159.743652,4194.358887,4157.820313,4216.538574,4129.487305,4140.256348,3836.025635,4383.333496,4259.230957,4278.974121,5511.000000,1.000000,17.000000,,,,0.000000,4.000000,4.000000,4.000000,4.000000,4.000000,4.000000,4.000000,4.000000,4.000000,4.000000,4.000000,4.000000,4.000000,4.000000,100.000000,,,,,,,,,,,,,,,,,,,,,,,,,,,,,,,,,,,,,,,,,,,,,,,,,,,,,,,,,,,,,,,,,,,,,,,,,,,,,,,,,,,,,,,,,,,,,,,,,,,,,,,,,,,,,,,,,,,,,,,,,,,,,,,,,
1739354418.817156,1739354418.817997,68.000000,0.000000,4105.256348,4128.461426,4268.589844,3663.461426,4143.974121,4202.436035,4174.230957,4223.205078,4145.897461,4172.307617,3860.128174,4396.282227,4273.461426,4286.153809,5342.000000,1.000000,17.000000,,,,0.000000,4.000000,4.000000,4.000000,4.000000,4.000000,4.000000,4.000000,4.000000,4.000000,4.000000,4.000000,4.000000,4.000000,4.000000,100.000000,,,,,,,,,,,,,,,,,17.000000,0.000000,0.309058,0.529907,-0.456787,0.644226,0.952265,-0.271029,0.019534,-40.138901,-28.294897,43.605259,,,,,,,,,,,,,,,,,,,,,,,,,,,,,,,,,,,,,,,,,,,,,,,,,,,,,,,,,,,,,,,,,,,,,,,,,,,,,,,,,,,,,,,,,,,,,,,,,,,,,
1739354418.824964,1739354418.825905,69.000000,0.000000,4087.307617,4122.307617,4258.717773,3669.743652,4150.000000,4199.743652,4156.538574,4213.461426,4137.820313,4166.538574,3855.384521,4378.077148,4264.743652,4275.641113,5444.000000,1.000000,17.000000,,,,0.000000,4.000000,4.000000,4.000000,4.000000,4.000000,4.000000,4.000000,4.000000,4.000000,4.000000,4.000000,4.000000,4.000000,4.000000,100.000000,,,,,,,,,,,,,,,,,,,,,,,,,,,,,,,,,,,,,,,,,,,,,,,,,,,,,,,,,,,,,,,,,,,,,,,,,,,,,,,,,,,,,,,,,,,,,,,,,,,,,,,,,,,,,,,,,,,,,,,,,,,,,,,,,
1739354418.832772,1739354418.833713,70.000000,0.000000,4104.230957,4144.230957,4273.846191,3711.538574,4168.717773,4203.717773,4160.769043,4220.128418,4141.922852,4154.230957,3854.358887,4390.512695,4266.410156,4287.436035,5492.000000,1.000000,17.000000,,,,0.000000,4.000000,4.000000,4.000000,4.000000,4.000000,4.000000,4.000000,4.000000,4.000000,4.000000,4.000000,4.000000,4.000000,4.000000,100.000000,,,,,,,,,,,,,,,,,,,,,,,,,,,,,,,,,,,,,,,,,,,,,,,,,,,,,,,,,,,,,,,,,,,,,,,,,,,,,,,,,,,,,,,,,,,,,,,,,,,,,,,,,,,,,,,,,,,,,,,,,,,,,,,,,
1739354418.840580,1739354418.841620,71.000000,0.000000,4095.769287,4138.846191,4258.461426,3689.615479,4151.666504,4198.333496,4151.025879,4213.846191,4131.538574,4145.384766,3833.076904,4370.897461,4253.974121,4270.769043,2967.000000,1.000000,17.000000,,,,0.000000,4.000000,4.000000,4.000000,4.000000,4.000000,4.000000,4.000000,4.000000,4.000000,4.000000,4.000000,4.000000,4.000000,4.000000,100.000000,,,,,,,,,,,,,,,,,,,,,,,,,,,,,,,,,,,,,,,,,,,,,,,,,,,,,,,,,,,,,,,,,,,,,,,,,,,,,,,,,,,,,,,,,,,,,,,,,,,,,,,,,,,,,,,,,,,,,,,,,,,,,,,,,
1739354418.848389,1739354418.849428,72.000000,0.000000,4064.102539,4111.666504,4230.641113,3645.128174,4137.948730,4185.000000,4126.282227,4197.692383,4112.563965,4145.256348,3816.153809,4334.615234,4239.743652,4244.358887,5312.000000,1.000000,17.000000,,,,0.000000,4.000000,4.000000,4.000000,4.000000,4.000000,4.000000,4.000000,4.000000,4.000000,4.000000,4.000000,4.000000,4.000000,4.000000,100.000000,,,,,,,,,,,,,,,,,18.000000,0.000000,0.309956,0.529846,-0.456421,0.644104,0.970822,-0.273471,0.031254,-40.158344,-28.248741,43.661400,,,,,,,,,,,,,,,,,,,,,,,,,,,,,,,,,,,,,,,,,,,,,,,,,,,,,,,,,,,,,,,,,,,,,,,,,,,,,,,,,,,,,,,,,,,,,,,,,,,,,
1739354418.856197,1739354418.857137,73.000000,0.000000,4100.128418,4136.282227,4273.077148,3677.564209,4160.897461,4201.025879,4150.128418,4214.358887,4140.384766,4174.358887,3860.641113,4382.692383,4269.230957,4283.589844,5632.000000,1.000000,17.000000,,,,0.000000,4.000000,4.000000,4.000000,4.000000,4.000000,4.000000,4.000000,4.000000,4.000000,4.000000,4.000000,4.000000,4.000000,4.000000,100.000000,,,,,,,,,,,,,,,,,,,,,,,,,,,,,,,,,,,,,,,,,,,,,,,,,,,,,,,,,,,,,,,,,,,,,,,,,,,,,,,,,,,,,,,,,,,,,,,,,,,,,,,,,,,,,,,,,,,,,,,,,,,,,,,,,
1739354418.864005,1739354418.864945,74.000000,0.000000,4129.487305,4157.179688,4302.436035,3710.512939,4165.641113,4213.077148,4171.153809,4221.922852,4157.563965,4186.153809,3869.487061,4414.615234,4282.436035,4306.410156,5128.000000,1.000000,17.000000,,,,0.000000,4.000000,4.000000,4.000000,4.000000,4.000000,4.000000,4.000000,4.000000,4.000000,4.000000,4.000000,4.000000,4.000000,4.000000,100.000000,1.000000,8.333333,1.000000,1.000000,1.000000,0.000000,1.000000,1.000000,1.000000,3.000000,3.000000,1.000000,0.000000,1.000000,1.000000,1.000000,,,,,,,,,,,,,,,,,,,,,,,,,,,,,,,,,,,,,,,,,,,,2.257514,3.135577,6.740133,1.666812,4.104414,1.697405,3.759351,5.099189,1.653894,3.689652,2.053916,2.500321,5.520500,1.498743,4.079223,32.643303,4.552619,3.572483,2.571061,6.203975,1.282506,1.835410,2.252514,1.584831,3.327135,0.902221,0.567807,1.213160,1.603923,3.730254,1.006413,0.957010,2.835145,1.574610,5.575211,0.295958,0.182688,0.952885,0.330819,1.283761,1.123309,1.023990,4.384951,1.196712,4.276321,3.651779,2.372447,6.240045,2.246368,4.997306,81.171021,22.886650,21.912552,5.652677,6.377162,3.683999,3.059061,8.622964,2.354111,6.117790,3.762631,0.756915,5.759439,1.468051,3.936705,1.735325,1.817579,5.658789,1.557158,3.952461
1739354418.871813,1739354418.872653,75.000000,0.000000,4107.436035,4141.794922,4279.102539,3695.769287,4161.282227,4204.230957,4152.563965,4202.563965,4140.769043,4177.436035,3825.769287,4383.461426,4261.025879,4282.563965,5551.000000,1.000000,17.000000,,,,0.000000,4.000000,4.000000,4.000000,4.000000,4.000000,4.000000,4.000000,4.000000,4.000000,4.000000,4.000000,4.000000,4.000000,4.000000,100.000000,,,,,,,,,,,,,,,,,,,,,,,,,,,,,,,,,,,,,,,,,,,,,,,,,,,,,,,,,,,,,,,,,,,,,,,,,,,,,,,,,,,,,,,,,,,,,,,,,,,,,,,,,,,,,,,,,,,,,,,,,,,,,,,,,
1739354418.879621,1739354418.880461,76.000000,0.000000,4101.794922,4142.051270,4270.512695,3692.564209,4163.333496,4186.025879,4137.692383,4196.410156,4132.692383,4178.333496,3837.564209,4371.153809,4266.025879,4278.333496,5816.000000,1.000000,17.000000,,,,0.000000,4.000000,4.000000,4.000000,4.000000,4.000000,4.000000,4.000000,4.000000,4.000000,4.000000,4.000000,4.000000,4.000000,4.000000,100.000000,,,,,,,,,,,,,,,,,19.000000,0.000000,0.310614,0.528870,-0.456848,0.644287,0.973263,-0.269076,0.024905,-40.009174,-28.373867,43.661926,,,,,,,,,,,,,,,,,,,,,,,,,,,,,,,,,,,,,,,,,,,,,,,,,,,,,,,,,,,,,,,,,,,,,,,,,,,,,,,,,,,,,,,,,,,,,,,,,,,,,
1739354418.887429,1739354418.888169,77.000000,0.000000,4101.153809,4131.922852,4274.102539,3639.102539,4136.922852,4170.128418,4140.512695,4202.948730,4127.820313,4164.358887,3855.128174,4375.769043,4268.333496,4277.436035,6830.000000,1.000000,17.000000,,,,0.000000,4.000000,4.000000,4.000000,4.000000,4.000000,4.000000,4.000000,4.000000,4.000000,4.000000,4.000000,4.000000,4.000000,4.000000,100.000000,,,,,,,,,,,,,,,,,,,,,,,,,,,,,,,,,,,,,,,,,,,,,,,,,,,,,,,,,,,,,,,,,,,,,,,,,,,,,,,,,,,,,,,,,,,,,,,,,,,,,,,,,,,,,,,,,,,,,,,,,,,,,,,,,
1739354418.895237,1739354418.895977,78.000000,0.000000,4080.128174,4107.692383,4258.333496,3538.974365,4115.641113,4175.256348,4137.563965,4204.102539,4122.563965,4141.025879,3820.512939,4362.692383,4241.153809,4257.948730,5128.000000,1.000000,17.000000,,,,0.000000,4.000000,4.000000,4.000000,4.000000,4.000000,4.000000,4.000000,4.000000,4.000000,4.000000,4.000000,4.000000,4.000000,4.000000,100.000000,,,,,,,,,,,,,,,,,,,,,,,,,,,,,,,,,,,,,,,,,,,,,,,,,,,,,,,,,,,,,,,,,,,,,,,,,,,,,,,,,,,,,,,,,,,,,,,,,,,,,,,,,,,,,,,,,,,,,,,,,,,,,,,,,
1739354418.903045,1739354418.903685,79.000000,0.000000,4060.128174,4098.205078,4234.871582,3498.974365,4133.589844,4176.025879,4106.153809,4195.641113,4116.538574,4142.436035,3794.871826,4335.512695,4221.666504,4237.179688,5551.000000,1.000000,17.000000,,,,0.000000,4.000000,4.000000,4.000000,4.000000,4.000000,4.000000,4.000000,4.000000,4.000000,4.000000,4.000000,4.000000,4.000000,4.000000,100.000000,,,,,,,,,,,,,,,,,,,,,,,,,,,,,,,,,,,,,,,,,,,,,,,,,,,,,,,,,,,,,,,,,,,,,,,,,,,,,,,,,,,,,,,,,,,,,,,,,,,,,,,,,,,,,,,,,,,,,,,,,,,,,,,,,
1739354418.910853,1739354418.911493,80.000000,0.000000,4055.897461,4085.384521,4234.487305,3509.230713,4137.307617,4159.487305,4093.461426,4194.487305,4107.563965,4143.589844,3797.820557,4329.230957,4220.128418,4230.000000,5816.000000,1.000000,17.000000,,,,0.000000,4.000000,4.000000,4.000000,4.000000,4.000000,4.000000,4.000000,4.000000,4.000000,4.000000,4.000000,4.000000,4.000000,4.000000,100.000000,,,,,,,,,,,,,,,,,20.000000,0.000000,0.311205,0.528015,-0.457520,0.644226,0.965450,-0.256867,0.020022,-40.141590,-28.353148,43.795734,,,,,,,,,,,,,,,,,,,,,,,,,,,,,,,,,,,,,,,,,,,,,,,,,,,,,,,,,,,,,,,,,,,,,,,,,,,,,,,,,,,,,,,,,,,,,,,,,,,,,
1739354418.918661,1739354418.919201,81.000000,0.000000,4068.974365,4087.051270,4262.307617,3507.692383,4123.333496,4167.820313,4134.615234,4205.000000,4115.384766,4150.256348,3808.718018,4357.820313,4232.436035,4243.077148,6830.000000,1.000000,17.000000,,,,0.000000,4.000000,4.000000,4.000000,4.000000,4.000000,4.000000,4.000000,4.000000,4.000000,4.000000,4.000000,4.000000,4.000000,4.000000,100.000000,,,,,,,,,,,,,,,,,,,,,,,,,,,,,,,,,,,,,,,,,,,,,,,,,,,,,,,,,,,,,,,,,,,,,,,,,,,,,,,,,,,,,,,,,,,,,,,,,,,,,,,,,,,,,,,,,,,,,,,,,,,,,,,,,
1739354418.926469,1739354418.927009,82.000000,0.000000,4089.102539,4110.641113,4283.077148,3513.333252,4144.102539,4199.743652,4164.871582,4209.871582,4136.922852,4179.358887,3820.256348,4383.461426,4249.871582,4261.025879,5128.000000,1.000000,17.000000,,,,0.000000,4.000000,4.000000,4.000000,4.000000,4.000000,4.000000,4.000000,4.000000,4.000000,4.000000,4.000000,4.000000,4.000000,4.000000,100.000000,,,,,,,,,,,,,,,,,,,,,,,,,,,,,,,,,,,,,,,,,,,,,,,,,,,,,,,,,,,,,,,,,,,,,,,,,,,,,,,,,,,,,,,,,,,,,,,,,,,,,,,,,,,,,,,,,,,,,,,,,,,,,,,,,
1739354418.934277,1739354418.934717,83.000000,0.000000,4085.769287,4098.461426,4274.871582,3526.538574,4143.205078,4202.563965,4157.436035,4205.641113,4133.974121,4181.410156,3814.743652,4370.000000,4246.410156,4257.692383,5551.000000,1.000000,17.000000,,,,0.000000,4.000000,4.000000,4.000000,4.000000,4.000000,4.000000,4.000000,4.000000,4.000000,4.000000,4.000000,4.000000,4.000000,4.000000,100.000000,,,,,,,,,,,,,,,,,,,,,,,,,,,,,,,,,,,,,,,,,,,,,,,,,,,,,,,,,,,,,,,,,,,,,,,,,,,,,,,,,,,,,,,,,,,,,,,,,,,,,,,,,,,,,,,,,,,,,,,,,,,,,,,,,
1739354418.942085,1739354418.942525,84.000000,0.000000,4071.025635,4085.000000,4269.487305,3525.512939,4126.410156,4198.974121,4160.641113,4207.179688,4126.410156,4159.871582,3807.179443,4356.922852,4232.051270,4247.948730,5816.000000,1.000000,17.000000,,,,0.000000,4.000000,4.000000,4.000000,4.000000,4.000000,4.000000,4.000000,4.000000,4.000000,4.000000,4.000000,4.000000,4.000000,4.000000,100.000000,,,,,,,,,,,,,,,,,21.000000,0.000000,0.311536,0.527832,-0.457764,0.644043,0.936638,-0.262727,0.034672,-40.144100,-28.267832,43.849495,,,,,,,,,,,,,,,,,,,,,,,,,,,,,,,,,,,,,,,,,,,,,,,,,,,,,,,,,,,,,,,,,,,,,,,,,,,,,,,,,,,,,,,,,,,,,,,,,,,,,
1739354418.949894,1739354418.950233,85.000000,0.000000,4046.025635,4086.153809,4246.153809,3506.538574,4138.846191,4194.615234,4137.692383,4194.743652,4115.000000,4136.282227,3795.000000,4328.974121,4215.256348,4222.307617,6830.000000,1.000000,17.000000,,,,0.000000,4.000000,4.000000,4.000000,4.000000,4.000000,4.000000,4.000000,4.000000,4.000000,4.000000,4.000000,4.000000,4.000000,4.000000,100.000000,,,,,,,,,,,,,,,,,,,,,,,,,,,,,,,,,,,,,,,,,,,,,,,,,,,,,,,,,,,,,,,,,,,,,,,,,,,,,,,,,,,,,,,,,,,,,,,,,,,,,,,,,,,,,,,,,,,,,,,,,,,,,,,,,
1739354418.957702,1739354418.958041,86.000000,0.000000,4023.333252,4064.358887,4213.461426,3489.743652,4127.307617,4168.461426,4097.820313,4181.282227,4094.358887,4127.179688,3782.820557,4293.461426,4208.846191,4197.436035,5128.000000,1.000000,17.000000,,,,0.000000,4.000000,4.000000,4.000000,4.000000,4.000000,4.000000,4.000000,4.000000,4.000000,4.000000,4.000000,4.000000,4.000000,4.000000,100.000000,,,,,,,,,,,,,,,,,,,,,,,,,,,,,,,,,,,,,,,,,,,,,,,,,,,,,,,,,,,,,,,,,,,,,,,,,,,,,,,,,,,,,,,,,,,,,,,,,,,,,,,,,,,,,,,,,,,,,,,,,,,,,,,,,
1739354418.965510,1739354418.965749,87.000000,0.000000,4051.794922,4068.589844,4239.102539,3507.307617,4101.282227,4161.794922,4131.153809,4206.153809,4116.666504,4162.820313,3814.615479,4327.820313,4241.153809,4232.307617,5551.000000,1.000000,17.000000,,,,0.000000,4.000000,4.000000,4.000000,4.000000,4.000000,4.000000,4.000000,4.000000,4.000000,4.000000,4.000000,4.000000,4.000000,4.000000,100.000000,,,,,,,,,,,,,,,,,,,,,,,,,,,,,,,,,,,,,,,,,,,,,,,,,,,,,,,,,,,,,,,,,,,,,,,,,,,,,,,,,,,,,,,,,,,,,,,,,,,,,,,,,,,,,,,,,,,,,,,,,,,,,,,,,
1739354418.973318,1739354418.973657,88.000000,0.000000,4091.025635,4093.718018,4277.948730,3530.897461,4122.948730,4183.846191,4174.871582,4223.205078,4150.769043,4199.871582,3850.512939,4372.820313,4272.692383,4272.563965,5816.000000,1.000000,17.000000,,,,0.000000,4.000000,4.000000,4.000000,4.000000,4.000000,4.000000,4.000000,4.000000,4.000000,4.000000,4.000000,4.000000,4.000000,4.000000,100.000000,,,,,,,,,,,,,,,,,22.000000,0.000000,0.312032,0.527466,-0.458191,0.643799,0.950311,-0.258332,0.024417,-40.163021,-28.474382,43.964542,,,,,,,,,,,,,,,,,,,,,,,,,,,,,,,,,,,,,,,,,,,,,,,,,,,,,,,,,,,,,,,,,,,,,,,,,,,,,,,,,,,,,,,,,,,,,,,,,,,,,
1739354418.981126,1739354418.981465,89.000000,0.000000,4086.281982,4089.615479,4268.846191,3530.512939,4150.641113,4199.358887,4147.436035,4200.000000,4139.871582,4193.205078,3833.974365,4358.717773,4259.102539,4256.153809,6830.000000,1.000000,17.000000,,,,0.000000,4.000000,4.000000,4.000000,4.000000,4.000000,4.000000,4.000000,4.000000,4.000000,4.000000,4.000000,4.000000,4.000000,4.000000,100.000000,,,,,,,,,,,,,,,,,,,,,,,,,,,,,,,,,,,,,,,,,,,,,,,,,,,,,,,,,,,,,,,,,,,,,,,,,,,,,,,,,,,,,,,,,,,,,,,,,,,,,,,,,,,,,,,,,,,,,,,,,,,,,,,,,
1739354418.988934,1739354418.989373,90.000000,0.000000,4052.179443,4070.769287,4236.025879,3503.333252,4118.717773,4176.538574,4099.871582,4180.128418,4106.666504,4167.436035,3793.461426,4320.897461,4222.948730,4217.948730,5128.000000,1.000000,17.000000,,,,0.000000,4.000000,4.000000,4.000000,4.000000,4.000000,4.000000,4.000000,4.000000,4.000000,4.000000,4.000000,4.000000,4.000000,4.000000,100.000000,,,,,,,,,,,,,,,,,,,,,,,,,,,,,,,,,,,,,,,,,,,,,,,,,,,,,,,,,,,,2.095184,3.475293,7.147230,1.830269,4.344604,2.300415,3.724692,5.747006,1.658601,3.983624,1.867861,2.620964,5.997297,1.735835,4.457314,24.732063,5.184548,3.620929,2.418500,6.484887,1.205679,2.084526,2.489075,1.660264,3.386167,0.784717,0.618312,1.520111,1.872993,3.722437,0.865609,1.042238,3.538801,2.081541,6.146615,0.294577,0.197089,1.075818,0.415835,1.361069,0.920775,0.948325,4.316671,1.283882,4.292792,3.580509,2.602200,6.149472,2.290366,5.226101,70.927124,17.626394,19.850597,5.004385,6.362863,3.515194,3.088616,9.018270,2.739727,6.553992,2.980214,0.597188,5.915320,1.495322,4.118209,1.579271,1.823159,5.917629,1.652138,4.254322
1739354418.996742,1739354418.997181,91.000000,0.000000,4033.076904,4054.102539,4224.487305,3474.871826,4081.025635,4142.820313,4093.846191,4184.871582,4097.051270,4153.333496,3787.948730,4311.153809,4209.743652,4207.692383,5551.000000,1.000000,17.000000,,,,0.000000,4.000000,4.000000,4.000000,4.000000,4.000000,4.000000,4.000000,4.000000,4.000000,4.000000,4.000000,4.000000,4.000000,4.000000,100.000000,,,,,,,,,,,,,,,,,,,,,,,,,,,,,,,,,,,,,,,,,,,,,,,,,,,,,,,,,,,,,,,,,,,,,,,,,,,,,,,,,,,,,,,,,,,,,,,,,,,,,,,,,,,,,,,,,,,,,,,,,,,,,,,,,
1739354419.004550,1739354419.005089,92.000000,0.000000,4056.794922,4061.666748,4247.051270,3489.487061,4110.128418,4160.128418,4128.974121,4199.102539,4123.077148,4173.333496,3823.333252,4346.153809,4234.487305,4232.436035,5816.000000,1.000000,17.000000,,,,0.000000,4.000000,4.000000,4.000000,4.000000,4.000000,4.000000,4.000000,4.000000,4.000000,4.000000,4.000000,4.000000,4.000000,4.000000,100.000000,,,,,,,,,,,,,,,,,23.000000,0.000000,0.312409,0.526978,-0.458496,0.643799,0.959101,-0.244659,0.027347,-40.096722,-28.493610,44.068089,,,,,,,,,,,,,,,,,,,,,,,,,,,,,,,,,,,,,,,,,,,,,,,,,,,,,,,,,,,,,,,,,,,,,,,,,,,,,,,,,,,,,,,,,,,,,,,,,,,,,
1739354419.012358,1739354419.012897,93.000000,0.000000,4074.102539,4079.615479,4265.512695,3511.025635,4154.230957,4198.589844,4157.563965,4205.769043,4144.743652,4209.743652,3839.358887,4371.794922,4247.692383,4243.461426,6830.000000,1.000000,17.000000,,,,0.000000,4.000000,4.000000,4.000000,4.000000,4.000000,4.000000,4.000000,4.000000,4.000000,4.000000,4.000000,4.000000,4.000000,4.000000,100.000000,,,,,,,,,,,,,,,,,,,,,,,,,,,,,,,,,,,,,,,,,,,,,,,,,,,,,,,,,,,,,,,,,,,,,,,,,,,,,,,,,,,,,,,,,,,,,,,,,,,,,,,,,,,,,,,,,,,,,,,,,,,,,,,,,
1739354419.020166,1739354419.020805,94.000000,0.000000,4058.076904,4062.692383,4257.820313,3492.435791,4137.692383,4200.000000,4154.743652,4201.282227,4138.205078,4212.820313,3819.230713,4360.256348,4226.025879,4228.974121,5128.000000,1.000000,17.000000,,,,0.000000,4.000000,4.000000,4.000000,4.000000,4.000000,4.000000,4.000000,4.000000,4.000000,4.000000,4.000000,4.000000,4.000000,4.000000,100.000000,,,,,,,,,,,,,,,,,,,,,,,,,,,,,,,,,,,,,,,,,,,,,,,,,,,,,,,,,,,,,,,,,,,,,,,,,,,,,,,,,,,,,,,,,,,,,,,,,,,,,,,,,,,,,,,,,,,,,,,,,,,,,,,,,
1739354419.027974,1739354419.028613,95.000000,0.000000,4019.487061,4012.564209,4217.820313,3447.820557,4078.846191,4160.769043,4120.128418,4183.205078,4100.128418,4163.846191,3769.358887,4315.769043,4192.692383,4195.512695,5551.000000,1.000000,17.000000,,,,0.000000,4.000000,4.000000,4.000000,4.000000,4.000000,4.000000,4.000000,4.000000,4.000000,4.000000,4.000000,4.000000,4.000000,4.000000,100.000000,,,,,,,,,,,,,,,,,,,,,,,,,,,,,,,,,,,,,,,,,,,,,,,,,,,,,,,,,,,,,,,,,,,,,,,,,,,,,,,,,,,,,,,,,,,,,,,,,,,,,,,,,,,,,,,,,,,,,,,,,,,,,,,,,
1739354419.035782,1739354419.036521,96.000000,0.000000,4010.384521,4009.871826,4199.743652,3452.948730,4081.666748,4152.948730,4111.410156,4182.692383,4092.948730,4156.538574,3744.230713,4301.282227,4198.589844,4183.974121,5816.000000,1.000000,17.000000,,,,0.000000,4.000000,4.000000,4.000000,4.000000,4.000000,4.000000,4.000000,4.000000,4.000000,4.000000,4.000000,4.000000,4.000000,4.000000,100.000000,,,,,,,,,,,,,,,,,24.000000,0.000000,0.312622,0.526489,-0.458740,0.643921,0.964962,-0.259797,0.029789,-40.187050,-28.527582,44.127949,,,,,,,,,,,,,,,,,,,,,,,,,,,,,,,,,,,,,,,,,,,,,,,,,,,,,,,,,,,,,,,,,,,,,,,,,,,,,,,,,,,,,,,,,,,,,,,,,,,,,
1739354419.043590,1739354419.044329,97.000000,0.000000,4038.333252,4046.410156,4223.846191,3484.615479,4127.179688,4183.461426,4135.769043,4199.102539,4129.487305,4204.102539,3762.564209,4332.179688,4228.589844,4207.307617,6830.000000,1.000000,17.000000,,,,0.000000,4.000000,4.000000,4.000000,4.000000,4.000000,4.000000,4.000000,4.000000,4.000000,4.000000,4.000000,4.000000,4.000000,4.000000,100.000000,,,,,,,,,,,,,,,,,,,,,,,,,,,,,,,,,,,,,,,,,,,,,,,,,,,,,,,,,,,,,,,,,,,,,,,,,,,,,,,,,,,,,,,,,,,,,,,,,,,,,,,,,,,,,,,,,,,,,,,,,,,,,,,,,
1739354419.051399,1739354419.052037,98.000000,0.000000,4042.948730,4049.487061,4229.358887,3478.974365,4113.974121,4175.256348,4136.666504,4194.230957,4130.641113,4217.436035,3757.820557,4335.769043,4225.512695,4214.615234,5128.000000,1.000000,17.000000,,,,0.000000,4.000000,4.000000,4.000000,4.000000,4.000000,4.000000,4.000000,4.000000,4.000000,4.000000,4.000000,4.000000,4.000000,4.000000,100.000000,,,,,,,,,,,,,,,,,,,,,,,,,,,,,,,,,,,,,,,,,,,,,,,,,,,,,,,,,,,,,,,,,,,,,,,,,,,,,,,,,,,,,,,,,,,,,,,,,,,,,,,,,,,,,,,,,,,,,,,,,,,,,,,,,
1739354419.059207,1739354419.059845,99.000000,0.000000,4032.179443,4033.718018,4217.436035,3469.615479,4077.948730,4148.717773,4121.794922,4180.128418,4100.641113,4205.641113,3734.615479,4318.077148,4209.230957,4204.871582,5551.000000,1.000000,17.000000,,,,0.000000,4.000000,4.000000,4.000000,4.000000,4.000000,4.000000,4.000000,4.000000,4.000000,4.000000,4.000000,4.000000,4.000000,4.000000,100.000000,,,,,,,,,,,,,,,,,,,,,,,,,,,,,,,,,,,,,,,,,,,,,,,,,,,,,,,,,,,,,,,,,,,,,,,,,,,,,,,,,,,,,,,,,,,,,,,,,,,,,,,,,,,,,,,,,,,,,,,,,,,,,,,,,
1739354419.067015,1739354419.067553,100.000000,0.000000,4037.307617,4025.128174,4225.128418,3479.615479,4091.025635,4158.333496,4118.846191,4181.282227,4093.076904,4184.102539,3714.102539,4326.153809,4208.461426,4204.615234,5816.000000,1.000000,17.000000,,,,0.000000,4.000000,4.000000,4.000000,4.000000,4.000000,4.000000,4.000000,4.000000,4.000000,4.000000,4.000000,4.000000,4.000000,4.000000,100.000000,,,,,,,,,,,,,,,,,25.000000,0.000000,0.312649,0.525940,-0.458923,0.644226,0.957148,-0.251007,0.033696,-39.951675,-28.541491,44.048485,,,,,,,,,,,,,,,,,,,,,,,,,,,,,,,,,,,,,,,,,,,,,,,,,,,,,,,,,,,,,,,,,,,,,,,,,,,,,,,,,,,,,,,,,,,,,,,,,,,,,
1739354419.074823,1739354419.075361,101.000000,0.000000,4053.718018,4027.307617,4238.077148,3490.000000,4120.897461,4178.717773,4128.461426,4189.743652,4116.538574,4174.615234,3699.487061,4346.410156,4224.615234,4216.538574,6830.000000,1.000000,17.000000,,,,0.000000,4.000000,4.000000,4.000000,4.000000,4.000000,4.000000,4.000000,4.000000,4.000000,4.000000,4.000000,4.000000,4.000000,4.000000,100.000000,,,,,,,,,,,,,,,,,,,,,,,,,,,,,,,,,,,,,,,,,,,,,,,,,,,,,,,,,,,,,,,,,,,,,,,,,,,,,,,,,,,,,,,,,,,,,,,,,,,,,,,,,,,,,,,,,,,,,,,,,,,,,,,,,
1739354419.082631,1739354419.083069,102.000000,0.000000,4033.461426,4007.307617,4211.922852,3453.076904,4098.461426,4157.948730,4115.512695,4180.384766,4109.871582,4177.692383,3679.615479,4315.256348,4220.512695,4198.077148,5128.000000,1.000000,17.000000,,,,0.000000,4.000000,4.000000,4.000000,4.000000,4.000000,4.000000,4.000000,4.000000,4.000000,4.000000,4.000000,4.000000,4.000000,4.000000,100.000000,,,,,,,,,,,,,,,,,,,,,,,,,,,,,,,,,,,,,,,,,,,,,,,,,,,,,,,,,,,,,,,,,,,,,,,,,,,,,,,,,,,,,,,,,,,,,,,,,,,,,,,,,,,,,,,,,,,,,,,,,,,,,,,,,
1739354419.090439,1739354419.090877,103.000000,0.000000,3993.333252,3977.692383,4174.487305,3408.589844,4061.923096,4128.846191,4083.846191,4165.384766,4075.897461,4169.871582,3652.051270,4267.307617,4194.487305,4159.487305,5551.000000,1.000000,17.000000,,,,0.000000,4.000000,4.000000,4.000000,4.000000,4.000000,4.000000,4.000000,4.000000,4.000000,4.000000,4.000000,4.000000,4.000000,4.000000,100.000000,,,,,,,,,,,,,,,,,,,,,,,,,,,,,,,,,,,,,,,,,,,,,,,,,,,,,,,,,,,,,,,,,,,,,,,,,,,,,,,,,,,,,,,,,,,,,,,,,,,,,,,,,,,,,,,,,,,,,,,,,,,,,,,,,
1739354419.098247,1739354419.098585,104.000000,0.000000,4010.256348,3994.615479,4188.846191,3432.179443,4089.615479,4148.077148,4094.743652,4180.384766,4098.846191,4189.358887,3655.769287,4295.897461,4206.794922,4171.794922,5816.000000,1.000000,17.000000,,,,0.000000,4.000000,4.000000,4.000000,4.000000,4.000000,4.000000,4.000000,4.000000,4.000000,4.000000,4.000000,4.000000,4.000000,4.000000,100.000000,,,,,,,,,,,,,,,,,26.000000,0.000000,0.312890,0.525208,-0.458740,0.644836,0.949823,-0.272006,0.028812,-39.906509,-28.587341,44.010303,,,,,,,,,,,,,,,,,,,,,,,,,,,,,,,,,,,,,,,,,,,,,,,,,,,,,,,,,,,,,,,,,,,,,,,,,,,,,,,,,,,,,,,,,,,,,,,,,,,,,
1739354419.106055,1739354419.106393,105.000000,0.000000,4029.358887,4004.487061,4204.102539,3451.538574,4112.051270,4157.820313,4116.410156,4192.692383,4123.077148,4199.743652,3661.794922,4326.410156,4217.179688,4189.358887,6830.000000,1.000000,17.000000,,,,0.000000,4.000000,4.000000,4.000000,4.000000,4.000000,4.000000,4.000000,4.000000,4.000000,4.000000,4.000000,4.000000,4.000000,4.000000,100.000000,,,,,,,,,,,,,,,,,,,,,,,,,,,,,,,,,,,,,,,,,,,,,,,,,,,,,,,,,,,,,,,,,,,,,,,,,,,,,,,,,,,,,,,,,,,,,,,,,,,,,,,,,,,,,,,,,,,,,,,,,,,,,,,,,
1739354419.113863,1739354419.114101,106.000000,0.000000,4000.128174,3977.179443,4184.487305,3417.948730,4078.461426,4133.333496,4102.307617,4178.589844,4093.333252,4161.794922,3642.948730,4298.333496,4186.922852,4165.256348,5128.000000,1.000000,17.000000,,,,0.000000,4.000000,4.000000,4.000000,4.000000,4.000000,4.000000,4.000000,4.000000,4.000000,4.000000,4.000000,4.000000,4.000000,4.000000,100.000000,,,,,,,,,,,,,,,,,,,,,,,,,,,,,,,,,,,,,,,,,,,,,,,,,,,,,,,,,,,,1.904645,3.511478,6.683942,2.015990,4.530882,3.546817,3.467134,5.748479,1.719343,4.196007,1.538989,2.461784,5.765530,1.985197,4.768385,22.452534,6.434474,3.716112,2.621708,6.805534,1.136908,2.344941,2.522028,1.690767,3.453794,0.604625,0.713180,1.725223,2.093164,3.648843,0.677261,1.163135,4.016539,2.645380,6.567879,0.307419,0.232819,1.202400,0.508631,1.411508,0.702690,0.864760,4.068609,1.431033,4.309163,3.411595,2.907711,5.802005,2.719314,5.773441,56.522026,12.428414,16.386393,4.289481,6.272233,3.204249,2.832020,8.416679,3.113102,6.922778,2.318319,0.588252,5.553223,1.633292,4.308537,1.403944,1.743565,5.534333,1.762543,4.488745
1739354419.121671,1739354419.121909,107.000000,0.000000,3993.205078,3972.692383,4184.230957,3414.487061,4071.666748,4139.487305,4101.025879,4178.846191,4094.102539,4162.563965,3643.076904,4296.025879,4184.102539,4159.615234,5551.000000,1.000000,17.000000,,,,0.000000,4.000000,4.000000,4.000000,4.000000,4.000000,4.000000,4.000000,4.000000,4.000000,4.000000,4.000000,4.000000,4.000000,4.000000,100.000000,,,,,,,,,,,,,,,,,,,,,,,,,,,,,,,,,,,,,,,,,,,,,,,,,,,,,,,,,,,,,,,,,,,,,,,,,,,,,,,,,,,,,,,,,,,,,,,,,,,,,,,,,,,,,,,,,,,,,,,,,,,,,,,,,
1739354419.129479,1739354419.129617,108.000000,0.000000,4015.128174,3985.384521,4198.589844,3447.820557,4088.589844,4162.051270,4120.512695,4193.205078,4128.333496,4201.794922,3663.589844,4324.487305,4210.769043,4179.102539,5816.000000,1.000000,17.000000,,,,0.000000,4.000000,4.000000,4.000000,4.000000,4.000000,4.000000,4.000000,4.000000,4.000000,4.000000,4.000000,4.000000,4.000000,4.000000,100.000000,,,,,,,,,,,,,,,,,27.000000,0.000000,0.313159,0.524597,-0.458740,0.645203,0.964962,-0.276889,0.034184,-39.849190,-28.695274,43.959274,,,,,,,,,,,,,,,,,,,,,,,,,,,,,,,,,,,,,,,,,,,,,,,,,,,,,,,,,,,,,,,,,,,,,,,,,,,,,,,,,,,,,,,,,,,,,,,,,,,,,
1739354419.137287,1739354419.137525,109.000000,0.000000,4001.153809,3969.230713,4182.692383,3425.000000,4071.281982,4144.102539,4108.589844,4184.743652,4113.846191,4179.358887,3645.897461,4305.512695,4194.871582,4163.589844,6830.000000,1.000000,17.000000,,,,0.000000,4.000000,4.000000,4.000000,4.000000,4.000000,4.000000,4.000000,4.000000,4.000000,4.000000,4.000000,4.000000,4.000000,4.000000,100.000000,,,,,,,,,,,,,,,,,,,,,,,,,,,,,,,,,,,,,,,,,,,,,,,,,,,,,,,,,,,,,,,,,,,,,,,,,,,,,,,,,,,,,,,,,,,,,,,,,,,,,,,,,,,,,,,,,,,,,,,,,,,,,,,,,
1739354419.145095,1739354419.145334,110.000000,0.000000,3988.718018,3967.948730,4170.641113,3398.205078,4069.743652,4130.128418,4098.461426,4180.256348,4105.641113,4165.128418,3621.153809,4286.538574,4178.461426,4145.897461,5128.000000,1.000000,17.000000,,,,0.000000,4.000000,4.000000,4.000000,4.000000,4.000000,4.000000,4.000000,4.000000,4.000000,4.000000,4.000000,4.000000,4.000000,4.000000,100.000000,,,,,,,,,,,,,,,,,,,,,,,,,,,,,,,,,,,,,,,,,,,,,,,,,,,,,,,,,,,,,,,,,,,,,,,,,,,,,,,,,,,,,,,,,,,,,,,,,,,,,,,,,,,,,,,,,,,,,,,,,,,,,,,,,
1739354419.152903,1739354419.153242,111.000000,0.000000,4004.230713,3978.461426,4180.256348,3415.512939,4093.333252,4145.000000,4111.922852,4189.358887,4128.461426,4185.769043,3619.743652,4304.487305,4192.436035,4155.384766,5551.000000,1.000000,17.000000,,,,0.000000,4.000000,4.000000,4.000000,4.000000,4.000000,4.000000,4.000000,4.000000,4.000000,4.000000,4.000000,4.000000,4.000000,4.000000,100.000000,,,,,,,,,,,,,,,,,,,,,,,,,,,,,,,,,,,,,,,,,,,,,,,,,,,,,,,,,,,,,,,,,,,,,,,,,,,,,,,,,,,,,,,,,,,,,,,,,,,,,,,,,,,,,,,,,,,,,,,,,,,,,,,,,
1739354419.160712,1739354419.161050,112.000000,0.000000,3986.281982,3947.435791,4162.563965,3387.435791,4068.461426,4127.179688,4092.564209,4172.051270,4100.128418,4132.051270,3574.358887,4283.846191,4170.384766,4138.205078,5816.000000,1.000000,17.000000,,,,0.000000,4.000000,4.000000,4.000000,4.000000,4.000000,4.000000,4.000000,4.000000,4.000000,4.000000,4.000000,4.000000,4.000000,4.000000,100.000000,,,,,,,,,,,,,,,,,28.000000,0.000000,0.313125,0.524414,-0.458801,0.645325,0.963985,-0.272006,0.034184,-39.680939,-28.725748,44.013348,,,,,,,,,,,,,,,,,,,,,,,,,,,,,,,,,,,,,,,,,,,,,,,,,,,,,,,,,,,,,,,,,,,,,,,,,,,,,,,,,,,,,,,,,,,,,,,,,,,,,
1739354419.168520,1739354419.168958,113.000000,0.000000,3980.000000,3940.769287,4159.871582,3352.051270,4049.743652,4111.025879,4076.538574,4162.692383,4079.871826,4098.846191,3537.179443,4273.077148,4159.871582,4130.384766,6830.000000,1.000000,17.000000,,,,0.000000,4.000000,4.000000,4.000000,4.000000,4.000000,4.000000,4.000000,4.000000,4.000000,4.000000,4.000000,4.000000,4.000000,4.000000,100.000000,,,,,,,,,,,,,,,,,,,,,,,,,,,,,,,,,,,,,,,,,,,,,,,,,,,,,,,,,,,,,,,,,,,,,,,,,,,,,,,,,,,,,,,,,,,,,,,,,,,,,,,,,,,,,,,,,,,,,,,,,,,,,,,,,
1739354419.176328,1739354419.176766,114.000000,0.000000,4016.923096,3973.461426,4195.512695,3370.641113,4090.000000,4138.717773,4107.179688,4182.692383,4117.051270,4157.179688,3551.666748,4318.589844,4196.282227,4162.307617,5128.000000,1.000000,17.000000,,,,0.000000,4.000000,4.000000,4.000000,4.000000,4.000000,4.000000,4.000000,4.000000,4.000000,4.000000,4.000000,4.000000,4.000000,4.000000,100.000000,,,,,,,,,,,,,,,,,,,,,,,,,,,,,,,,,,,,,,,,,,,,,,,,,,,,,,,,,,,,,,,,,,,,,,,,,,,,,,,,,,,,,,,,,,,,,,,,,,,,,,,,,,,,,,,,,,,,,,,,,,,,,,,,,
1739354419.184136,1739354419.184674,115.000000,0.000000,4000.384521,3943.589844,4178.717773,3344.358887,4084.102539,4131.922852,4099.487305,4175.384766,4111.153809,4151.666504,3513.718018,4304.358887,4184.358887,4146.410156,5551.000000,1.000000,17.000000,,,,0.000000,4.000000,4.000000,4.000000,4.000000,4.000000,4.000000,4.000000,4.000000,4.000000,4.000000,4.000000,4.000000,4.000000,4.000000,100.000000,,,,,,,,,,,,,,,,,,,,,,,,,,,,,,,,,,,,,,,,,,,,,,,,,,,,,,,,,,,,,,,,,,,,,,,,,,,,,,,,,,,,,,,,,,,,,,,,,,,,,,,,,,,,,,,,,,,,,,,,,,,,,,,,,
1739354419.191944,1739354419.192483,116.000000,0.000000,3944.102539,3879.230713,4127.436035,3257.051270,4024.615479,4088.333252,4054.615479,4150.641113,4063.076904,4090.897461,3434.230713,4239.487305,4138.846191,4091.794922,5816.000000,1.000000,17.000000,,,,0.000000,4.000000,4.000000,4.000000,4.000000,4.000000,4.000000,4.000000,4.000000,4.000000,4.000000,4.000000,4.000000,4.000000,4.000000,100.000000,,,,,,,,,,,,,,,,,29.000000,0.000000,0.313133,0.524109,-0.458801,0.645569,0.957636,-0.263704,0.025394,-39.579514,-28.636505,43.978680,,,,,,,,,,,,,,,,,,,,,,,,,,,,,,,,,,,,,,,,,,,,,,,,,,,,,,,,,,,,,,,,,,,,,,,,,,,,,,,,,,,,,,,,,,,,,,,,,,,,,
1739354419.199752,1739354419.200391,117.000000,0.000000,3938.974365,3875.256348,4129.871582,3205.000000,4015.897461,4087.948730,4056.794922,4159.615234,4064.487061,4101.282227,3416.923096,4240.384766,4142.948730,4086.410156,6830.000000,1.000000,17.000000,,,,0.000000,4.000000,4.000000,4.000000,4.000000,4.000000,4.000000,4.000000,4.000000,4.000000,4.000000,4.000000,4.000000,4.000000,4.000000,100.000000,,,,,,,,,,,,,,,,,,,,,,,,,,,,,,,,,,,,,,,,,,,,,,,,,,,,,,,,,,,,,,,,,,,,,,,,,,,,,,,,,,,,,,,,,,,,,,,,,,,,,,,,,,,,,,,,,,,,,,,,,,,,,,,,,
1739354419.207560,1739354419.208199,118.000000,0.000000,3949.487061,3882.564209,4147.563965,3177.948730,4033.076904,4107.307617,4075.000000,4173.205078,4088.076904,4123.333496,3411.794922,4262.436035,4155.000000,4098.077148,5128.000000,1.000000,17.000000,,,,0.000000,4.000000,4.000000,4.000000,4.000000,4.000000,4.000000,4.000000,4.000000,4.000000,4.000000,4.000000,4.000000,4.000000,4.000000,100.000000,,,,,,,,,,,,,,,,,,,,,,,,,,,,,,,,,,,,,,,,,,,,,,,,,,,,,,,,,,,,,,,,,,,,,,,,,,,,,,,,,,,,,,,,,,,,,,,,,,,,,,,,,,,,,,,,,,,,,,,,,,,,,,,,,
1739354419.215368,1739354419.216107,119.000000,0.000000,3913.974365,3838.205078,4114.102539,3109.615479,3998.589844,4076.538574,4045.128174,4153.077148,4059.615479,4083.589844,3338.589844,4221.794922,4124.487305,4063.589844,5551.000000,1.000000,17.000000,,,,0.000000,4.000000,4.000000,4.000000,4.000000,4.000000,4.000000,4.000000,4.000000,4.000000,4.000000,4.000000,4.000000,4.000000,4.000000,100.000000,,,,,,,,,,,,,,,,,,,,,,,,,,,,,,,,,,,,,,,,,,,,,,,,,,,,,,,,,,,,,,,,,,,,,,,,,,,,,,,,,,,,,,,,,,,,,,,,,,,,,,,,,,,,,,,,,,,,,,,,,,,,,,,,,
1739354419.223176,1739354419.223915,120.000000,0.000000,3885.897461,3804.871826,4085.256348,3033.076904,3970.512939,4040.897461,4014.102539,4135.128418,4022.307617,4053.718018,3273.846191,4185.512695,4105.641113,4033.974365,5816.000000,1.000000,17.000000,,,,0.000000,4.000000,4.000000,4.000000,4.000000,4.000000,4.000000,4.000000,4.000000,4.000000,4.000000,4.000000,4.000000,4.000000,4.000000,100.000000,,,,,,,,,,,,,,,,,30.000000,0.000000,0.312835,0.523804,-0.458923,0.645874,0.961055,-0.272006,0.034184,-39.438229,-28.672855,43.830811,,,,,,,,,,,,,,,,,,,,,,,,,,,,,,,,,,,,,,,,,,,,,,,,,,,,,,,,,,,,,,,,,,,,,,,,,,,,,,,,,,,,,,,,,,,,,,,,,,,,,
1739354419.230984,1739354419.231823,121.000000,0.000000,3882.307617,3789.358887,4083.076904,2976.153809,3964.358887,4031.025635,4004.871826,4133.846191,4010.897461,4048.333252,3196.538574,4179.871582,4099.358887,4029.358887,6830.000000,1.000000,17.000000,,,,0.000000,4.000000,4.000000,4.000000,4.000000,4.000000,4.000000,4.000000,4.000000,4.000000,4.000000,4.000000,4.000000,4.000000,4.000000,100.000000,,,,,,,,,,,,,,,,,,,,,,,,,,,,,,,,,,,,,,,,,,,,,,,,,,,,,,,,,,,,,,,,,,,,,,,,,,,,,,,,,,,,,,,,,,,,,,,,,,,,,,,,,,,,,,,,,,,,,,,,,,,,,,,,,
1739354419.238792,1739354419.239631,122.000000,0.000000,3828.974365,3723.205078,4033.718018,2890.128174,3913.589844,3982.179443,3955.384521,4109.230957,3964.102539,3994.102539,3007.948730,4117.436035,4044.743652,3977.435791,5128.000000,1.000000,17.000000,,,,0.000000,4.000000,4.000000,4.000000,4.000000,4.000000,4.000000,4.000000,4.000000,4.000000,4.000000,4.000000,4.000000,4.000000,4.000000,100.000000,,,,,,,,,,,,,,,,,,,,,,,,,,,,,,,,,,,,,,,,,,,,,,,,,,,,,,,,,,,,1.647974,3.203625,5.475379,2.183332,4.546584,4.516306,3.014127,5.105088,1.769450,4.168187,1.254374,2.058338,4.906047,2.217967,4.876436,21.152500,8.228699,4.115571,3.127302,6.965782,1.138160,2.483598,2.323329,1.639462,3.430671,0.469355,0.818583,1.764243,2.200544,3.462240,0.556184,1.279454,4.134507,3.176526,6.671613,0.331961,0.279042,1.309876,0.585330,1.398329,0.571764,0.764832,3.604324,1.591398,4.210031,3.345053,3.133240,5.161026,3.310981,6.356479,45.758202,8.950495,12.379802,3.667786,6.051373,2.901855,2.337879,6.987511,3.418123,7.012799,1.765854,0.694404,4.681355,1.787898,4.373388,1.197271,1.561028,4.593534,1.865374,4.523557
1739354419.246601,1739354419.247538,123.000000,0.000000,3767.435791,3657.692383,3980.000000,2799.102539,3867.051270,3926.025635,3899.102539,4080.512939,3905.000000,3936.794922,2838.205078,4043.718018,3990.769287,3915.256348,5551.000000,1.000000,17.000000,,,,0.000000,4.000000,4.000000,4.000000,4.000000,4.000000,4.000000,4.000000,4.000000,4.000000,4.000000,4.000000,4.000000,4.000000,4.000000,100.000000,,,,,,,,,,,,,,,,,,,,,,,,,,,,,,,,,,,,,,,,,,,,,,,,,,,,,,,,,,,,,,,,,,,,,,,,,,,,,,,,,,,,,,,,,,,,,,,,,,,,,,,,,,,,,,,,,,,,,,,,,,,,,,,,,
1739354419.254408,1739354419.255346,124.000000,0.000000,3769.871826,3658.461426,3989.743652,2756.794922,3864.615479,3922.692383,3895.384521,4087.692383,3902.179443,3943.589844,2802.051270,4048.076904,3998.333252,3920.000000,5816.000000,1.000000,17.000000,,,,0.000000,4.000000,4.000000,4.000000,4.000000,4.000000,4.000000,4.000000,4.000000,4.000000,4.000000,4.000000,4.000000,4.000000,4.000000,100.000000,,,,,,,,,,,,,,,,,31.000000,0.000000,0.313145,0.523682,-0.458679,0.645996,0.958613,-0.276889,0.029789,-39.494404,-28.538902,43.947731,,,,,,,,,,,,,,,,,,,,,,,,,,,,,,,,,,,,,,,,,,,,,,,,,,,,,,,,,,,,,,,,,,,,,,,,,,,,,,,,,,,,,,,,,,,,,,,,,,,,,
1739354419.262217,1739354419.263054,125.000000,0.000000,3761.153809,3645.256348,3983.718018,2703.974365,3832.179443,3909.102539,3886.153809,4088.333252,3896.410156,3936.923096,2754.102539,4040.897461,3989.358887,3915.769287,6830.000000,1.000000,17.000000,,,,0.000000,4.000000,4.000000,4.000000,4.000000,4.000000,4.000000,4.000000,4.000000,4.000000,4.000000,4.000000,4.000000,4.000000,4.000000,100.000000,,,,,,,,,,,,,,,,,,,,,,,,,,,,,,,,,,,,,,,,,,,,,,,,,,,,,,,,,,,,,,,,,,,,,,,,,,,,,,,,,,,,,,,,,,,,,,,,,,,,,,,,,,,,,,,,,,,,,,,,,,,,,,,,,
1739354419.270025,1739354419.270862,126.000000,0.000000,3698.076904,3584.230713,3926.923096,2596.538574,3780.000000,3857.307617,3838.718018,4060.512939,3848.718018,3883.974365,2637.435791,3974.743652,3932.307617,3856.923096,5128.000000,1.000000,17.000000,,,,0.000000,4.000000,4.000000,4.000000,4.000000,4.000000,4.000000,4.000000,4.000000,4.000000,4.000000,4.000000,4.000000,4.000000,4.000000,100.000000,,,,,,,,,,,,,,,,,,,,,,,,,,,,,,,,,,,,,,,,,,,,,,,,,,,,,,,,,,,,,,,,,,,,,,,,,,,,,,,,,,,,,,,,,,,,,,,,,,,,,,,,,,,,,,,,,,,,,,,,,,,,,,,,,
1739354419.277833,1739354419.278570,127.000000,0.000000,3660.512939,3556.025635,3900.256348,2509.615479,3777.307617,3832.179443,3807.564209,4049.615479,3829.871826,3869.230713,2564.871826,3942.051270,3906.794922,3826.025635,17.000000,1.000000,17.000000,,,,0.000000,4.000000,4.000000,4.000000,4.000000,4.000000,4.000000,4.000000,4.000000,4.000000,4.000000,4.000000,4.000000,4.000000,4.000000,100.000000,,,,,,,,,,,,,,,,,,,,,,,,,,,,,,,,,,,,,,,,,,,,,,,,,,,,,,,,,,,,,,,,,,,,,,,,,,,,,,,,,,,,,,,,,,,,,,,,,,,,,,,,,,,,,,,,,,,,,,,,,,,,,,,,,
1739354419.285641,1739354419.286479,0.000000,0.000000,3657.051270,3554.230713,3901.794922,2472.948730,3781.666748,3831.025635,3801.794922,4053.461426,3832.435791,3880.256348,2514.230713,3940.256348,3909.230713,3826.025635,5133.000000,1.000000,17.000000,,,,0.000000,4.000000,4.000000,4.000000,4.000000,4.000000,4.000000,4.000000,4.000000,4.000000,4.000000,4.000000,4.000000,4.000000,4.000000,100.000000,,,,,,,,,,,,,,,,,0.000000,0.000000,0.313086,0.523438,-0.458740,0.646179,0.970822,-0.277378,0.039556,-39.411633,-28.468346,43.836288,,,,,,,,,,,,,,,,,,,,,,,,,,,,,,,,,,,,,,,,,,,,,,,,,,,,,,,,,,,,,,,,,,,,,,,,,,,,,,,,,,,,,,,,,,,,,,,,,,,,,
1739354419.293449,1739354419.294287,1.000000,0.000000,3634.487061,3525.512939,3881.153809,2433.589844,3747.307617,3809.487061,3786.538574,4044.743652,3808.718018,3855.256348,2430.384521,3912.948730,3886.153809,3798.461426,5733.000000,1.000000,17.000000,,,,0.000000,4.000000,4.000000,4.000000,4.000000,4.000000,4.000000,4.000000,4.000000,4.000000,4.000000,4.000000,4.000000,4.000000,4.000000,100.000000,,,,,,,,,,,,,,,,,,,,,,,,,,,,,,,,,,,,,,,,,,,,,,,,,,,,,,,,,,,,,,,,,,,,,,,,,,,,,,,,,,,,,,,,,,,,,,,,,,,,,,,,,,,,,,,,,,,,,,,,,,,,,,,,,
1739354419.301257,1739354419.302095,2.000000,0.000000,3581.025635,3474.615479,3836.538574,2362.179443,3695.641113,3767.948730,3747.948730,4020.769287,3763.461426,3803.076904,2331.923096,3855.512939,3836.666748,3739.487061,5544.000000,1.000000,17.000000,,,,0.000000,4.000000,4.000000,4.000000,4.000000,4.000000,4.000000,4.000000,4.000000,4.000000,4.000000,4.000000,4.000000,4.000000,4.000000,100.000000,,,,,,,,,,,,,,,,,,,,,,,,,,,,,,,,,,,,,,,,,,,,,,,,,,,,,,,,,,,,,,,,,,,,,,,,,,,,,,,,,,,,,,,,,,,,,,,,,,,,,,,,,,,,,,,,,,,,,,,,,,,,,,,,,
1739354419.309065,1739354419.309803,3.000000,0.000000,3553.205078,3453.461426,3810.512939,2319.102539,3676.794922,3749.615479,3725.384521,4010.512939,3745.641113,3773.333252,2272.051270,3825.000000,3818.205078,3714.487061,5429.000000,1.000000,17.000000,,,,0.000000,4.000000,4.000000,4.000000,4.000000,4.000000,4.000000,4.000000,4.000000,4.000000,4.000000,4.000000,4.000000,4.000000,4.000000,100.000000,,,,,,,,,,,,,,,,,,,,,,,,,,,,,,,,,,,,,,,,,,,,,,,,,,,,,,,,,,,,,,,,,,,,,,,,,,,,,,,,,,,,,,,,,,,,,,,,,,,,,,,,,,,,,,,,,,,,,,,,,,,,,,,,,
1739354419.316873,1739354419.317611,4.000000,0.000000,3576.025635,3465.897461,3822.948730,2327.435791,3694.615479,3761.666748,3737.820557,4017.820557,3764.358887,3784.230713,2242.948730,3843.461426,3837.692383,3733.333252,5384.000000,1.000000,17.000000,,,,0.000000,4.000000,4.000000,4.000000,4.000000,4.000000,4.000000,4.000000,4.000000,4.000000,4.000000,4.000000,4.000000,4.000000,4.000000,100.000000,,,,,,,,,,,,,,,,,1.000000,0.000000,0.313307,0.523315,-0.458557,0.646301,0.943963,-0.257356,0.037114,-39.420467,-28.488178,43.902660,,,,,,,,,,,,,,,,,,,,,,,,,,,,,,,,,,,,,,,,,,,,,,,,,,,,,,,,,,,,,,,,,,,,,,,,,,,,,,,,,,,,,,,,,,,,,,,,,,,,,
1739354419.324681,1739354419.325319,5.000000,0.000000,3593.461426,3463.846191,3838.333252,2319.743652,3698.461426,3763.974365,3742.820557,4014.358887,3767.051270,3800.384521,2168.076904,3857.051270,3840.128174,3736.794922,5454.000000,1.000000,17.000000,,,,0.000000,4.000000,4.000000,4.000000,4.000000,4.000000,4.000000,4.000000,4.000000,4.000000,4.000000,4.000000,4.000000,4.000000,4.000000,100.000000,,,,,,,,,,,,,,,,,,,,,,,,,,,,,,,,,,,,,,,,,,,,,,,,,,,,,,,,,,,,,,,,,,,,,,,,,,,,,,,,,,,,,,,,,,,,,,,,,,,,,,,,,,,,,,,,,,,,,,,,,,,,,,,,,
1739354419.332489,1739354419.333127,6.000000,0.000000,3575.641113,3436.923096,3826.153809,2261.153809,3684.102539,3748.718018,3727.692383,3996.153809,3743.846191,3786.794922,2056.153809,3834.743652,3816.794922,3715.384521,5434.000000,1.000000,17.000000,,,,0.000000,4.000000,4.000000,4.000000,4.000000,4.000000,4.000000,4.000000,4.000000,4.000000,4.000000,4.000000,4.000000,4.000000,4.000000,100.000000,,,,,,,,,,,,,,,,,,,,,,,,,,,,,,,,,,,,,,,,,,,,,,,,,,,,,,,,,,,,,,,,,,,,,,,,,,,,,,,,,,,,,,,,,,,,,,,,,,,,,,,,,,,,,,,,,,,,,,,,,,,,,,,,,
1739354419.340297,1739354419.340835,7.000000,0.000000,3556.794922,3418.076904,3807.307617,2185.641113,3673.333252,3741.025635,3718.461426,3974.871826,3734.230713,3768.718018,1964.871826,3806.538574,3798.589844,3697.435791,2907.000000,1.000000,17.000000,,,,0.000000,4.000000,4.000000,4.000000,4.000000,4.000000,4.000000,4.000000,4.000000,4.000000,4.000000,4.000000,4.000000,4.000000,4.000000,100.000000,,,,,,,,,,,,,,,,,,,,,,,,,,,,,,,,,,,,,,,,,,,,,,,,,,,,,,,,,,,,,,,,,,,,,,,,,,,,,,,,,,,,,,,,,,,,,,,,,,,,,,,,,,,,,,,,,,,,,,,,,,,,,,,,,
1739354419.348106,1739354419.348643,8.000000,0.000000,3566.666748,3431.281982,3815.128174,2127.564209,3674.358887,3743.205078,3721.666748,3960.512939,3743.846191,3794.102539,1901.282104,3811.153809,3801.153809,3694.871826,5187.000000,1.000000,17.000000,,,,0.000000,4.000000,4.000000,4.000000,4.000000,4.000000,4.000000,4.000000,4.000000,4.000000,4.000000,4.000000,4.000000,4.000000,4.000000,100.000000,,,,,,,,,,,,,,,,,2.000000,0.000000,0.313757,0.523193,-0.458130,0.646484,0.968868,-0.249542,0.041509,-39.428421,-28.506027,43.929062,,,,,,,,,,,,,,,,,,,,,,,,,,,,,,,,,,,,,,,,,,,,,,,,,,,,,,,,,,,,,,,,,,,,,,,,,,,,,,,,,,,,,,,,,,,,,,,,,,,,,
1739354419.355914,1739354419.356351,9.000000,0.000000,3571.153809,3435.897461,3817.435791,2057.179443,3670.000000,3731.025635,3713.333252,3961.538574,3740.000000,3818.718018,1830.512817,3818.589844,3797.564209,3687.051270,5516.000000,1.000000,17.000000,,,,0.000000,4.000000,4.000000,4.000000,4.000000,4.000000,4.000000,4.000000,4.000000,4.000000,4.000000,4.000000,4.000000,4.000000,4.000000,100.000000,,,,,,,,,,,,,,,,,,,,,,,,,,,,,,,,,,,,,,,,,,,,,,,,,,,,,,,,,,,,,,,,,,,,,,,,,,,,,,,,,,,,,,,,,,,,,,,,,,,,,,,,,,,,,,,,,,,,,,,,,,,,,,,,,
1739354419.363721,1739354419.364159,10.000000,0.000000,3548.846191,3413.205078,3797.051270,1963.076904,3659.102539,3711.794922,3691.025635,3977.179443,3720.769287,3800.512939,1751.794922,3804.743652,3783.718018,3671.025635,5056.000000,1.000000,17.000000,,,,0.000000,4.000000,4.000000,4.000000,4.000000,4.000000,4.000000,4.000000,4.000000,4.000000,4.000000,4.000000,4.000000,4.000000,4.000000,100.000000,1.000000,0.000000,1.000000,1.000000,1.000000,0.000000,1.000000,0.000000,1.000000,1.000000,1.000000,1.000000,0.000000,1.000000,1.000000,1.000000,,,,,,,,,,,,,,,,,,,,,,,,,,,,,,,,,,,,,,,,,,,,1.507231,2.671176,3.929027,2.360903,4.363345,5.294118,2.493292,4.070146,1.793325,3.857316,1.030635,1.549644,3.750814,2.458015,4.733560,25.087244,10.271814,4.938328,3.891579,6.847511,1.186810,2.443354,1.966915,1.525066,3.303352,0.364171,0.932798,1.653398,2.176563,3.182356,0.474016,1.386480,3.901299,3.632003,6.414511,0.367722,0.324477,1.368389,0.636250,1.318523,0.520594,0.662943,2.976530,1.738801,3.953711,3.191441,3.170250,4.324229,3.911776,6.702145,36.440758,7.594140,8.706643,3.322551,5.694522,2.609214,1.749157,5.203820,3.690388,6.757181,1.549656,0.909096,3.496748,1.948849,4.236087,1.073267,1.335883,3.386385,1.998095,4.323196
1739354419.371530,1739354419.371867,11.000000,0.000000,3543.333252,3414.102539,3801.538574,1895.512817,3667.692383,3713.333252,3688.076904,3995.641113,3722.435791,3798.076904,1692.564087,3808.461426,3787.435791,3675.128174,5494.000000,1.000000,17.000000,,,,0.000000,4.000000,4.000000,4.000000,4.000000,4.000000,4.000000,4.000000,4.000000,4.000000,4.000000,4.000000,4.000000,4.000000,4.000000,100.000000,,,,,,,,,,,,,,,,,,,,,,,,,,,,,,,,,,,,,,,,,,,,,,,,,,,,,,,,,,,,,,,,,,,,,,,,,,,,,,,,,,,,,,,,,,,,,,,,,,,,,,,,,,,,,,,,,,,,,,,,,,,,,,,,,
1739354419.379338,1739354419.379675,12.000000,0.000000,3573.589844,3450.128174,3837.564209,1867.435913,3689.871826,3730.256348,3712.564209,4013.461426,3753.718018,3834.358887,1656.282104,3847.051270,3815.512939,3701.794922,5941.000000,1.000000,17.000000,,,,0.000000,4.000000,4.000000,4.000000,4.000000,4.000000,4.000000,4.000000,4.000000,4.000000,4.000000,4.000000,4.000000,4.000000,4.000000,100.000000,,,,,,,,,,,,,,,,,3.000000,0.000000,0.313661,0.522949,-0.458130,0.646729,0.963008,-0.260286,0.039556,-39.435577,-28.388758,43.902821,,,,,,,,,,,,,,,,,,,,,,,,,,,,,,,,,,,,,,,,,,,,,,,,,,,,,,,,,,,,,,,,,,,,,,,,,,,,,,,,,,,,,,,,,,,,,,,,,,,,,
1739354419.387146,1739354419.387383,13.000000,0.000000,3598.974365,3473.076904,3858.589844,1838.076904,3699.615479,3745.000000,3733.589844,4025.000000,3776.666748,3857.948730,1621.666626,3876.281982,3841.025635,3717.820557,6731.000000,1.000000,17.000000,,,,0.000000,4.000000,4.000000,4.000000,4.000000,4.000000,4.000000,4.000000,4.000000,4.000000,4.000000,4.000000,4.000000,4.000000,4.000000,100.000000,,,,,,,,,,,,,,,,,,,,,,,,,,,,,,,,,,,,,,,,,,,,,,,,,,,,,,,,,,,,,,,,,,,,,,,,,,,,,,,,,,,,,,,,,,,,,,,,,,,,,,,,,,,,,,,,,,,,,,,,,,,,,,,,,
1739354419.394954,1739354419.395291,14.000000,0.000000,3566.666748,3445.384521,3825.512939,1761.025635,3671.025635,3727.307617,3708.461426,4002.948730,3738.718018,3816.794922,1538.333374,3832.820557,3810.769287,3678.974365,5056.000000,1.000000,17.000000,,,,0.000000,4.000000,4.000000,4.000000,4.000000,4.000000,4.000000,4.000000,4.000000,4.000000,4.000000,4.000000,4.000000,4.000000,4.000000,100.000000,,,,,,,,,,,,,,,,,,,,,,,,,,,,,,,,,,,,,,,,,,,,,,,,,,,,,,,,,,,,,,,,,,,,,,,,,,,,,,,,,,,,,,,,,,,,,,,,,,,,,,,,,,,,,,,,,,,,,,,,,,,,,,,,,
1739354419.402762,1739354419.403100,15.000000,0.000000,3526.794922,3419.358887,3785.897461,1686.538452,3645.897461,3705.897461,3679.743652,3978.461426,3697.692383,3758.461426,1458.205078,3781.923096,3772.564209,3635.641113,5494.000000,1.000000,17.000000,,,,0.000000,4.000000,4.000000,4.000000,4.000000,4.000000,4.000000,4.000000,4.000000,4.000000,4.000000,4.000000,4.000000,4.000000,4.000000,100.000000,,,,,,,,,,,,,,,,,,,,,,,,,,,,,,,,,,,,,,,,,,,,,,,,,,,,,,,,,,,,,,,,,,,,,,,,,,,,,,,,,,,,,,,,,,,,,,,,,,,,,,,,,,,,,,,,,,,,,,,,,,,,,,,,,
1739354419.410570,1739354419.411007,16.000000,0.000000,3551.281982,3452.051270,3808.718018,1687.948730,3684.358887,3737.307617,3711.666748,3995.384521,3732.820557,3765.384521,1453.333374,3815.256348,3801.538574,3657.051270,0.000000,1.000000,17.000000,,,,0.000000,4.000000,4.000000,4.000000,4.000000,4.000000,4.000000,4.000000,4.000000,4.000000,4.000000,4.000000,4.000000,4.000000,4.000000,100.000000,,,,,,,,,,,,,,,,,4.000000,0.000000,0.313385,0.522888,-0.458130,0.646912,0.955195,-0.247100,0.024905,-39.425354,-28.549881,43.779205,,,,,,,,,,,,,,,,,,,,,,,,,,,,,,,,,,,,,,,,,,,,,,,,,,,,,,,,,,,,,,,,,,,,,,,,,,,,,,,,,,,,,,,,,,,,,,,,,,,,,
1739354419.418378,1739354419.418815,17.000000,0.000000,3592.179443,3497.307617,3852.692383,1708.717896,3728.718018,3776.538574,3747.820557,4017.820557,3779.102539,3800.000000,1469.615356,3866.923096,3844.615479,3693.461426,0.000000,1.000000,17.000000,,,,0.000000,4.000000,4.000000,4.000000,4.000000,4.000000,4.000000,4.000000,4.000000,4.000000,4.000000,4.000000,4.000000,4.000000,4.000000,100.000000,,,,,,,,,,,,,,,,,,,,,,,,,,,,,,,,,,,,,,,,,,,,,,,,,,,,,,,,,,,,,,,,,,,,,,,,,,,,,,,,,,,,,,,,,,,,,,,,,,,,,,,,,,,,,,,,,,,,,,,,,,,,,,,,,
1739354419.426186,1739354419.426723,18.000000,0.000000,3576.025635,3484.743652,3839.615479,1668.333374,3708.718018,3756.025635,3721.538574,4001.794922,3756.538574,3770.769287,1433.846191,3843.846191,3826.538574,3669.615479,0.000000,1.000000,17.000000,,,,0.000000,4.000000,4.000000,4.000000,4.000000,4.000000,4.000000,4.000000,4.000000,4.000000,4.000000,4.000000,4.000000,4.000000,4.000000,100.000000,,,,,,,,,,,,,,,,,,,,,,,,,,,,,,,,,,,,,,,,,,,,,,,,,,,,,,,,,,,,,,,,,,,,,,,,,,,,,,,,,,,,,,,,,,,,,,,,,,,,,,,,,,,,,,,,,,,,,,,,,,,,,,,,,
1739354419.433994,1739354419.434531,19.000000,0.000000,3567.820557,3479.487061,3829.358887,1648.333374,3694.102539,3745.128174,3708.589844,3991.923096,3741.794922,3734.487061,1409.487183,3829.230713,3812.051270,3653.589844,0.000000,1.000000,17.000000,,,,0.000000,4.000000,4.000000,4.000000,4.000000,4.000000,4.000000,4.000000,4.000000,4.000000,4.000000,4.000000,4.000000,4.000000,4.000000,100.000000,,,,,,,,,,,,,,,,,,,,,,,,,,,,,,,,,,,,,,,,,,,,,,,,,,,,,,,,,,,,,,,,,,,,,,,,,,,,,,,,,,,,,,,,,,,,,,,,,,,,,,,,,,,,,,,,,,,,,,,,,,,,,,,,,
1739354419.441802,1739354419.442439,20.000000,0.000000,3622.820557,3539.230713,3884.102539,1706.666626,3743.589844,3797.692383,3763.205078,4021.666748,3790.641113,3766.538574,1447.948730,3891.666748,3857.051270,3707.051270,0.000000,1.000000,17.000000,,,,0.000000,4.000000,4.000000,4.000000,4.000000,4.000000,4.000000,4.000000,4.000000,4.000000,4.000000,4.000000,4.000000,4.000000,4.000000,100.000000,,,,,,,,,,,,,,,,,5.000000,0.000000,0.313615,0.523071,-0.457764,0.646912,0.953241,-0.266634,0.031254,-39.449486,-28.661560,43.834618,,,,,,,,,,,,,,,,,,,,,,,,,,,,,,,,,,,,,,,,,,,,,,,,,,,,,,,,,,,,,,,,,,,,,,,,,,,,,,,,,,,,,,,,,,,,,,,,,,,,,
1739354419.449610,1739354419.450247,21.000000,0.000000,3647.179443,3574.487061,3912.692383,1737.435913,3771.025635,3829.615479,3790.897461,4035.256348,3812.948730,3782.948730,1463.589722,3923.589844,3877.692383,3733.076904,0.000000,1.000000,17.000000,,,,0.000000,4.000000,4.000000,4.000000,4.000000,4.000000,4.000000,4.000000,4.000000,4.000000,4.000000,4.000000,4.000000,4.000000,4.000000,100.000000,,,,,,,,,,,,,,,,,,,,,,,,,,,,,,,,,,,,,,,,,,,,,,,,,,,,,,,,,,,,,,,,,,,,,,,,,,,,,,,,,,,,,,,,,,,,,,,,,,,,,,,,,,,,,,,,,,,,,,,,,,,,,,,,,
1739354419.457419,1739354419.457955,22.000000,0.000000,3609.102539,3551.281982,3882.179443,1714.230713,3746.153809,3809.615479,3762.564209,4016.923096,3785.512939,3746.410156,1432.307739,3885.000000,3847.692383,3693.205078,0.000000,1.000000,17.000000,,,,0.000000,4.000000,4.000000,4.000000,4.000000,4.000000,4.000000,4.000000,4.000000,4.000000,4.000000,4.000000,4.000000,4.000000,4.000000,100.000000,,,,,,,,,,,,,,,,,,,,,,,,,,,,,,,,,,,,,,,,,,,,,,,,,,,,,,,,,,,,,,,,,,,,,,,,,,,,,,,,,,,,,,,,,,,,,,,,,,,,,,,,,,,,,,,,,,,,,,,,,,,,,,,,,
1739354419.465227,1739354419.465763,23.000000,0.000000,3600.641113,3554.615479,3878.589844,1727.307739,3745.384521,3812.051270,3766.923096,4015.512939,3791.153809,3736.923096,1436.923096,3876.666748,3844.487061,3682.692383,0.000000,1.000000,17.000000,,,,0.000000,4.000000,4.000000,4.000000,4.000000,4.000000,4.000000,4.000000,4.000000,4.000000,4.000000,4.000000,4.000000,4.000000,4.000000,100.000000,,,,,,,,,,,,,,,,,,,,,,,,,,,,,,,,,,,,,,,,,,,,,,,,,,,,,,,,,,,,,,,,,,,,,,,,,,,,,,,,,,,,,,,,,,,,,,,,,,,,,,,,,,,,,,,,,,,,,,,,,,,,,,,,,
1739354419.473035,1739354419.473471,24.000000,0.000000,3609.871826,3570.769287,3887.307617,1751.923096,3752.307617,3826.666748,3785.512939,4021.923096,3806.923096,3738.846191,1459.615356,3885.769287,3847.435791,3690.256348,0.000000,1.000000,17.000000,,,,0.000000,4.000000,4.000000,4.000000,4.000000,4.000000,4.000000,4.000000,4.000000,4.000000,4.000000,4.000000,4.000000,4.000000,4.000000,100.000000,,,,,,,,,,,,,,,,,6.000000,0.000000,0.313986,0.523071,-0.457336,0.647034,0.975705,-0.261262,0.047369,-39.454536,-28.528738,43.817825,,,,,,,,,,,,,,,,,,,,,,,,,,,,,,,,,,,,,,,,,,,,,,,,,,,,,,,,,,,,,,,,,,,,,,,,,,,,,,,,,,,,,,,,,,,,,,,,,,,,,
1739354419.480843,1739354419.481279,25.000000,0.000000,3600.641113,3566.794922,3879.487061,1758.076904,3751.666748,3829.358887,3783.076904,4018.076904,3802.051270,3724.871826,1466.153809,3876.153809,3828.974365,3674.871826,0.000000,1.000000,17.000000,,,,0.000000,4.000000,4.000000,4.000000,4.000000,4.000000,4.000000,4.000000,4.000000,4.000000,4.000000,4.000000,4.000000,4.000000,4.000000,100.000000,,,,,,,,,,,,,,,,,,,,,,,,,,,,,,,,,,,,,,,,,,,,,,,,,,,,,,,,,,,,,,,,,,,,,,,,,,,,,,,,,,,,,,,,,,,,,,,,,,,,,,,,,,,,,,,,,,,,,,,,,,,,,,,,,
1739354419.488651,1739354419.488987,26.000000,0.000000,3611.281982,3582.435791,3890.512939,1791.923096,3776.410156,3849.615479,3797.564209,4022.692383,3814.743652,3729.358887,1492.820557,3890.512939,3834.358887,3680.128174,0.000000,1.000000,17.000000,,,,0.000000,4.000000,4.000000,4.000000,4.000000,4.000000,4.000000,4.000000,4.000000,4.000000,4.000000,4.000000,4.000000,4.000000,4.000000,100.000000,,,,,,,,,,,,,,,,,,,,,,,,,,,,,,,,,,,,,,,,,,,,,,,,,,,,,,,,,,,,1.689598,2.130140,2.549674,2.581806,4.042545,5.881028,2.059933,3.013952,1.816022,3.355079,1.149812,1.083711,2.714747,2.730365,4.392264,29.870300,12.460512,6.145072,4.805189,6.470303,1.514596,2.249919,1.559650,1.394885,3.161522,0.697837,1.070231,1.464900,2.041073,2.889065,0.811485,1.490320,3.441373,3.968902,5.879565,0.522728,0.357559,1.344777,0.659683,1.203537,0.958026,0.585531,2.311707,1.850966,3.601830,3.027489,3.039417,3.515811,4.428480,6.672807,35.514877,7.898179,6.136872,3.323515,5.241881,2.803439,1.197523,3.619885,3.980570,6.251749,1.438244,1.246802,2.314856,2.129265,3.916829,1.274750,1.170580,2.291779,2.198820,3.955832
1739354419.496459,1739354419.496795,27.000000,0.000000,3638.718018,3613.333252,3911.923096,1834.871826,3802.179443,3877.307617,3828.461426,4034.230713,3835.384521,3742.564209,1536.410278,3919.102539,3859.743652,3705.769287,0.000000,1.000000,17.000000,,,,0.000000,4.000000,4.000000,4.000000,4.000000,4.000000,4.000000,4.000000,4.000000,4.000000,4.000000,4.000000,4.000000,4.000000,4.000000,100.000000,,,,,,,,,,,,,,,,,,,,,,,,,,,,,,,,,,,,,,,,,,,,,,,,,,,,,,,,,,,,,,,,,,,,,,,,,,,,,,,,,,,,,,,,,,,,,,,,,,,,,,,,,,,,,,,,,,,,,,,,,,,,,,,,,
1739354419.504267,1739354419.504503,28.000000,0.000000,3655.256348,3635.128174,3924.871826,1858.717896,3805.512939,3893.461426,3845.897461,4036.923096,3839.871826,3740.897461,1564.743530,3932.948730,3866.153809,3714.615479,0.000000,1.000000,17.000000,,,,0.000000,4.000000,4.000000,4.000000,4.000000,4.000000,4.000000,4.000000,4.000000,4.000000,4.000000,4.000000,4.000000,4.000000,4.000000,100.000000,,,,,,,,,,,,,,,,,7.000000,0.000000,0.313866,0.522583,-0.457458,0.647400,0.971798,-0.280796,0.042486,-39.442417,-28.559196,43.786041,,,,,,,,,,,,,,,,,,,,,,,,,,,,,,,,,,,,,,,,,,,,,,,,,,,,,,,,,,,,,,,,,,,,,,,,,,,,,,,,,,,,,,,,,,,,,,,,,,,,,
1739354419.512075,1739354419.512311,29.000000,0.000000,3653.846191,3640.000000,3922.435791,1866.282104,3803.076904,3891.666748,3835.897461,4031.666748,3833.205078,3729.743652,1581.923096,3928.974365,3854.615479,3705.256348,0.000000,1.000000,17.000000,,,,0.000000,4.000000,4.000000,4.000000,4.000000,4.000000,4.000000,4.000000,4.000000,4.000000,4.000000,4.000000,4.000000,4.000000,4.000000,100.000000,,,,,,,,,,,,,,,,,,,,,,,,,,,,,,,,,,,,,,,,,,,,,,,,,,,,,,,,,,,,,,,,,,,,,,,,,,,,,,,,,,,,,,,,,,,,,,,,,,,,,,,,,,,,,,,,,,,,,,,,,,,,,,,,,
1739354419.519883,1739354419.520019,30.000000,0.000000,3642.948730,3630.128174,3909.102539,1865.000000,3805.256348,3881.923096,3818.974365,4026.794922,3825.512939,3723.461426,1608.846191,3919.615479,3846.923096,3696.153809,0.000000,1.000000,17.000000,,,,0.000000,4.000000,4.000000,4.000000,4.000000,4.000000,4.000000,4.000000,4.000000,4.000000,4.000000,4.000000,4.000000,4.000000,4.000000,100.000000,,,,,,,,,,,,,,,,,,,,,,,,,,,,,,,,,,,,,,,,,,,,,,,,,,,,,,,,,,,,,,,,,,,,,,,,,,,,,,,,,,,,,,,,,,,,,,,,,,,,,,,,,,,,,,,,,,,,,,,,,,,,,,,,,
1739354419.527691,1739354419.527827,31.000000,0.000000,3660.897461,3646.538574,3927.692383,1893.076904,3818.846191,3898.718018,3839.871826,4037.820557,3843.718018,3740.256348,1673.717896,3941.538574,3867.564209,3716.538574,0.000000,1.000000,17.000000,,,,0.000000,4.000000,4.000000,4.000000,4.000000,4.000000,4.000000,4.000000,4.000000,4.000000,4.000000,4.000000,4.000000,4.000000,4.000000,100.000000,,,,,,,,,,,,,,,,,,,,,,,,,,,,,,,,,,,,,,,,,,,,,,,,,,,,,,,,,,,,,,,,,,,,,,,,,,,,,,,,,,,,,,,,,,,,,,,,,,,,,,,,,,,,,,,,,,,,,,,,,,,,,,,,,
1739354419.535499,1739354419.535535,32.000000,0.000000,3713.718018,3699.358887,3978.718018,1961.282104,3856.923096,3947.179443,3891.666748,4059.871826,3887.307617,3770.000000,1765.256470,3998.718018,3910.512939,3761.153809,0.000000,1.000000,17.000000,,,,0.000000,4.000000,4.000000,4.000000,4.000000,4.000000,4.000000,4.000000,4.000000,4.000000,4.000000,4.000000,4.000000,4.000000,4.000000,100.000000,,,,,,,,,,,,,,,,,8.000000,0.000000,0.313889,0.522400,-0.457825,0.647278,0.951776,-0.289098,0.029300,-39.514843,-28.669945,43.707436,,,,,,,,,,,,,,,,,,,,,,,,,,,,,,,,,,,,,,,,,,,,,,,,,,,,,,,,,,,,,,,,,,,,,,,,,,,,,,,,,,,,,,,,,,,,,,,,,,,,,
1739354419.543307,1739354419.543343,33.000000,0.000000,3732.307617,3723.205078,3988.846191,1998.461548,3874.615479,3967.435791,3904.230713,4061.410156,3896.538574,3773.718018,1815.769287,4014.615479,3917.179443,3770.256348,0.000000,1.000000,17.000000,,,,0.000000,4.000000,4.000000,4.000000,4.000000,4.000000,4.000000,4.000000,4.000000,4.000000,4.000000,4.000000,4.000000,4.000000,4.000000,100.000000,,,,,,,,,,,,,,,,,,,,,,,,,,,,,,,,,,,,,,,,,,,,,,,,,,,,,,,,,,,,,,,,,,,,,,,,,,,,,,,,,,,,,,,,,,,,,,,,,,,,,,,,,,,,,,,,,,,,,,,,,,,,,,,,,
1739354419.551115,1739354419.551051,34.000000,0.000000,3709.487061,3709.871826,3966.666748,1991.923096,3856.410156,3951.794922,3886.794922,4047.564209,3878.718018,3759.358887,1833.333374,3988.333252,3891.281982,3749.358887,0.000000,1.000000,17.000000,,,,0.000000,4.000000,4.000000,4.000000,4.000000,4.000000,4.000000,4.000000,4.000000,4.000000,4.000000,4.000000,4.000000,4.000000,4.000000,100.000000,,,,,,,,,,,,,,,,,,,,,,,,,,,,,,,,,,,,,,,,,,,,,,,,,,,,,,,,,,,,,,,,,,,,,,,,,,,,,,,,,,,,,,,,,,,,,,,,,,,,,,,,,,,,,,,,,,,,,,,,,,,,,,,,,
1739354419.558924,1739354419.558960,35.000000,0.000000,3726.153809,3733.974365,3989.487061,2022.564087,3873.461426,3972.948730,3910.256348,4054.358887,3902.307617,3776.025635,1891.153809,4013.333252,3905.384521,3765.512939,0.000000,1.000000,17.000000,,,,0.000000,4.000000,4.000000,4.000000,4.000000,4.000000,4.000000,4.000000,4.000000,4.000000,4.000000,4.000000,4.000000,4.000000,4.000000,100.000000,,,,,,,,,,,,,,,,,,,,,,,,,,,,,,,,,,,,,,,,,,,,,,,,,,,,,,,,,,,,,,,,,,,,,,,,,,,,,,,,,,,,,,,,,,,,,,,,,,,,,,,,,,,,,,,,,,,,,,,,,,,,,,,,,
1739354419.566732,1739354419.566768,36.000000,0.000000,3770.384521,3780.384521,4029.615479,2080.512939,3916.794922,4012.948730,3945.769287,4072.179443,3937.435791,3812.692383,1956.153809,4059.358887,3938.205078,3799.487061,0.000000,1.000000,17.000000,,,,0.000000,4.000000,4.000000,4.000000,4.000000,4.000000,4.000000,4.000000,4.000000,4.000000,4.000000,4.000000,4.000000,4.000000,4.000000,100.000000,,,,,,,,,,,,,,,,,9.000000,0.000000,0.314137,0.522522,-0.457947,0.646973,0.954706,-0.269076,0.040044,-39.480022,-28.702950,43.836693,,,,,,,,,,,,,,,,,,,,,,,,,,,,,,,,,,,,,,,,,,,,,,,,,,,,,,,,,,,,,,,,,,,,,,,,,,,,,,,,,,,,,,,,,,,,,,,,,,,,,
1739354419.574540,1739354419.574676,37.000000,0.000000,3778.076904,3789.230713,4032.564209,2103.333252,3918.333252,4017.820557,3949.358887,4073.718018,3935.128174,3820.769287,1969.487183,4060.512939,3934.743652,3803.974365,0.000000,1.000000,17.000000,,,,0.000000,4.000000,4.000000,4.000000,4.000000,4.000000,4.000000,4.000000,4.000000,4.000000,4.000000,4.000000,4.000000,4.000000,4.000000,100.000000,,,,,,,,,,,,,,,,,,,,,,,,,,,,,,,,,,,,,,,,,,,,,,,,,,,,,,,,,,,,,,,,,,,,,,,,,,,,,,,,,,,,,,,,,,,,,,,,,,,,,,,,,,,,,,,,,,,,,,,,,,,,,,,,,
1739354419.582348,1739354419.582484,38.000000,0.000000,3757.564209,3771.666748,4015.512939,2103.461426,3896.666748,4005.512939,3939.230713,4061.923096,3924.102539,3804.615479,1961.666626,4042.179443,3919.102539,3790.000000,0.000000,1.000000,17.000000,,,,0.000000,4.000000,4.000000,4.000000,4.000000,4.000000,4.000000,4.000000,4.000000,4.000000,4.000000,4.000000,4.000000,4.000000,4.000000,100.000000,,,,,,,,,,,,,,,,,,,,,,,,,,,,,,,,,,,,,,,,,,,,,,,,,,,,,,,,,,,,,,,,,,,,,,,,,,,,,,,,,,,,,,,,,,,,,,,,,,,,,,,,,,,,,,,,,,,,,,,,,,,,,,,,,
1739354419.590156,1739354419.590392,39.000000,0.000000,3755.512939,3774.230713,4016.410156,2123.589844,3905.512939,4013.974365,3942.564209,4063.589844,3935.128174,3806.410156,1974.102539,4046.410156,3924.871826,3785.128174,0.000000,1.000000,17.000000,,,,0.000000,4.000000,4.000000,4.000000,4.000000,4.000000,4.000000,4.000000,4.000000,4.000000,4.000000,4.000000,4.000000,4.000000,4.000000,100.000000,,,,,,,,,,,,,,,,,,,,,,,,,,,,,,,,,,,,,,,,,,,,,,,,,,,,,,,,,,,,,,,,,,,,,,,,,,,,,,,,,,,,,,,,,,,,,,,,,,,,,,,,,,,,,,,,,,,,,,,,,,,,,,,,,
1739354419.597964,1739354419.598200,40.000000,0.000000,3779.230713,3804.358887,4037.307617,2164.102539,3932.564209,4037.435791,3961.794922,4081.410156,3953.589844,3831.025635,2001.153809,4073.589844,3938.333252,3800.512939,0.000000,1.000000,17.000000,,,,0.000000,4.000000,4.000000,4.000000,4.000000,4.000000,4.000000,4.000000,4.000000,4.000000,4.000000,4.000000,4.000000,4.000000,4.000000,100.000000,,,,,,,,,,,,,,,,,10.000000,0.000000,0.314790,0.522400,-0.458069,0.646667,0.966915,-0.283726,0.041997,-39.448689,-28.699322,43.703026,,,,,,,,,,,,,,,,,,,,,,,,,,,,,,,,,,,,,,,,,,,,,,,,,,,,,,,,,,,,,,,,,,,,,,,,,,,,,,,,,,,,,,,,,,,,,,,,,,,,,
1739354419.605772,1739354419.606108,41.000000,0.000000,3794.358887,3821.538574,4049.230713,2187.435791,3943.076904,4048.333252,3977.692383,4090.000000,3963.333252,3850.897461,2021.282104,4092.692383,3945.256348,3817.435791,0.000000,1.000000,17.000000,,,,0.000000,4.000000,4.000000,4.000000,4.000000,4.000000,4.000000,4.000000,4.000000,4.000000,4.000000,4.000000,4.000000,4.000000,4.000000,100.000000,,,,,,,,,,,,,,,,,,,,,,,,,,,,,,,,,,,,,,,,,,,,,,,,,,,,,,,,,,,,,,,,,,,,,,,,,,,,,,,,,,,,,,,,,,,,,,,,,,,,,,,,,,,,,,,,,,,,,,,,,,,,,,,,,
1739354419.613580,1739354419.613916,42.000000,0.000000,3792.435791,3821.281982,4044.102539,2193.461426,3941.025635,4045.000000,3974.487061,4079.615479,3961.025635,3851.794922,2019.615356,4087.692383,3945.769287,3813.718018,0.000000,1.000000,17.000000,,,,0.000000,4.000000,4.000000,4.000000,4.000000,4.000000,4.000000,4.000000,4.000000,4.000000,4.000000,4.000000,4.000000,4.000000,4.000000,100.000000,,,,,,,,,,,,,,,,,,,,,,,,,,,,,,,,,,,,,,,,,,,,,,,,,,,,,,,,,,,,3.126870,1.785894,1.669047,2.845682,3.700592,6.170688,1.812998,2.195091,1.868643,2.841191,2.331186,0.777273,2.085996,3.035659,3.974417,34.276077,14.843476,7.484547,5.663296,5.954767,2.577725,1.975968,1.201266,1.297980,3.116848,2.097210,1.263848,1.291596,1.844512,2.671324,2.302688,1.626916,2.924067,4.161863,5.223780,0.877990,0.399896,1.236972,0.675821,1.100744,2.572447,0.568738,1.760152,1.927211,3.279399,3.761126,2.822743,2.969813,4.805099,6.316098,32.645794,9.109403,4.892333,3.664810,4.787783,4.756751,0.814677,2.609500,4.316079,5.691329,2.199793,1.668846,1.401638,2.325816,3.520546,2.167161,1.129728,1.570862,2.478215,3.554881
1739354419.621388,1739354419.621824,43.000000,0.000000,3793.076904,3831.538574,4041.025635,2207.948730,3938.076904,4040.256348,3964.358887,4067.948730,3952.564209,3840.000000,2007.820557,4078.461426,3943.076904,3804.871826,0.000000,1.000000,17.000000,,,,0.000000,4.000000,4.000000,4.000000,4.000000,4.000000,4.000000,4.000000,4.000000,4.000000,4.000000,4.000000,4.000000,4.000000,4.000000,100.000000,,,,,,,,,,,,,,,,,,,,,,,,,,,,,,,,,,,,,,,,,,,,,,,,,,,,,,,,,,,,,,,,,,,,,,,,,,,,,,,,,,,,,,,,,,,,,,,,,,,,,,,,,,,,,,,,,,,,,,,,,,,,,,,,,
1739354419.629196,1739354419.629632,44.000000,0.000000,3812.307617,3858.718018,4059.102539,2237.051270,3955.000000,4061.538574,3983.974365,4080.512939,3970.384521,3855.256348,2026.794922,4104.230957,3961.153809,3825.769287,0.000000,1.000000,17.000000,,,,0.000000,4.000000,4.000000,4.000000,4.000000,4.000000,4.000000,4.000000,4.000000,4.000000,4.000000,4.000000,4.000000,4.000000,4.000000,100.000000,,,,,,,,,,,,,,,,,11.000000,0.000000,0.315077,0.522400,-0.458130,0.646484,0.982053,-0.271518,0.043951,-39.453819,-28.612722,43.699387,,,,,,,,,,,,,,,,,,,,,,,,,,,,,,,,,,,,,,,,,,,,,,,,,,,,,,,,,,,,,,,,,,,,,,,,,,,,,,,,,,,,,,,,,,,,,,,,,,,,,
1739354419.637004,1739354419.637440,45.000000,0.000000,3837.820557,3886.923096,4088.076904,2271.538574,3992.564209,4099.102539,4024.871826,4103.333496,4006.666748,3895.000000,2056.025635,4142.692383,3988.076904,3858.205078,0.000000,1.000000,17.000000,,,,0.000000,4.000000,4.000000,4.000000,4.000000,4.000000,4.000000,4.000000,4.000000,4.000000,4.000000,4.000000,4.000000,4.000000,4.000000,100.000000,,,,,,,,,,,,,,,,,,,,,,,,,,,,,,,,,,,,,,,,,,,,,,,,,,,,,,,,,,,,,,,,,,,,,,,,,,,,,,,,,,,,,,,,,,,,,,,,,,,,,,,,,,,,,,,,,,,,,,,,,,,,,,,,,
1739354419.644812,1739354419.645248,46.000000,0.000000,3836.538574,3898.333252,4086.025635,2286.794922,4001.794922,4099.487305,4026.923096,4096.153809,4006.410156,3897.051270,2044.102539,4137.436035,3981.794922,3853.333252,0.000000,1.000000,17.000000,,,,0.000000,4.000000,4.000000,4.000000,4.000000,4.000000,4.000000,4.000000,4.000000,4.000000,4.000000,4.000000,4.000000,4.000000,4.000000,100.000000,,,,,,,,,,,,,,,,,,,,,,,,,,,,,,,,,,,,,,,,,,,,,,,,,,,,,,,,,,,,,,,,,,,,,,,,,,,,,,,,,,,,,,,,,,,,,,,,,,,,,,,,,,,,,,,,,,,,,,,,,,,,,,,,,
1739354419.652620,1739354419.652956,47.000000,0.000000,3819.102539,3893.718018,4066.538574,2285.641113,3987.179443,4082.435791,4003.461426,4083.333252,3991.025635,3878.333252,2023.076904,4116.538574,3967.564209,3832.564209,0.000000,1.000000,17.000000,,,,0.000000,4.000000,4.000000,4.000000,4.000000,4.000000,4.000000,4.000000,4.000000,4.000000,4.000000,4.000000,4.000000,4.000000,4.000000,100.000000,,,,,,,,,,,,,,,,,,,,,,,,,,,,,,,,,,,,,,,,,,,,,,,,,,,,,,,,,,,,,,,,,,,,,,,,,,,,,,,,,,,,,,,,,,,,,,,,,,,,,,,,,,,,,,,,,,,,,,,,,,,,,,,,,
1739354419.660428,1739354419.660764,48.000000,0.000000,3821.153809,3893.461426,4073.718018,2299.230713,3997.820557,4095.512939,4014.102539,4098.205078,4008.333252,3893.333252,2027.948730,4130.897461,3977.692383,3841.666748,0.000000,1.000000,17.000000,,,,0.000000,4.000000,4.000000,4.000000,4.000000,4.000000,4.000000,4.000000,4.000000,4.000000,4.000000,4.000000,4.000000,4.000000,4.000000,100.000000,,,,,,,,,,,,,,,,,12.000000,0.000000,0.315590,0.522339,-0.458191,0.646240,0.964962,-0.257844,0.040532,-39.475105,-28.668118,43.796116,,,,,,,,,,,,,,,,,,,,,,,,,,,,,,,,,,,,,,,,,,,,,,,,,,,,,,,,,,,,,,,,,,,,,,,,,,,,,,,,,,,,,,,,,,,,,,,,,,,,,
1739354419.668237,1739354419.668472,49.000000,0.000000,3840.897461,3911.153809,4094.358887,2332.051270,4019.230713,4118.333496,4040.384521,4109.358887,4026.666748,3918.205078,2041.923096,4157.436035,3987.435791,3862.051270,0.000000,1.000000,17.000000,,,,0.000000,4.000000,4.000000,4.000000,4.000000,4.000000,4.000000,4.000000,4.000000,4.000000,4.000000,4.000000,4.000000,4.000000,4.000000,100.000000,,,,,,,,,,,,,,,,,,,,,,,,,,,,,,,,,,,,,,,,,,,,,,,,,,,,,,,,,,,,,,,,,,,,,,,,,,,,,,,,,,,,,,,,,,,,,,,,,,,,,,,,,,,,,,,,,,,,,,,,,,,,,,,,,
1739354419.676045,1739354419.676280,50.000000,0.000000,3853.974365,3932.820557,4097.307617,2358.333252,4017.179443,4121.282227,4041.794922,4099.487305,4015.384521,3915.897461,2048.846191,4159.615234,3981.025635,3861.410156,0.000000,1.000000,17.000000,,,,0.000000,4.000000,4.000000,4.000000,4.000000,4.000000,4.000000,4.000000,4.000000,4.000000,4.000000,4.000000,4.000000,4.000000,4.000000,100.000000,,,,,,,,,,,,,,,,,,,,,,,,,,,,,,,,,,,,,,,,,,,,,,,,,,,,,,,,,,,,,,,,,,,,,,,,,,,,,,,,,,,,,,,,,,,,,,,,,,,,,,,,,,,,,,,,,,,,,,,,,,,,,,,,,
1739354419.683853,1739354419.683988,51.000000,0.000000,3858.718018,3946.025635,4096.922852,2376.794922,4014.487061,4124.615234,4038.589844,4099.358887,4010.641113,3915.512939,2059.358887,4158.461426,3982.692383,3861.923096,0.000000,1.000000,17.000000,,,,0.000000,4.000000,4.000000,4.000000,4.000000,4.000000,4.000000,4.000000,4.000000,4.000000,4.000000,4.000000,4.000000,4.000000,4.000000,100.000000,,,,,,,,,,,,,,,,,,,,,,,,,,,,,,,,,,,,,,,,,,,,,,,,,,,,,,,,,,,,,,,,,,,,,,,,,,,,,,,,,,,,,,,,,,,,,,,,,,,,,,,,,,,,,,,,,,,,,,,,,,,,,,,,,
1739354419.691661,1739354419.691796,52.000000,0.000000,3855.769287,3943.589844,4098.461426,2390.897461,4027.051270,4127.436035,4040.769287,4107.051270,4025.897461,3928.718018,2077.435791,4168.846191,3993.076904,3870.769287,0.000000,1.000000,17.000000,,,,0.000000,4.000000,4.000000,4.000000,4.000000,4.000000,4.000000,4.000000,4.000000,4.000000,4.000000,4.000000,4.000000,4.000000,4.000000,100.000000,,,,,,,,,,,,,,,,,13.000000,0.000000,0.315748,0.522095,-0.458618,0.646057,0.974240,-0.276401,0.048834,-39.460926,-28.717972,43.716503,,,,,,,,,,,,,,,,,,,,,,,,,,,,,,,,,,,,,,,,,,,,,,,,,,,,,,,,,,,,,,,,,,,,,,,,,,,,,,,,,,,,,,,,,,,,,,,,,,,,,
1739354419.699469,1739354419.699504,53.000000,0.000000,3845.128174,3933.846191,4089.358887,2395.384521,4029.487061,4116.410156,4029.487061,4101.666504,4027.051270,3927.179443,2088.846191,4163.333496,3987.948730,3860.000000,0.000000,1.000000,17.000000,,,,0.000000,4.000000,4.000000,4.000000,4.000000,4.000000,4.000000,4.000000,4.000000,4.000000,4.000000,4.000000,4.000000,4.000000,4.000000,100.000000,,,,,,,,,,,,,,,,,,,,,,,,,,,,,,,,,,,,,,,,,,,,,,,,,,,,,,,,,,,,,,,,,,,,,,,,,,,,,,,,,,,,,,,,,,,,,,,,,,,,,,,,,,,,,,,,,,,,,,,,,,,,,,,,,
1739354419.707277,1739354419.707312,54.000000,0.000000,3862.307617,3960.128174,4103.333496,2429.615479,4041.538574,4133.077148,4039.743652,4104.743652,4026.025635,3928.589844,2113.718018,4169.102539,3997.307617,3865.256348,0.000000,1.000000,17.000000,,,,0.000000,4.000000,4.000000,4.000000,4.000000,4.000000,4.000000,4.000000,4.000000,4.000000,4.000000,4.000000,4.000000,4.000000,4.000000,100.000000,,,,,,,,,,,,,,,,,,,,,,,,,,,,,,,,,,,,,,,,,,,,,,,,,,,,,,,,,,,,,,,,,,,,,,,,,,,,,,,,,,,,,,,,,,,,,,,,,,,,,,,,,,,,,,,,,,,,,,,,,,,,,,,,,
1739354419.715085,1739354419.715020,55.000000,0.000000,3906.794922,4015.384521,4139.487305,2499.743652,4077.051270,4176.153809,4083.718018,4126.794922,4054.358887,3961.281982,2165.256348,4213.974121,4035.769287,3908.461426,0.000000,1.000000,17.000000,,,,0.000000,4.000000,4.000000,4.000000,4.000000,4.000000,4.000000,4.000000,4.000000,4.000000,4.000000,4.000000,4.000000,4.000000,4.000000,100.000000,,,,,,,,,,,,,,,,,,,,,,,,,,,,,,,,,,,,,,,,,,,,,,,,,,,,,,,,,,,,,,,,,,,,,,,,,,,,,,,,,,,,,,,,,,,,,,,,,,,,,,,,,,,,,,,,,,,,,,,,,,,,,,,,,
1739354419.722893,1739354419.722928,56.000000,0.000000,3923.076904,4034.743652,4150.000000,2540.256348,4093.461426,4185.769043,4100.641113,4136.794922,4082.051270,3991.281982,2203.461426,4241.538574,4056.025635,3928.205078,0.000000,1.000000,17.000000,,,,0.000000,4.000000,4.000000,4.000000,4.000000,4.000000,4.000000,4.000000,4.000000,4.000000,4.000000,4.000000,4.000000,4.000000,4.000000,100.000000,,,,,,,,,,,,,,,,,14.000000,0.000000,0.315747,0.521851,-0.459412,0.645691,0.987914,-0.275424,0.041997,-39.364834,-28.729507,43.778187,,,,,,,,,,,,,,,,,,,,,,,,,,,,,,,,,,,,,,,,,,,,,,,,,,,,,,,,,,,,,,,,,,,,,,,,,,,,,,,,,,,,,,,,,,,,,,,,,,,,,
1739354419.730701,1739354419.730736,57.000000,0.000000,3897.820557,4009.230713,4132.436035,2537.307617,4073.846191,4163.077148,4078.846191,4122.820313,4068.589844,3978.718018,2198.076904,4216.410156,4037.307617,3903.589844,0.000000,1.000000,17.000000,,,,0.000000,4.000000,4.000000,4.000000,4.000000,4.000000,4.000000,4.000000,4.000000,4.000000,4.000000,4.000000,4.000000,4.000000,4.000000,100.000000,,,,,,,,,,,,,,,,,,,,,,,,,,,,,,,,,,,,,,,,,,,,,,,,,,,,,,,,,,,,,,,,,,,,,,,,,,,,,,,,,,,,,,,,,,,,,,,,,,,,,,,,,,,,,,,,,,,,,,,,,,,,,,,,,
1739354419.738509,1739354419.738644,58.000000,0.000000,3888.333252,4004.743652,4127.563965,2549.871826,4063.461426,4169.230957,4078.333252,4120.384766,4052.948730,3961.025635,2198.589844,4201.794922,4029.102539,3896.794922,0.000000,1.000000,17.000000,,,,0.000000,4.000000,4.000000,4.000000,4.000000,4.000000,4.000000,4.000000,4.000000,4.000000,4.000000,4.000000,4.000000,4.000000,4.000000,100.000000,,,,,,,,,,,,,,,,,,,,,,,,,,,,,,,,,,,,,,,,,,,,,,,,,,,,,,,,,,,,7.097620,1.737132,1.343247,3.123587,3.450698,9.013035,1.736902,1.718792,1.970109,2.497184,5.234968,0.684518,1.909371,3.343582,3.609468,43.065178,17.452328,8.629156,6.240635,5.440729,5.439330,1.699221,0.939449,1.274545,3.231035,5.119778,1.537932,1.182173,1.646719,2.575351,5.527018,1.824332,2.470537,4.196324,4.598800,1.621747,0.488844,1.093721,0.716948,1.045478,6.055490,0.649599,1.410393,1.975241,3.095683,6.519985,2.653445,2.791960,4.989902,5.794693,40.954212,11.032961,5.083219,4.289836,4.432966,9.668171,0.644255,2.241466,4.679635,5.258844,4.469117,2.103888,0.887045,2.518349,3.176066,4.854486,1.211463,1.294742,2.816075,3.249763
1739354419.746317,1739354419.746452,59.000000,0.000000,3930.641113,4050.641113,4161.666504,2609.871826,4102.563965,4218.461426,4123.205078,4142.436035,4086.923096,3994.230713,2251.281982,4246.666504,4067.820557,3940.641113,0.000000,1.000000,17.000000,,,,0.000000,4.000000,4.000000,4.000000,4.000000,4.000000,4.000000,4.000000,4.000000,4.000000,4.000000,4.000000,4.000000,4.000000,4.000000,100.000000,,,,,,,,,,,,,,,,,,,,,,,,,,,,,,,,,,,,,,,,,,,,,,,,,,,,,,,,,,,,,,,,,,,,,,,,,,,,,,,,,,,,,,,,,,,,,,,,,,,,,,,,,,,,,,,,,,,,,,,,,,,,,,,,,
1739354419.754125,1739354419.754360,60.000000,0.000000,3947.692383,4071.153809,4172.820313,2645.384521,4125.384766,4227.051270,4129.230957,4142.948730,4104.358887,4020.128174,2274.230713,4260.000000,4080.256348,3956.666748,0.000000,1.000000,17.000000,,,,0.000000,4.000000,4.000000,4.000000,4.000000,4.000000,4.000000,4.000000,4.000000,4.000000,4.000000,4.000000,4.000000,4.000000,4.000000,100.000000,,,,,,,,,,,,,,,,,15.000000,0.000000,0.316177,0.521851,-0.460144,0.644958,0.960566,-0.271029,0.031742,-39.278351,-28.606558,43.783703,,,,,,,,,,,,,,,,,,,,,,,,,,,,,,,,,,,,,,,,,,,,,,,,,,,,,,,,,,,,,,,,,,,,,,,,,,,,,,,,,,,,,,,,,,,,,,,,,,,,,
1739354419.761933,1739354419.762169,61.000000,0.000000,3922.179443,4049.871826,4148.205078,2643.718018,4104.743652,4202.820313,4095.128174,4125.897461,4085.512939,4004.615479,2252.051270,4225.128418,4054.102539,3930.000000,0.000000,1.000000,17.000000,,,,0.000000,4.000000,4.000000,4.000000,4.000000,4.000000,4.000000,4.000000,4.000000,4.000000,4.000000,4.000000,4.000000,4.000000,4.000000,100.000000,,,,,,,,,,,,,,,,,,,,,,,,,,,,,,,,,,,,,,,,,,,,,,,,,,,,,,,,,,,,,,,,,,,,,,,,,,,,,,,,,,,,,,,,,,,,,,,,,,,,,,,,,,,,,,,,,,,,,,,,,,,,,,,,,
1739354419.769742,1739354419.770077,62.000000,0.000000,3942.435791,4073.718018,4168.846191,2690.384521,4117.692383,4232.563965,4119.615234,4141.282227,4112.179688,4024.871826,2283.333252,4254.871582,4073.333252,3950.000000,0.000000,1.000000,17.000000,,,,0.000000,4.000000,4.000000,4.000000,4.000000,4.000000,4.000000,4.000000,4.000000,4.000000,4.000000,4.000000,4.000000,4.000000,4.000000,100.000000,,,,,,,,,,,,,,,,,,,,,,,,,,,,,,,,,,,,,,,,,,,,,,,,,,,,,,,,,,,,,,,,,,,,,,,,,,,,,,,,,,,,,,,,,,,,,,,,,,,,,,,,,,,,,,,,,,,,,,,,,,,,,,,,,
1739354419.777550,1739354419.777885,63.000000,0.000000,3996.794922,4128.589844,4221.025879,2766.538574,4158.846191,4276.666504,4171.666504,4166.922852,4162.820313,4081.666748,2350.641113,4324.358887,4119.487305,4004.102539,0.000000,1.000000,17.000000,,,,0.000000,4.000000,4.000000,4.000000,4.000000,4.000000,4.000000,4.000000,4.000000,4.000000,4.000000,4.000000,4.000000,4.000000,4.000000,100.000000,,,,,,,,,,,,,,,,,,,,,,,,,,,,,,,,,,,,,,,,,,,,,,,,,,,,,,,,,,,,,,,,,,,,,,,,,,,,,,,,,,,,,,,,,,,,,,,,,,,,,,,,,,,,,,,,,,,,,,,,,,,,,,,,,
1739354419.785358,1739354419.785793,64.000000,0.000000,3990.512939,4120.769043,4210.000000,2777.564209,4163.589844,4268.589844,4161.153809,4154.871582,4144.615234,4074.743652,2350.000000,4313.461426,4105.769043,3993.974365,5160.000000,1.000000,17.000000,,,,0.000000,4.000000,4.000000,4.000000,4.000000,4.000000,4.000000,4.000000,4.000000,4.000000,4.000000,4.000000,4.000000,4.000000,4.000000,100.000000,,,,,,,,,,,,,,,,,16.000000,0.000000,0.316610,0.521912,-0.460632,0.644348,0.948846,-0.278843,0.038091,-39.350517,-28.645901,43.688663,,,,,,,,,,,,,,,,,,,,,,,,,,,,,,,,,,,,,,,,,,,,,,,,,,,,,,,,,,,,,,,,,,,,,,,,,,,,,,,,,,,,,,,,,,,,,,,,,,,,,
1739354419.793166,1739354419.793601,65.000000,0.000000,3974.358887,4104.358887,4191.410156,2782.179443,4165.256348,4270.384766,4153.846191,4148.077148,4123.974121,4048.205078,2335.769287,4291.025879,4092.307617,3977.179443,5766.000000,1.000000,17.000000,,,,0.000000,4.000000,4.000000,4.000000,4.000000,4.000000,4.000000,4.000000,4.000000,4.000000,4.000000,4.000000,4.000000,4.000000,4.000000,100.000000,,,,,,,,,,,,,,,,,,,,,,,,,,,,,,,,,,,,,,,,,,,,,,,,,,,,,,,,,,,,,,,,,,,,,,,,,,,,,,,,,,,,,,,,,,,,,,,,,,,,,,,,,,,,,,,,,,,,,,,,,,,,,,,,,
1739354419.800974,1739354419.801509,66.000000,0.000000,4017.564209,4149.230957,4235.641113,2851.538574,4192.692383,4307.307617,4196.794922,4174.230957,4172.948730,4092.435791,2380.256348,4342.563965,4132.563965,4023.846191,5564.000000,1.000000,17.000000,,,,0.000000,4.000000,4.000000,4.000000,4.000000,4.000000,4.000000,4.000000,4.000000,4.000000,4.000000,4.000000,4.000000,4.000000,4.000000,100.000000,,,,,,,,,,,,,,,,,,,,,,,,,,,,,,,,,,,,,,,,,,,,,,,,,,,,,,,,,,,,,,,,,,,,,,,,,,,,,,,,,,,,,,,,,,,,,,,,,,,,,,,,,,,,,,,,,,,,,,,,,,,,,,,,,
1739354419.808782,1739354419.809317,67.000000,0.000000,4039.615479,4173.333496,4251.666504,2899.615479,4186.153809,4308.974121,4201.666504,4180.000000,4193.333496,4121.666504,2400.128174,4361.282227,4140.897461,4042.307617,5449.000000,1.000000,17.000000,,,,0.000000,4.000000,4.000000,4.000000,4.000000,4.000000,4.000000,4.000000,4.000000,4.000000,4.000000,4.000000,4.000000,4.000000,4.000000,100.000000,,,,,,,,,,,,,,,,,,,,,,,,,,,,,,,,,,,,,,,,,,,,,,,,,,,,,,,,,,,,,,,,,,,,,,,,,,,,,,,,,,,,,,,,,,,,,,,,,,,,,,,,,,,,,,,,,,,,,,,,,,,,,,,,,
1739354419.816590,1739354419.817225,68.000000,0.000000,4031.025635,4167.051270,4239.102539,2918.076904,4180.641113,4306.153809,4190.384766,4170.256348,4175.384766,4105.769043,2397.820557,4344.358887,4124.102539,4030.512939,5410.000000,1.000000,17.000000,,,,0.000000,4.000000,4.000000,4.000000,4.000000,4.000000,4.000000,4.000000,4.000000,4.000000,4.000000,4.000000,4.000000,4.000000,4.000000,100.000000,,,,,,,,,,,,,,,,,17.000000,0.000000,0.317223,0.522034,-0.460754,0.643860,0.960078,-0.263704,0.026859,-39.382130,-28.747978,43.669800,,,,,,,,,,,,,,,,,,,,,,,,,,,,,,,,,,,,,,,,,,,,,,,,,,,,,,,,,,,,,,,,,,,,,,,,,,,,,,,,,,,,,,,,,,,,,,,,,,,,,
1739354419.824398,1739354419.825033,69.000000,0.000000,4061.923096,4200.000000,4267.051270,2976.538574,4225.897461,4342.179688,4229.358887,4185.384766,4200.128418,4129.102539,2443.333252,4383.461426,4148.974121,4063.076904,5434.000000,1.000000,17.000000,,,,0.000000,4.000000,4.000000,4.000000,4.000000,4.000000,4.000000,4.000000,4.000000,4.000000,4.000000,4.000000,4.000000,4.000000,4.000000,100.000000,,,,,,,,,,,,,,,,,,,,,,,,,,,,,,,,,,,,,,,,,,,,,,,,,,,,,,,,,,,,,,,,,,,,,,,,,,,,,,,,,,,,,,,,,,,,,,,,,,,,,,,,,,,,,,,,,,,,,,,,,,,,,,,,,
1739354419.832206,1739354419.832741,70.000000,0.000000,4094.230713,4227.692383,4290.641113,3030.512939,4247.563965,4362.436035,4254.743652,4200.256348,4226.410156,4162.179688,2482.820557,4419.743652,4171.282227,4089.871826,5405.000000,1.000000,17.000000,,,,0.000000,4.000000,4.000000,4.000000,4.000000,4.000000,4.000000,4.000000,4.000000,4.000000,4.000000,4.000000,4.000000,4.000000,4.000000,100.000000,,,,,,,,,,,,,,,,,,,,,,,,,,,,,,,,,,,,,,,,,,,,,,,,,,,,,,,,,,,,,,,,,,,,,,,,,,,,,,,,,,,,,,,,,,,,,,,,,,,,,,,,,,,,,,,,,,,,,,,,,,,,,,,,,
1739354419.840014,1739354419.840549,71.000000,0.000000,4090.512939,4218.974121,4286.794922,3051.666748,4234.615234,4360.769043,4250.256348,4196.794922,4217.692383,4164.743652,2489.615479,4414.743652,4164.102539,4082.435791,2924.000000,1.000000,17.000000,,,,0.000000,4.000000,4.000000,4.000000,4.000000,4.000000,4.000000,4.000000,4.000000,4.000000,4.000000,4.000000,4.000000,4.000000,4.000000,100.000000,,,,,,,,,,,,,,,,,,,,,,,,,,,,,,,,,,,,,,,,,,,,,,,,,,,,,,,,,,,,,,,,,,,,,,,,,,,,,,,,,,,,,,,,,,,,,,,,,,,,,,,,,,,,,,,,,,,,,,,,,,,,,,,,,
1739354419.847822,1739354419.848257,72.000000,0.000000,4095.000000,4224.230957,4294.102539,3080.128174,4246.025879,4372.051270,4259.743652,4197.051270,4215.128418,4166.282227,2507.564209,4421.666504,4165.256348,4088.333252,5233.000000,1.000000,17.000000,,,,0.000000,4.000000,4.000000,4.000000,4.000000,4.000000,4.000000,4.000000,4.000000,4.000000,4.000000,4.000000,4.000000,4.000000,4.000000,100.000000,,,,,,,,,,,,,,,,,18.000000,0.000000,0.317429,0.521973,-0.460938,0.643677,0.959101,-0.269076,0.032719,-39.327251,-28.673180,43.602818,,,,,,,,,,,,,,,,,,,,,,,,,,,,,,,,,,,,,,,,,,,,,,,,,,,,,,,,,,,,,,,,,,,,,,,,,,,,,,,,,,,,,,,,,,,,,,,,,,,,,
1739354419.855631,1739354419.856165,73.000000,0.000000,4125.256348,4249.487305,4312.692383,3122.435791,4274.487305,4393.589844,4276.282227,4206.025879,4232.692383,4185.384766,2546.666748,4452.179688,4184.871582,4113.589844,5569.000000,1.000000,17.000000,,,,0.000000,4.000000,4.000000,4.000000,4.000000,4.000000,4.000000,4.000000,4.000000,4.000000,4.000000,4.000000,4.000000,4.000000,4.000000,100.000000,,,,,,,,,,,,,,,,,,,,,,,,,,,,,,,,,,,,,,,,,,,,,,,,,,,,,,,,,,,,,,,,,,,,,,,,,,,,,,,,,,,,,,,,,,,,,,,,,,,,,,,,,,,,,,,,,,,,,,,,,,,,,,,,,
1739354419.863438,1739354419.863973,74.000000,0.000000,4150.128418,4268.717773,4328.077148,3164.743652,4286.794922,4407.820313,4291.025879,4217.051270,4259.358887,4221.794922,2592.435791,4483.333496,4206.282227,4135.256348,5046.000000,1.000000,17.000000,,,,0.000000,4.000000,4.000000,4.000000,4.000000,4.000000,4.000000,4.000000,4.000000,4.000000,4.000000,4.000000,4.000000,4.000000,4.000000,100.000000,1.000000,0.000000,1.000000,1.000000,0.000000,0.000000,0.000000,0.000000,0.000000,1.000000,1.000000,1.000000,0.000000,1.000000,1.000000,1.000000,,,,,,,,,,,,,,,,,,,,,,,,,,,,,,,,,,,,,,,,,,,,12.881155,1.997576,1.357723,3.347703,3.356288,13.259562,1.802421,1.505809,2.098848,2.425456,9.462161,0.825332,2.002342,3.581357,3.382361,53.667923,19.998646,9.176991,6.368958,5.025161,9.449166,1.495646,0.773414,1.332537,3.478525,9.175761,1.877221,1.129978,1.493471,2.594013,9.953432,2.062171,2.110725,4.053668,4.099394,2.618748,0.654307,0.988108,0.802170,1.047267,10.895198,0.848217,1.245272,1.999713,3.095009,11.967377,2.642146,2.891535,4.933462,5.292492,50.243084,13.889907,6.157508,5.082254,4.242424,17.011740,0.718816,2.301310,4.982981,5.048321,8.123802,2.492270,0.722131,2.663501,2.976599,8.405174,1.413226,1.325522,3.143107,3.112869
1739354419.871247,1739354419.871781,75.000000,0.000000,4142.820313,4261.666504,4326.153809,3187.051270,4278.205078,4401.538574,4291.666504,4218.974121,4270.384766,4236.282227,2612.564209,4487.179688,4207.563965,4135.000000,5477.000000,1.000000,17.000000,,,,0.000000,4.000000,4.000000,4.000000,4.000000,4.000000,4.000000,4.000000,4.000000,4.000000,4.000000,4.000000,4.000000,4.000000,4.000000,100.000000,,,,,,,,,,,,,,,,,,,,,,,,,,,,,,,,,,,,,,,,,,,,,,,,,,,,,,,,,,,,,,,,,,,,,,,,,,,,,,,,,,,,,,,,,,,,,,,,,,,,,,,,,,,,,,,,,,,,,,,,,,,,,,,,,
1739354419.879055,1739354419.879489,76.000000,0.000000,4126.794922,4247.563965,4313.077148,3197.692383,4271.666504,4396.666504,4283.077148,4214.615234,4259.871582,4216.538574,2608.205078,4472.436035,4194.615234,4127.179688,5901.000000,1.000000,17.000000,,,,0.000000,4.000000,4.000000,4.000000,4.000000,4.000000,4.000000,4.000000,4.000000,4.000000,4.000000,4.000000,4.000000,4.000000,4.000000,100.000000,,,,,,,,,,,,,,,,,19.000000,0.000000,0.318017,0.521484,-0.461426,0.643433,0.963008,-0.274448,0.026370,-39.327858,-28.855862,43.592537,,,,,,,,,,,,,,,,,,,,,,,,,,,,,,,,,,,,,,,,,,,,,,,,,,,,,,,,,,,,,,,,,,,,,,,,,,,,,,,,,,,,,,,,,,,,,,,,,,,,,
1739354419.886863,1739354419.887297,77.000000,0.000000,4149.615234,4270.256348,4329.743652,3242.307617,4294.487305,4423.461426,4307.820313,4229.358887,4273.846191,4231.538574,2637.179443,4498.461426,4210.256348,4153.077148,6701.000000,1.000000,17.000000,,,,0.000000,4.000000,4.000000,4.000000,4.000000,4.000000,4.000000,4.000000,4.000000,4.000000,4.000000,4.000000,4.000000,4.000000,4.000000,100.000000,,,,,,,,,,,,,,,,,,,,,,,,,,,,,,,,,,,,,,,,,,,,,,,,,,,,,,,,,,,,,,,,,,,,,,,,,,,,,,,,,,,,,,,,,,,,,,,,,,,,,,,,,,,,,,,,,,,,,,,,,,,,,,,,,
1739354419.894671,1739354419.895005,78.000000,0.000000,4182.563965,4303.205078,4361.666504,3300.512939,4331.410156,4459.358887,4350.512695,4247.948730,4306.153809,4274.102539,2689.487061,4544.230957,4237.563965,4185.512695,5046.000000,1.000000,17.000000,,,,0.000000,4.000000,4.000000,4.000000,4.000000,4.000000,4.000000,4.000000,4.000000,4.000000,4.000000,4.000000,4.000000,4.000000,4.000000,100.000000,,,,,,,,,,,,,,,,,,,,,,,,,,,,,,,,,,,,,,,,,,,,,,,,,,,,,,,,,,,,,,,,,,,,,,,,,,,,,,,,,,,,,,,,,,,,,,,,,,,,,,,,,,,,,,,,,,,,,,,,,,,,,,,,,
1739354419.902479,1739354419.902813,79.000000,0.000000,4174.358887,4295.384766,4359.487305,3318.974365,4334.102539,4463.333496,4355.256348,4243.846191,4300.000000,4264.487305,2699.615479,4537.948730,4232.820313,4182.051270,5477.000000,1.000000,17.000000,,,,0.000000,4.000000,4.000000,4.000000,4.000000,4.000000,4.000000,4.000000,4.000000,4.000000,4.000000,4.000000,4.000000,4.000000,4.000000,100.000000,,,,,,,,,,,,,,,,,,,,,,,,,,,,,,,,,,,,,,,,,,,,,,,,,,,,,,,,,,,,,,,,,,,,,,,,,,,,,,,,,,,,,,,,,,,,,,,,,,,,,,,,,,,,,,,,,,,,,,,,,,,,,,,,,
1739354419.910287,1739354419.910521,80.000000,0.000000,4150.641113,4269.487305,4339.358887,3312.948730,4304.358887,4442.179688,4335.512695,4230.512695,4271.538574,4229.615234,2687.051270,4503.589844,4212.307617,4165.769043,5901.000000,1.000000,17.000000,,,,0.000000,4.000000,4.000000,4.000000,4.000000,4.000000,4.000000,4.000000,4.000000,4.000000,4.000000,4.000000,4.000000,4.000000,4.000000,100.000000,,,,,,,,,,,,,,,,,20.000000,0.000000,0.319408,0.520935,-0.461426,0.643188,0.951288,-0.273959,0.024417,-39.328407,-28.853609,43.783283,,,,,,,,,,,,,,,,,,,,,,,,,,,,,,,,,,,,,,,,,,,,,,,,,,,,,,,,,,,,,,,,,,,,,,,,,,,,,,,,,,,,,,,,,,,,,,,,,,,,,
1739354419.918095,1739354419.918329,81.000000,0.000000,4152.563965,4272.307617,4337.948730,3328.974365,4296.794922,4440.000000,4339.102539,4228.589844,4272.179688,4233.974121,2706.794922,4501.922852,4213.333496,4166.025879,6701.000000,1.000000,17.000000,,,,0.000000,4.000000,4.000000,4.000000,4.000000,4.000000,4.000000,4.000000,4.000000,4.000000,4.000000,4.000000,4.000000,4.000000,4.000000,100.000000,,,,,,,,,,,,,,,,,,,,,,,,,,,,,,,,,,,,,,,,,,,,,,,,,,,,,,,,,,,,,,,,,,,,,,,,,,,,,,,,,,,,,,,,,,,,,,,,,,,,,,,,,,,,,,,,,,,,,,,,,,,,,,,,,
1739354419.925903,1739354419.926037,82.000000,0.000000,4156.666504,4283.205078,4340.512695,3356.281982,4312.948730,4462.179688,4351.153809,4232.051270,4283.846191,4246.538574,2728.205078,4511.025879,4218.717773,4170.769043,5046.000000,1.000000,17.000000,,,,0.000000,4.000000,4.000000,4.000000,4.000000,4.000000,4.000000,4.000000,4.000000,4.000000,4.000000,4.000000,4.000000,4.000000,4.000000,100.000000,,,,,,,,,,,,,,,,,,,,,,,,,,,,,,,,,,,,,,,,,,,,,,,,,,,,,,,,,,,,,,,,,,,,,,,,,,,,,,,,,,,,,,,,,,,,,,,,,,,,,,,,,,,,,,,,,,,,,,,,,,,,,,,,,
1739354419.933711,1739354419.933945,83.000000,0.000000,4150.256348,4282.692383,4338.589844,3374.230713,4324.230957,4479.230957,4355.769043,4235.512695,4288.589844,4248.205078,2739.615479,4505.769043,4218.205078,4175.000000,5477.000000,1.000000,17.000000,,,,0.000000,4.000000,4.000000,4.000000,4.000000,4.000000,4.000000,4.000000,4.000000,4.000000,4.000000,4.000000,4.000000,4.000000,4.000000,100.000000,,,,,,,,,,,,,,,,,,,,,,,,,,,,,,,,,,,,,,,,,,,,,,,,,,,,,,,,,,,,,,,,,,,,,,,,,,,,,,,,,,,,,,,,,,,,,,,,,,,,,,,,,,,,,,,,,,,,,,,,,,,,,,,,,
1739354419.941519,1739354419.941754,84.000000,0.000000,4155.128418,4290.000000,4344.358887,3394.230713,4332.563965,4479.615234,4367.948730,4242.179688,4301.794922,4259.743652,2786.794922,4511.922852,4230.769043,4185.769043,5901.000000,1.000000,17.000000,,,,0.000000,4.000000,4.000000,4.000000,4.000000,4.000000,4.000000,4.000000,4.000000,4.000000,4.000000,4.000000,4.000000,4.000000,4.000000,100.000000,,,,,,,,,,,,,,,,,21.000000,0.000000,0.320648,0.520691,-0.461182,0.642944,0.959101,-0.255891,0.041509,-39.328899,-28.801582,43.788288,,,,,,,,,,,,,,,,,,,,,,,,,,,,,,,,,,,,,,,,,,,,,,,,,,,,,,,,,,,,,,,,,,,,,,,,,,,,,,,,,,,,,,,,,,,,,,,,,,,,,
1739354419.949327,1739354419.949662,85.000000,0.000000,4176.538574,4309.358887,4362.563965,3425.641113,4346.538574,4482.692383,4382.948730,4252.051270,4323.846191,4279.358887,2855.128174,4540.512695,4246.153809,4204.743652,6701.000000,1.000000,17.000000,,,,0.000000,4.000000,4.000000,4.000000,4.000000,4.000000,4.000000,4.000000,4.000000,4.000000,4.000000,4.000000,4.000000,4.000000,4.000000,100.000000,,,,,,,,,,,,,,,,,,,,,,,,,,,,,,,,,,,,,,,,,,,,,,,,,,,,,,,,,,,,,,,,,,,,,,,,,,,,,,,,,,,,,,,,,,,,,,,,,,,,,,,,,,,,,,,,,,,,,,,,,,,,,,,,,
1739354419.957135,1739354419.957470,86.000000,0.000000,4177.948730,4308.205078,4362.948730,3437.820557,4341.666504,4481.410156,4371.538574,4248.077148,4318.461426,4270.641113,2870.128174,4543.846191,4238.589844,4206.153809,5046.000000,1.000000,17.000000,,,,0.000000,4.000000,4.000000,4.000000,4.000000,4.000000,4.000000,4.000000,4.000000,4.000000,4.000000,4.000000,4.000000,4.000000,4.000000,100.000000,,,,,,,,,,,,,,,,,,,,,,,,,,,,,,,,,,,,,,,,,,,,,,,,,,,,,,,,,,,,,,,,,,,,,,,,,,,,,,,,,,,,,,,,,,,,,,,,,,,,,,,,,,,,,,,,,,,,,,,,,,,,,,,,,
1739354419.964944,1739354419.965378,87.000000,0.000000,4153.205078,4288.974121,4342.051270,3431.281982,4318.846191,4466.410156,4347.179688,4233.846191,4290.128418,4244.230957,2853.205078,4515.512695,4221.794922,4186.538574,5477.000000,1.000000,17.000000,,,,0.000000,4.000000,4.000000,4.000000,4.000000,4.000000,4.000000,4.000000,4.000000,4.000000,4.000000,4.000000,4.000000,4.000000,4.000000,100.000000,,,,,,,,,,,,,,,,,,,,,,,,,,,,,,,,,,,,,,,,,,,,,,,,,,,,,,,,,,,,,,,,,,,,,,,,,,,,,,,,,,,,,,,,,,,,,,,,,,,,,,,,,,,,,,,,,,,,,,,,,,,,,,,,,
1739354419.972752,1739354419.973186,88.000000,0.000000,4162.051270,4304.487305,4352.692383,3463.589844,4330.897461,4472.563965,4359.358887,4241.025879,4303.205078,4261.666504,2889.615479,4524.487305,4237.436035,4200.000000,5901.000000,1.000000,17.000000,,,,0.000000,4.000000,4.000000,4.000000,4.000000,4.000000,4.000000,4.000000,4.000000,4.000000,4.000000,4.000000,4.000000,4.000000,4.000000,100.000000,,,,,,,,,,,,,,,,,22.000000,0.000000,0.321930,0.520386,-0.460632,0.642944,0.968380,-0.239775,0.044439,-39.312675,-28.788090,43.692791,,,,,,,,,,,,,,,,,,,,,,,,,,,,,,,,,,,,,,,,,,,,,,,,,,,,,,,,,,,,,,,,,,,,,,,,,,,,,,,,,,,,,,,,,,,,,,,,,,,,,
1739354419.980560,1739354419.981094,89.000000,0.000000,4186.153809,4325.512695,4374.102539,3504.615479,4352.948730,4488.589844,4378.333496,4251.538574,4327.307617,4282.692383,2938.205078,4548.077148,4258.717773,4225.128418,6701.000000,1.000000,17.000000,,,,0.000000,4.000000,4.000000,4.000000,4.000000,4.000000,4.000000,4.000000,4.000000,4.000000,4.000000,4.000000,4.000000,4.000000,4.000000,100.000000,,,,,,,,,,,,,,,,,,,,,,,,,,,,,,,,,,,,,,,,,,,,,,,,,,,,,,,,,,,,,,,,,,,,,,,,,,,,,,,,,,,,,,,,,,,,,,,,,,,,,,,,,,,,,,,,,,,,,,,,,,,,,,,,,
1739354419.988368,1739354419.988902,90.000000,0.000000,4165.897461,4308.589844,4355.256348,3499.358887,4335.512695,4481.666504,4360.897461,4239.487305,4302.948730,4251.538574,2932.179443,4522.820313,4242.051270,4208.461426,5046.000000,1.000000,17.000000,,,,0.000000,4.000000,4.000000,4.000000,4.000000,4.000000,4.000000,4.000000,4.000000,4.000000,4.000000,4.000000,4.000000,4.000000,4.000000,100.000000,,,,,,,,,,,,,,,,,,,,,,,,,,,,,,,,,,,,,,,,,,,,,,,,,,,,,,,,,,,,20.205143,2.479008,1.452351,3.452171,3.414064,18.868860,1.960346,1.433197,2.212177,2.610261,14.418741,1.172270,2.126376,3.674795,3.310136,68.177589,21.944118,8.954173,6.006212,4.727787,14.235662,1.402568,0.689218,1.444530,3.755718,13.376849,2.217760,1.090374,1.408890,2.685096,14.644660,2.275355,1.802716,3.749485,3.758562,3.750551,0.882532,0.974552,0.924763,1.092122,16.190611,1.140316,1.187628,2.005271,3.242544,20.162907,2.810971,3.076140,4.632860,4.927279,63.475712,17.491648,7.548232,5.859735,4.213589,25.830849,1.024941,2.497398,5.121991,5.046934,12.912771,2.799212,0.768321,2.722055,2.941609,13.126361,1.703448,1.476860,3.374660,3.143730
1739354419.996176,1739354419.996810,91.000000,0.000000,4130.512695,4287.820313,4325.000000,3488.461426,4308.846191,4470.512695,4344.615234,4230.641113,4269.743652,4221.922852,2915.384521,4484.871582,4210.256348,4181.794922,5477.000000,1.000000,17.000000,,,,0.000000,4.000000,4.000000,4.000000,4.000000,4.000000,4.000000,4.000000,4.000000,4.000000,4.000000,4.000000,4.000000,4.000000,4.000000,100.000000,,,,,,,,,,,,,,,,,,,,,,,,,,,,,,,,,,,,,,,,,,,,,,,,,,,,,,,,,,,,,,,,,,,,,,,,,,,,,,,,,,,,,,,,,,,,,,,,,,,,,,,,,,,,,,,,,,,,,,,,,,,,,,,,,
1739354420.003984,1739354420.004618,92.000000,0.000000,4131.410156,4290.512695,4325.000000,3510.897461,4316.153809,4474.102539,4357.948730,4236.282227,4275.769043,4227.307617,2943.205078,4484.487305,4208.974121,4185.512695,5901.000000,1.000000,17.000000,,,,0.000000,4.000000,4.000000,4.000000,4.000000,4.000000,4.000000,4.000000,4.000000,4.000000,4.000000,4.000000,4.000000,4.000000,4.000000,100.000000,,,,,,,,,,,,,,,,,23.000000,0.000000,0.323167,0.520386,-0.459595,0.643066,0.960566,-0.251496,0.033207,-39.398075,-28.825949,43.706848,,,,,,,,,,,,,,,,,,,,,,,,,,,,,,,,,,,,,,,,,,,,,,,,,,,,,,,,,,,,,,,,,,,,,,,,,,,,,,,,,,,,,,,,,,,,,,,,,,,,,
1739354420.011792,1739354420.012326,93.000000,0.000000,4152.563965,4307.179688,4341.410156,3543.846191,4337.563965,4486.282227,4373.461426,4242.307617,4302.179688,4235.897461,2997.307617,4505.256348,4240.000000,4203.717773,6701.000000,1.000000,17.000000,,,,0.000000,4.000000,4.000000,4.000000,4.000000,4.000000,4.000000,4.000000,4.000000,4.000000,4.000000,4.000000,4.000000,4.000000,4.000000,100.000000,,,,,,,,,,,,,,,,,,,,,,,,,,,,,,,,,,,,,,,,,,,,,,,,,,,,,,,,,,,,,,,,,,,,,,,,,,,,,,,,,,,,,,,,,,,,,,,,,,,,,,,,,,,,,,,,,,,,,,,,,,,,,,,,,
1739354420.019600,1739354420.020134,94.000000,0.000000,4154.615234,4314.358887,4342.948730,3560.384521,4336.666504,4489.230957,4368.974121,4243.205078,4307.820313,4235.897461,3030.000000,4505.897461,4249.102539,4206.922852,5046.000000,1.000000,17.000000,,,,0.000000,4.000000,4.000000,4.000000,4.000000,4.000000,4.000000,4.000000,4.000000,4.000000,4.000000,4.000000,4.000000,4.000000,4.000000,100.000000,,,,,,,,,,,,,,,,,,,,,,,,,,,,,,,,,,,,,,,,,,,,,,,,,,,,,,,,,,,,,,,,,,,,,,,,,,,,,,,,,,,,,,,,,,,,,,,,,,,,,,,,,,,,,,,,,,,,,,,,,,,,,,,,,
1739354420.027408,1739354420.027842,95.000000,0.000000,4141.410156,4302.692383,4328.589844,3559.743652,4323.846191,4478.974121,4358.205078,4237.436035,4290.384766,4233.205078,3043.461426,4485.641113,4225.641113,4196.282227,5477.000000,1.000000,17.000000,,,,0.000000,4.000000,4.000000,4.000000,4.000000,4.000000,4.000000,4.000000,4.000000,4.000000,4.000000,4.000000,4.000000,4.000000,4.000000,100.000000,,,,,,,,,,,,,,,,,,,,,,,,,,,,,,,,,,,,,,,,,,,,,,,,,,,,,,,,,,,,,,,,,,,,,,,,,,,,,,,,,,,,,,,,,,,,,,,,,,,,,,,,,,,,,,,,,,,,,,,,,,,,,,,,,
1739354420.035216,1739354420.035650,96.000000,0.000000,4133.461426,4290.769043,4317.563965,3559.615479,4318.333496,4469.230957,4348.974121,4231.410156,4273.846191,4225.641113,3069.102539,4474.615234,4215.512695,4189.487305,5901.000000,1.000000,17.000000,,,,0.000000,4.000000,4.000000,4.000000,4.000000,4.000000,4.000000,4.000000,4.000000,4.000000,4.000000,4.000000,4.000000,4.000000,4.000000,100.000000,,,,,,,,,,,,,,,,,24.000000,0.000000,0.324188,0.520569,-0.458496,0.643188,0.970822,-0.245635,0.044439,-39.324936,-28.810020,43.836163,,,,,,,,,,,,,,,,,,,,,,,,,,,,,,,,,,,,,,,,,,,,,,,,,,,,,,,,,,,,,,,,,,,,,,,,,,,,,,,,,,,,,,,,,,,,,,,,,,,,,
1739354420.043024,1739354420.043358,97.000000,0.000000,4126.922852,4286.153809,4313.717773,3565.512939,4311.282227,4459.487305,4334.102539,4228.846191,4270.897461,4212.307617,3101.281982,4469.871582,4218.717773,4186.922852,6701.000000,1.000000,17.000000,,,,0.000000,4.000000,4.000000,4.000000,4.000000,4.000000,4.000000,4.000000,4.000000,4.000000,4.000000,4.000000,4.000000,4.000000,4.000000,100.000000,,,,,,,,,,,,,,,,,,,,,,,,,,,,,,,,,,,,,,,,,,,,,,,,,,,,,,,,,,,,,,,,,,,,,,,,,,,,,,,,,,,,,,,,,,,,,,,,,,,,,,,,,,,,,,,,,,,,,,,,,,,,,,,,,
1739354420.050832,1739354420.051166,98.000000,0.000000,4105.769043,4268.205078,4297.820313,3562.820557,4292.563965,4441.410156,4318.974121,4224.102539,4259.358887,4188.846191,3118.076904,4445.512695,4208.589844,4172.051270,5046.000000,1.000000,17.000000,,,,0.000000,4.000000,4.000000,4.000000,4.000000,4.000000,4.000000,4.000000,4.000000,4.000000,4.000000,4.000000,4.000000,4.000000,4.000000,100.000000,,,,,,,,,,,,,,,,,,,,,,,,,,,,,,,,,,,,,,,,,,,,,,,,,,,,,,,,,,,,,,,,,,,,,,,,,,,,,,,,,,,,,,,,,,,,,,,,,,,,,,,,,,,,,,,,,,,,,,,,,,,,,,,,,
1739354420.058640,1739354420.058874,99.000000,0.000000,4109.743652,4271.153809,4297.820313,3578.205078,4294.871582,4450.769043,4331.666504,4231.538574,4258.077148,4185.128418,3153.718018,4446.922852,4213.974121,4176.153809,5477.000000,1.000000,17.000000,,,,0.000000,4.000000,4.000000,4.000000,4.000000,4.000000,4.000000,4.000000,4.000000,4.000000,4.000000,4.000000,4.000000,4.000000,4.000000,100.000000,,,,,,,,,,,,,,,,,,,,,,,,,,,,,,,,,,,,,,,,,,,,,,,,,,,,,,,,,,,,,,,,,,,,,,,,,,,,,,,,,,,,,,,,,,,,,,,,,,,,,,,,,,,,,,,,,,,,,,,,,,,,,,,,,
1739354420.066449,1739354420.066682,100.000000,0.000000,4141.538574,4302.948730,4323.974121,3616.025635,4317.436035,4482.820313,4361.282227,4244.615234,4284.743652,4215.000000,3215.769287,4483.846191,4238.589844,4209.102539,5901.000000,1.000000,17.000000,,,,0.000000,4.000000,4.000000,4.000000,4.000000,4.000000,4.000000,4.000000,4.000000,4.000000,4.000000,4.000000,4.000000,4.000000,4.000000,100.000000,,,,,,,,,,,,,,,,,25.000000,0.000000,0.324876,0.520386,-0.457703,0.643555,0.978147,-0.235869,0.051276,-39.492439,-28.812351,44.002544,,,,,,,,,,,,,,,,,,,,,,,,,,,,,,,,,,,,,,,,,,,,,,,,,,,,,,,,,,,,,,,,,,,,,,,,,,,,,,,,,,,,,,,,,,,,,,,,,,,,,
1739354420.074257,1739354420.074390,101.000000,0.000000,4122.179688,4285.641113,4311.538574,3613.205078,4305.128418,4462.820313,4339.358887,4227.307617,4271.666504,4200.384766,3219.871826,4462.051270,4216.410156,4196.410156,6701.000000,1.000000,17.000000,,,,0.000000,4.000000,4.000000,4.000000,4.000000,4.000000,4.000000,4.000000,4.000000,4.000000,4.000000,4.000000,4.000000,4.000000,4.000000,100.000000,,,,,,,,,,,,,,,,,,,,,,,,,,,,,,,,,,,,,,,,,,,,,,,,,,,,,,,,,,,,,,,,,,,,,,,,,,,,,,,,,,,,,,,,,,,,,,,,,,,,,,,,,,,,,,,,,,,,,,,,,,,,,,,,,
1739354420.082065,1739354420.082198,102.000000,0.000000,4073.461426,4236.538574,4266.153809,3581.666748,4268.461426,4412.307617,4286.282227,4202.948730,4224.487305,4144.615234,3183.205078,4403.077148,4172.948730,4151.538574,5046.000000,1.000000,17.000000,,,,0.000000,4.000000,4.000000,4.000000,4.000000,4.000000,4.000000,4.000000,4.000000,4.000000,4.000000,4.000000,4.000000,4.000000,4.000000,100.000000,,,,,,,,,,,,,,,,,,,,,,,,,,,,,,,,,,,,,,,,,,,,,,,,,,,,,,,,,,,,,,,,,,,,,,,,,,,,,,,,,,,,,,,,,,,,,,,,,,,,,,,,,,,,,,,,,,,,,,,,,,,,,,,,,
1739354420.089873,1739354420.089906,103.000000,0.000000,4091.666748,4250.384766,4276.794922,3607.051270,4274.487305,4424.487305,4296.282227,4218.077148,4234.743652,4158.589844,3228.974365,4424.358887,4196.666504,4170.769043,5477.000000,1.000000,17.000000,,,,0.000000,4.000000,4.000000,4.000000,4.000000,4.000000,4.000000,4.000000,4.000000,4.000000,4.000000,4.000000,4.000000,4.000000,4.000000,100.000000,,,,,,,,,,,,,,,,,,,,,,,,,,,,,,,,,,,,,,,,,,,,,,,,,,,,,,,,,,,,,,,,,,,,,,,,,,,,,,,,,,,,,,,,,,,,,,,,,,,,,,,,,,,,,,,,,,,,,,,,,,,,,,,,,
1739354420.097681,1739354420.097814,104.000000,0.000000,4120.384766,4278.846191,4301.666504,3646.410156,4294.230957,4449.102539,4318.333496,4228.589844,4258.846191,4186.025879,3292.692383,4458.717773,4224.615234,4200.000000,5901.000000,1.000000,17.000000,,,,0.000000,4.000000,4.000000,4.000000,4.000000,4.000000,4.000000,4.000000,4.000000,4.000000,4.000000,4.000000,4.000000,4.000000,4.000000,100.000000,,,,,,,,,,,,,,,,,26.000000,0.000000,0.325162,0.520142,-0.457520,0.643738,0.951288,-0.262239,0.045416,-39.559864,-28.647783,44.035625,,,,,,,,,,,,,,,,,,,,,,,,,,,,,,,,,,,,,,,,,,,,,,,,,,,,,,,,,,,,,,,,,,,,,,,,,,,,,,,,,,,,,,,,,,,,,,,,,,,,,
