title:Yousef Rihani1739356669702, start timestamp:1739356670.917668, stop timestamp:1739356732.656165, headset type:EPOCX, headset serial:E50208A5, headset firmware:720, channels:168, sampling rate:eeg_128;mot_32;pm_0.1;pow_8, samples:7908      , version:2.2, 
Timestamp,OriginalTimestamp,EEG.Counter,EEG.Interpolated,EEG.AF3,EEG.F7,EEG.F3,EEG.FC5,EEG.T7,EEG.P7,EEG.O1,EEG.O2,EEG.P8,EEG.T8,EEG.FC6,EEG.F4,EEG.F8,EEG.AF4,EEG.RawCq,EEG.Battery,EEG.BatteryPercent,MarkerIndex,MarkerType,MarkerValueInt,EEG.MarkerHardware,CQ.AF3,CQ.F7,CQ.F3,CQ.FC5,CQ.T7,CQ.P7,CQ.O1,CQ.O2,CQ.P8,CQ.T8,CQ.FC6,CQ.F4,CQ.F8,CQ.AF4,CQ.Overall,EQ.SampleRateQuality,EQ.OVERALL,EQ.AF3,EQ.F7,EQ.F3,EQ.FC5,EQ.T7,EQ.P7,EQ.O1,EQ.O2,EQ.P8,EQ.T8,EQ.FC6,EQ.F4,EQ.F8,EQ.AF4,MOT.CounterMems,MOT.InterpolatedMems,MOT.Q0,MOT.Q1,MOT.Q2,MOT.Q3,MOT.AccX,MOT.AccY,MOT.AccZ,MOT.MagX,MOT.MagY,MOT.MagZ,PM.Attention.IsActive,PM.Attention.Scaled,PM.Attention.Raw,PM.Attention.Min,PM.Attention.Max,PM.Engagement.IsActive,PM.Engagement.Scaled,PM.Engagement.Raw,PM.Engagement.Min,PM.Engagement.Max,PM.Excitement.IsActive,PM.Excitement.Scaled,PM.Excitement.Raw,PM.Excitement.Min,PM.Excitement.Max,PM.LongTermExcitement,PM.Stress.IsActive,PM.Stress.Scaled,PM.Stress.Raw,PM.Stress.Min,PM.Stress.Max,PM.Relaxation.IsActive,PM.Relaxation.Scaled,PM.Relaxation.Raw,PM.Relaxation.Min,PM.Relaxation.Max,PM.Interest.IsActive,PM.Interest.Scaled,PM.Interest.Raw,PM.Interest.Min,PM.Interest.Max,POW.AF3.Theta,POW.AF3.Alpha,POW.AF3.BetaL,POW.AF3.BetaH,POW.AF3.Gamma,POW.F7.Theta,POW.F7.Alpha,POW.F7.BetaL,POW.F7.BetaH,POW.F7.Gamma,POW.F3.Theta,POW.F3.Alpha,POW.F3.BetaL,POW.F3.BetaH,POW.F3.Gamma,POW.FC5.Theta,POW.FC5.Alpha,POW.FC5.BetaL,POW.FC5.BetaH,POW.FC5.Gamma,POW.T7.Theta,POW.T7.Alpha,POW.T7.BetaL,POW.T7.BetaH,POW.T7.Gamma,POW.P7.Theta,POW.P7.Alpha,POW.P7.BetaL,POW.P7.BetaH,POW.P7.Gamma,POW.O1.Theta,POW.O1.Alpha,POW.O1.BetaL,POW.O1.BetaH,POW.O1.Gamma,POW.O2.Theta,POW.O2.Alpha,POW.O2.BetaL,POW.O2.BetaH,POW.O2.Gamma,POW.P8.Theta,POW.P8.Alpha,POW.P8.BetaL,POW.P8.BetaH,POW.P8.Gamma,POW.T8.Theta,POW.T8.Alpha,POW.T8.BetaL,POW.T8.BetaH,POW.T8.Gamma,POW.FC6.Theta,POW.FC6.Alpha,POW.FC6.BetaL,POW.FC6.BetaH,POW.FC6.Gamma,POW.F4.Theta,POW.F4.Alpha,POW.F4.BetaL,POW.F4.BetaH,POW.F4.Gamma,POW.F8.Theta,POW.F8.Alpha,POW.F8.BetaL,POW.F8.BetaH,POW.F8.Gamma,POW.AF4.Theta,POW.AF4.Alpha,POW.AF4.BetaL,POW.AF4.BetaH,POW.AF4.Gamma
1739356670.917668,1739356670.917802,116.000000,0.000000,4271.282227,4244.358887,4325.897461,4309.743652,4237.563965,4218.974121,4238.846191,4299.743652,4252.948730,4242.307617,4588.461426,4478.461426,4414.871582,4506.282227,5556.000000,0.000000,10.000000,,,,0.000000,4.000000,4.000000,4.000000,4.000000,4.000000,4.000000,4.000000,4.000000,4.000000,4.000000,4.000000,4.000000,4.000000,4.000000,100.000000,,,,,,,,,,,,,,,,,29.000000,0.000000,0.700671,0.080933,-0.694580,0.141663,0.985472,-0.075204,0.032719,-45.291313,-28.671131,42.307762,,,,,,,,,,,,,,,,,,,,,,,,,,,,,,,,,,,,,,,,,,,,,,,,,,,,,,,,,,,,,,,,,,,,,,,,,,,,,,,,,,,,,,,,,,,,,,,,,,,,,
1739356670.925476,1739356670.925710,117.000000,0.000000,4279.743652,4252.820313,4335.897461,4321.025879,4239.743652,4220.641113,4240.256348,4295.128418,4257.563965,4247.692383,4589.487305,4490.512695,4414.871582,4515.641113,6371.000000,0.000000,10.000000,,,,0.000000,4.000000,4.000000,4.000000,4.000000,4.000000,4.000000,4.000000,4.000000,4.000000,4.000000,4.000000,4.000000,4.000000,4.000000,100.000000,,,,,,,,,,,,,,,,,,,,,,,,,,,,,,,,,,,,,,,,,,,,,,,,,,,,,,,,,,,,,,,,,,,,,,,,,,,,,,,,,,,,,,,,,,,,,,,,,,,,,,,,,,,,,,,,,,,,,,,,,,,,,,,,,
1739356670.933284,1739356670.933518,118.000000,0.000000,4261.922852,4233.717773,4320.769043,4308.461426,4222.692383,4205.000000,4227.820313,4286.410156,4232.692383,4218.589844,4567.692383,4466.666504,4395.384766,4496.666504,4752.000000,0.000000,10.000000,,,,0.000000,4.000000,4.000000,4.000000,4.000000,4.000000,4.000000,4.000000,4.000000,4.000000,4.000000,4.000000,4.000000,4.000000,4.000000,100.000000,,,,,,,,,,,,,,,,,,,,,,,,,,,,,,,,,,,,,,,,,,,,,,,,,,,,,,,,,,,,,,,,,,,,,,,,,,,,,,,,,,,,,,,,,,,,,,,,,,,,,,,,,,,,,,,,,,,,,,,,,,,,,,,,,
1739356670.941093,1739356670.941426,119.000000,0.000000,4248.717773,4221.794922,4307.307617,4294.615234,4215.641113,4199.230957,4220.897461,4287.563965,4215.641113,4200.384766,4561.538574,4450.128418,4389.871582,4479.358887,5522.000000,0.000000,10.000000,,,,0.000000,4.000000,4.000000,4.000000,4.000000,4.000000,4.000000,4.000000,4.000000,4.000000,4.000000,4.000000,4.000000,4.000000,4.000000,100.000000,,,,,,,,,,,,,,,,,,,,,,,,,,,,,,,,,,,,,,,,,,,,,,,,,,,,,,,,,,,,,,,,,,,,,,,,,,,,,,,,,,,,,,,,,,,,,,,,,,,,,,,,,,,,,,,,,,,,,,,,,,,,,,,,,
1739356670.948901,1739356670.949234,120.000000,0.000000,4263.333496,4233.589844,4317.179688,4307.436035,4229.615234,4215.128418,4239.358887,4294.871582,4236.538574,4221.025879,4583.077148,4466.666504,4403.205078,4492.436035,5556.000000,0.000000,10.000000,,,,0.000000,4.000000,4.000000,4.000000,4.000000,4.000000,4.000000,4.000000,4.000000,4.000000,4.000000,4.000000,4.000000,4.000000,4.000000,100.000000,,,,,,,,,,,,,,,,,30.000000,0.000000,0.700785,0.079834,-0.694580,0.141724,0.986449,-0.069833,0.033696,-45.262184,-28.804018,42.260319,,,,,,,,,,,,,,,,,,,,,,,,,,,,,,,,17.165552,4.493714,1.288208,1.018220,1.183060,10.010335,2.360271,1.020556,1.206781,1.118141,2.362149,1.064430,0.596509,0.647811,0.897295,3.111631,0.792590,0.601834,1.015553,1.142482,0.468877,0.271346,0.287793,0.913398,0.915545,0.335681,0.317987,0.392044,1.036283,0.713094,0.408494,0.505815,0.469122,1.116776,0.946914,0.110646,0.146502,0.120937,0.179112,0.153278,0.573452,0.950067,0.639827,0.952761,0.941716,0.772972,0.561169,0.737248,1.063499,1.104950,3.905522,0.993024,1.020311,0.759254,1.056888,3.734954,1.484128,0.873005,1.090877,1.345032,5.946301,1.056591,0.529951,0.550831,0.923728,14.866751,3.120159,1.094384,0.933053,1.005695
1739356670.956709,1739356670.957142,121.000000,0.000000,4277.692383,4243.717773,4327.051270,4322.820313,4243.205078,4229.230957,4260.256348,4295.641113,4254.743652,4236.922852,4594.230957,4479.102539,4408.461426,4507.692383,6371.000000,0.000000,10.000000,,,,0.000000,4.000000,4.000000,4.000000,4.000000,4.000000,4.000000,4.000000,4.000000,4.000000,4.000000,4.000000,4.000000,4.000000,4.000000,100.000000,,,,,,,,,,,,,,,,,,,,,,,,,,,,,,,,,,,,,,,,,,,,,,,,,,,,,,,,,,,,,,,,,,,,,,,,,,,,,,,,,,,,,,,,,,,,,,,,,,,,,,,,,,,,,,,,,,,,,,,,,,,,,,,,,
1739356670.964517,1739356670.964950,122.000000,0.000000,4257.179688,4229.102539,4307.436035,4304.230957,4229.358887,4214.358887,4239.743652,4285.256348,4232.051270,4212.948730,4569.230957,4448.974121,4386.538574,4484.102539,4752.000000,0.000000,10.000000,,,,0.000000,4.000000,4.000000,4.000000,4.000000,4.000000,4.000000,4.000000,4.000000,4.000000,4.000000,4.000000,4.000000,4.000000,4.000000,100.000000,,,,,,,,,,,,,,,,,,,,,,,,,,,,,,,,,,,,,,,,,,,,,,,,,,,,,,,,,,,,,,,,,,,,,,,,,,,,,,,,,,,,,,,,,,,,,,,,,,,,,,,,,,,,,,,,,,,,,,,,,,,,,,,,,
1739356670.972325,1739356670.972658,123.000000,0.000000,4237.820313,4211.922852,4293.077148,4284.615234,4213.461426,4197.948730,4216.025879,4280.000000,4214.487305,4196.410156,4555.512695,4426.794922,4371.538574,4462.948730,5522.000000,0.000000,10.000000,,,,0.000000,4.000000,4.000000,4.000000,4.000000,4.000000,4.000000,4.000000,4.000000,4.000000,4.000000,4.000000,4.000000,4.000000,4.000000,100.000000,,,,,,,,,,,,,,,,,,,,,,,,,,,,,,,,,,,,,,,,,,,,,,,,,,,,,,,,,,,,,,,,,,,,,,,,,,,,,,,,,,,,,,,,,,,,,,,,,,,,,,,,,,,,,,,,,,,,,,,,,,,,,,,,,
1739356670.980133,1739356670.980466,124.000000,0.000000,4267.692383,4233.846191,4320.769043,4310.897461,4235.897461,4215.512695,4241.922852,4291.538574,4241.794922,4226.153809,4591.410156,4463.846191,4397.820313,4495.000000,5556.000000,0.000000,10.000000,,,,0.000000,4.000000,4.000000,4.000000,4.000000,4.000000,4.000000,4.000000,4.000000,4.000000,4.000000,4.000000,4.000000,4.000000,4.000000,100.000000,,,,,,,,,,,,,,,,,31.000000,0.000000,0.700780,0.079346,-0.694641,0.141724,0.997680,-0.079111,0.028324,-45.452633,-28.840282,42.217621,,,,,,,,,,,,,,,,,,,,,,,,,,,,,,,,,,,,,,,,,,,,,,,,,,,,,,,,,,,,,,,,,,,,,,,,,,,,,,,,,,,,,,,,,,,,,,,,,,,,,
1739356670.987941,1739356670.988174,125.000000,0.000000,4297.692383,4267.051270,4343.717773,4339.230957,4257.436035,4231.666504,4260.384766,4296.153809,4263.461426,4250.128418,4616.794922,4493.333496,4415.769043,4521.922852,6371.000000,0.000000,10.000000,,,,0.000000,4.000000,4.000000,4.000000,4.000000,4.000000,4.000000,4.000000,4.000000,4.000000,4.000000,4.000000,4.000000,4.000000,4.000000,100.000000,,,,,,,,,,,,,,,,,,,,,,,,,,,,,,,,,,,,,,,,,,,,,,,,,,,,,,,,,,,,,,,,,,,,,,,,,,,,,,,,,,,,,,,,,,,,,,,,,,,,,,,,,,,,,,,,,,,,,,,,,,,,,,,,,
1739356670.995749,1739356670.995982,126.000000,0.000000,4282.051270,4262.692383,4328.974121,4323.589844,4237.948730,4211.025879,4231.282227,4285.256348,4241.794922,4228.461426,4594.615234,4467.179688,4392.948730,4497.692383,4752.000000,0.000000,10.000000,,,,0.000000,4.000000,4.000000,4.000000,4.000000,4.000000,4.000000,4.000000,4.000000,4.000000,4.000000,4.000000,4.000000,4.000000,4.000000,100.000000,,,,,,,,,,,,,,,,,,,,,,,,,,,,,,,,,,,,,,,,,,,,,,,,,,,,,,,,,,,,,,,,,,,,,,,,,,,,,,,,,,,,,,,,,,,,,,,,,,,,,,,,,,,,,,,,,,,,,,,,,,,,,,,,,
1739356671.003557,1739356671.003690,127.000000,0.000000,4274.871582,4253.333496,4323.589844,4312.948730,4224.615234,4197.307617,4219.230957,4284.871582,4231.282227,4220.384766,4587.948730,4456.153809,4381.794922,4484.487305,10.000000,0.000000,10.000000,,,,0.000000,4.000000,4.000000,4.000000,4.000000,4.000000,4.000000,4.000000,4.000000,4.000000,4.000000,4.000000,4.000000,4.000000,4.000000,100.000000,,,,,,,,,,,,,,,,,,,,,,,,,,,,,,,,,,,,,,,,,,,,,,,,,,,,,,,,,,,,,,,,,,,,,,,,,,,,,,,,,,,,,,,,,,,,,,,,,,,,,,,,,,,,,,,,,,,,,,,,,,,,,,,,,
1739356671.011365,1739356671.011498,0.000000,0.000000,4292.692383,4266.282227,4339.615234,4331.025879,4240.512695,4214.743652,4239.358887,4296.410156,4249.871582,4245.512695,4603.974121,4478.077148,4399.358887,4503.589844,4974.000000,0.000000,10.000000,,,,0.000000,4.000000,4.000000,4.000000,4.000000,4.000000,4.000000,4.000000,4.000000,4.000000,4.000000,4.000000,4.000000,4.000000,4.000000,100.000000,,,,,,,,,,,,,,,,,0.000000,0.000000,0.700506,0.078674,-0.695068,0.141357,0.996215,-0.088390,0.028812,-45.474033,-28.856255,42.279194,,,,,,,,,,,,,,,,,,,,,,,,,,,,,,,,,,,,,,,,,,,,,,,,,,,,,,,,,,,,,,,,,,,,,,,,,,,,,,,,,,,,,,,,,,,,,,,,,,,,,
1739356671.019173,1739356671.019206,1.000000,0.000000,4299.102539,4272.948730,4341.538574,4338.846191,4249.230957,4227.307617,4246.922852,4297.820313,4264.743652,4257.307617,4604.871582,4482.563965,4407.307617,4512.179688,5609.000000,0.000000,10.000000,,,,0.000000,4.000000,4.000000,4.000000,4.000000,4.000000,4.000000,4.000000,4.000000,4.000000,4.000000,4.000000,4.000000,4.000000,4.000000,100.000000,,,,,,,,,,,,,,,,,,,,,,,,,,,,,,,,,,,,,,,,,,,,,,,,,,,,,,,,,,,,,,,,,,,,,,,,,,,,,,,,,,,,,,,,,,,,,,,,,,,,,,,,,,,,,,,,,,,,,,,,,,,,,,,,,
1739356671.026981,1739356671.027114,2.000000,0.000000,4272.436035,4249.487305,4317.051270,4312.051270,4229.871582,4210.512695,4225.641113,4285.000000,4247.051270,4226.666504,4580.769043,4450.641113,4382.051270,4489.487305,5607.000000,0.000000,10.000000,,,,0.000000,4.000000,4.000000,4.000000,4.000000,4.000000,4.000000,4.000000,4.000000,4.000000,4.000000,4.000000,4.000000,4.000000,4.000000,100.000000,,,,,,,,,,,,,,,,,,,,,,,,,,,,,,,,,,,,,,,,,,,,,,,,,,,,,,,,,,,,,,,,,,,,,,,,,,,,,,,,,,,,,,,,,,,,,,,,,,,,,,,,,,,,,,,,,,,,,,,,,,,,,,,,,
1739356671.034789,1739356671.034922,3.000000,0.000000,4246.025879,4228.205078,4299.871582,4288.974121,4216.282227,4193.461426,4209.230957,4279.487305,4220.256348,4199.102539,4560.897461,4421.794922,4364.615234,4469.615234,5557.000000,0.000000,10.000000,,,,0.000000,4.000000,4.000000,4.000000,4.000000,4.000000,4.000000,4.000000,4.000000,4.000000,4.000000,4.000000,4.000000,4.000000,4.000000,100.000000,,,,,,,,,,,,,,,,,,,,,,,,,,,,,,,,,,,,,,,,,,,,,,,,,,,,,,,,,,,,,,,,,,,,,,,,,,,,,,,,,,,,,,,,,,,,,,,,,,,,,,,,,,,,,,,,,,,,,,,,,,,,,,,,,
1739356671.042598,1739356671.042730,4.000000,0.000000,4255.769043,4235.512695,4312.948730,4301.794922,4230.256348,4206.410156,4226.025879,4284.743652,4226.282227,4212.179688,4571.282227,4431.282227,4380.897461,4480.769043,5526.000000,0.000000,10.000000,,,,0.000000,4.000000,4.000000,4.000000,4.000000,4.000000,4.000000,4.000000,4.000000,4.000000,4.000000,4.000000,4.000000,4.000000,4.000000,100.000000,,,,,,,,,,,,,,,,,1.000000,0.000000,0.700154,0.078369,-0.695557,0.140869,0.991332,-0.079111,0.029300,-45.676632,-29.003962,42.167942,,,,,,,,,,,,,,,,,,,,,,,,,,,,,,,,,,,,,,,,,,,,,,,,,,,,,,,,,,,,,,,,,,,,,,,,,,,,,,,,,,,,,,,,,,,,,,,,,,,,,
1739356671.050406,1739356671.050438,5.000000,0.000000,4280.000000,4253.974121,4330.897461,4321.794922,4248.717773,4230.128418,4254.102539,4286.666504,4249.102539,4234.615234,4591.282227,4456.410156,4397.179688,4503.461426,5495.000000,0.000000,10.000000,,,,0.000000,4.000000,4.000000,4.000000,4.000000,4.000000,4.000000,4.000000,4.000000,4.000000,4.000000,4.000000,4.000000,4.000000,4.000000,100.000000,,,,,,,,,,,,,,,,,,,,,,,,,,,,,,,,,,,,,,,,,,,,,,,,,,,,,,,,,,,,,,,,,,,,,,,,,,,,,,,,,,,,,,,,,,,,,,,,,,,,,,,,,,,,,,,,,,,,,,,,,,,,,,,,,
1739356671.058214,1739356671.058347,6.000000,0.000000,4273.461426,4249.743652,4322.436035,4310.256348,4242.051270,4227.179688,4251.922852,4282.179688,4242.948730,4226.922852,4585.897461,4451.025879,4386.410156,4499.487305,5477.000000,0.000000,10.000000,,,,0.000000,4.000000,4.000000,4.000000,4.000000,4.000000,4.000000,4.000000,4.000000,4.000000,4.000000,4.000000,4.000000,4.000000,4.000000,100.000000,,,,,,,,,,,,,,,,,,,,,,,,,,,,,,,,,,,,,,,,,,,,,,,,,,,,,,,,,,,,,,,,,,,,,,,,,,,,,,,,,,,,,,,,,,,,,,,,,,,,,,,,,,,,,,,,,,,,,,,,,,,,,,,,,
1739356671.066022,1739356671.066155,7.000000,0.000000,4242.948730,4221.025879,4296.794922,4279.743652,4215.000000,4201.538574,4223.333496,4279.871582,4213.461426,4200.128418,4563.205078,4422.051270,4365.256348,4472.692383,2070.000000,0.000000,10.000000,,,,0.000000,4.000000,4.000000,4.000000,4.000000,4.000000,4.000000,4.000000,4.000000,4.000000,4.000000,4.000000,4.000000,4.000000,4.000000,100.000000,,,,,,,,,,,,,,,,,,,,,,,,,,,,,,,,,,,,,,,,,,,,,,,,,,,,,,,,,,,,,,,,,,,,,,,,,,,,,,,,,,,,,,,,,,,,,,,,,,,,,,,,,,,,,,,,,,,,,,,,,,,,,,,,,
1739356671.073830,1739356671.074063,8.000000,0.000000,4242.948730,4216.282227,4296.410156,4280.897461,4207.307617,4197.179688,4219.102539,4288.589844,4213.333496,4196.410156,4566.153809,4420.256348,4371.666504,4471.666504,5258.000000,0.000000,10.000000,,,,0.000000,4.000000,4.000000,4.000000,4.000000,4.000000,4.000000,4.000000,4.000000,4.000000,4.000000,4.000000,4.000000,4.000000,4.000000,100.000000,1.000000,58.333332,3.000000,4.000000,3.000000,4.000000,4.000000,3.000000,3.000000,4.000000,4.000000,3.000000,4.000000,1.000000,4.000000,3.000000,2.000000,0.000000,0.699901,0.078247,-0.695923,0.140381,1.003052,-0.080576,0.021975,-45.608967,-28.936899,42.251144,,,,,,,,,,,,,,,,,,,,,,,,,,,,,,,,31.523611,7.380466,2.071585,0.996621,1.185755,18.946404,3.780484,1.654582,1.148590,1.107070,3.838666,1.446550,0.849592,0.604056,0.887517,5.795132,1.282738,0.941308,0.879535,1.126745,0.469120,0.289104,0.420932,0.810782,0.915194,0.320127,0.380423,0.535342,0.925353,0.718556,0.357140,0.559731,0.669089,0.990961,0.971205,0.103398,0.184327,0.119496,0.152317,0.147896,0.572305,1.084200,0.791922,0.894003,0.953526,0.734198,0.634748,0.856247,0.952899,1.129221,4.504043,1.277312,1.245810,0.671408,1.025498,5.999987,1.918608,1.273806,1.062186,1.335702,10.121338,1.666874,0.738395,0.560462,0.906821,26.237070,5.197714,1.753415,0.974742,1.017196
1739356671.081638,1739356671.081871,9.000000,0.000000,4269.230957,4243.461426,4322.948730,4308.077148,4229.487305,4219.743652,4243.846191,4301.538574,4239.230957,4216.794922,4590.769043,4449.871582,4395.000000,4497.179688,5592.000000,0.000000,10.000000,,,,0.000000,4.000000,4.000000,4.000000,4.000000,4.000000,4.000000,4.000000,4.000000,4.000000,4.000000,4.000000,4.000000,4.000000,4.000000,100.000000,,,,,,,,,,,,,,,,,,,,,,,,,,,,,,,,,,,,,,,,,,,,,,,,,,,,,,,,,,,,,,,,,,,,,,,,,,,,,,,,,,,,,,,,,,,,,,,,,,,,,,,,,,,,,,,,,,,,,,,,,,,,,,,,,
1739356671.089446,1739356671.089779,10.000000,0.000000,4277.051270,4253.205078,4331.282227,4311.666504,4241.666504,4225.512695,4245.641113,4301.025879,4245.000000,4225.769043,4596.666504,4462.179688,4398.077148,4504.615234,4821.000000,0.000000,10.000000,,,,0.000000,4.000000,4.000000,4.000000,4.000000,4.000000,4.000000,4.000000,4.000000,4.000000,4.000000,4.000000,4.000000,4.000000,4.000000,100.000000,,,,,,,,,,,,,,,,,,,,,,,,,,,,,,,,,,,,,,,,,,,,,,,,,,,,,,,,,,,,,,,,,,,,,,,,,,,,,,,,,,,,,,,,,,,,,,,,,,,,,,,,,,,,,,,,,,,,,,,,,,,,,,,,,
1739356671.097254,1739356671.097587,11.000000,0.000000,4261.282227,4231.666504,4312.051270,4291.538574,4223.846191,4201.153809,4217.948730,4291.410156,4226.025879,4215.512695,4578.461426,4440.128418,4381.538574,4487.436035,5587.000000,0.000000,10.000000,,,,0.000000,4.000000,4.000000,4.000000,4.000000,4.000000,4.000000,4.000000,4.000000,4.000000,4.000000,4.000000,4.000000,4.000000,4.000000,100.000000,,,,,,,,,,,,,,,,,,,,,,,,,,,,,,,,,,,,,,,,,,,,,,,,,,,,,,,,,,,,,,,,,,,,,,,,,,,,,,,,,,,,,,,,,,,,,,,,,,,,,,,,,,,,,,,,,,,,,,,,,,,,,,,,,
1739356671.105062,1739356671.105496,12.000000,0.000000,4260.128418,4228.717773,4310.512695,4294.358887,4212.948730,4192.820313,4209.743652,4290.384766,4224.487305,4218.077148,4569.615234,4433.077148,4378.846191,4484.358887,5619.000000,0.000000,10.000000,,,,0.000000,4.000000,4.000000,4.000000,4.000000,4.000000,4.000000,4.000000,4.000000,4.000000,4.000000,4.000000,4.000000,4.000000,4.000000,100.000000,,,,,,,,,,,,,,,,,3.000000,0.000000,0.699551,0.078125,-0.696350,0.140076,1.002075,-0.067391,0.020022,-45.548073,-28.959875,42.209366,,,,,,,,,,,,,,,,,,,,,,,,,,,,,,,,,,,,,,,,,,,,,,,,,,,,,,,,,,,,,,,,,,,,,,,,,,,,,,,,,,,,,,,,,,,,,,,,,,,,,
1739356671.112870,1739356671.113304,13.000000,0.000000,4286.538574,4258.717773,4340.256348,4325.384766,4234.743652,4216.922852,4233.717773,4298.333496,4257.692383,4242.820313,4589.487305,4466.794922,4398.974121,4506.153809,6444.000000,0.000000,10.000000,,,,0.000000,4.000000,4.000000,4.000000,4.000000,4.000000,4.000000,4.000000,4.000000,4.000000,4.000000,4.000000,4.000000,4.000000,4.000000,100.000000,,,,,,,,,,,,,,,,,,,,,,,,,,,,,,,,,,,,,,,,,,,,,,,,,,,,,,,,,,,,,,,,,,,,,,,,,,,,,,,,,,,,,,,,,,,,,,,,,,,,,,,,,,,,,,,,,,,,,,,,,,,,,,,,,
1739356671.120678,1739356671.121212,14.000000,0.000000,4294.358887,4263.717773,4345.000000,4328.077148,4243.077148,4224.615234,4242.179688,4297.948730,4273.205078,4250.256348,4601.922852,4478.461426,4407.948730,4510.769043,4821.000000,0.000000,10.000000,,,,0.000000,4.000000,4.000000,4.000000,4.000000,4.000000,4.000000,4.000000,4.000000,4.000000,4.000000,4.000000,4.000000,4.000000,4.000000,100.000000,,,,,,,,,,,,,,,,,,,,,,,,,,,,,,,,,,,,,,,,,,,,,,,,,,,,,,,,,,,,,,,,,,,,,,,,,,,,,,,,,,,,,,,,,,,,,,,,,,,,,,,,,,,,,,,,,,,,,,,,,,,,,,,,,
1739356671.128487,1739356671.129020,15.000000,0.000000,4265.128418,4234.743652,4309.487305,4293.846191,4220.512695,4201.794922,4219.102539,4286.922852,4246.538574,4226.922852,4578.077148,4440.769043,4386.794922,4483.974121,5587.000000,0.000000,10.000000,,,,0.000000,4.000000,4.000000,4.000000,4.000000,4.000000,4.000000,4.000000,4.000000,4.000000,4.000000,4.000000,4.000000,4.000000,4.000000,100.000000,,,,,,,,,,,,,,,,,,,,,,,,,,,,,,,,,,,,,,,,,,,,,,,,,,,,,,,,,,,,,,,,,,,,,,,,,,,,,,,,,,,,,,,,,,,,,,,,,,,,,,,,,,,,,,,,,,,,,,,,,,,,,,,,,
1739356671.136294,1739356671.136927,16.000000,0.000000,4245.128418,4222.692383,4293.205078,4277.692383,4210.128418,4191.666504,4211.025879,4280.769043,4229.743652,4213.461426,4558.589844,4418.974121,4368.333496,4465.384766,0.000000,0.000000,10.000000,,,,0.000000,4.000000,4.000000,4.000000,4.000000,4.000000,4.000000,4.000000,4.000000,4.000000,4.000000,4.000000,4.000000,4.000000,4.000000,100.000000,,,,,,,,,,,,,,,,,4.000000,0.000000,0.699288,0.077759,-0.696655,0.140076,1.006959,-0.075204,0.023440,-45.559933,-29.047222,42.321762,,,,,,,,,,,,,,,,,,,,,,,,,,,,,,,,,,,,,,,,,,,,,,,,,,,,,,,,,,,,,,,,,,,,,,,,,,,,,,,,,,,,,,,,,,,,,,,,,,,,,
1739356671.144103,1739356671.144735,17.000000,0.000000,4264.230957,4241.025879,4320.256348,4302.692383,4233.717773,4216.282227,4242.307617,4286.538574,4256.282227,4238.461426,4579.358887,4446.410156,4385.128418,4481.538574,0.000000,0.000000,10.000000,,,,0.000000,4.000000,4.000000,4.000000,4.000000,4.000000,4.000000,4.000000,4.000000,4.000000,4.000000,4.000000,4.000000,4.000000,4.000000,100.000000,,,,,,,,,,,,,,,,,,,,,,,,,,,,,,,,,,,,,,,,,,,,,,,,,,,,,,,,,,,,,,,,,,,,,,,,,,,,,,,,,,,,,,,,,,,,,,,,,,,,,,,,,,,,,,,,,,,,,,,,,,,,,,,,,
1739356671.151911,1739356671.152443,18.000000,0.000000,4265.000000,4238.461426,4324.615234,4305.769043,4240.384766,4225.641113,4254.102539,4284.871582,4263.077148,4244.102539,4579.871582,4448.333496,4383.717773,4481.922852,0.000000,0.000000,10.000000,,,,0.000000,4.000000,4.000000,4.000000,4.000000,4.000000,4.000000,4.000000,4.000000,4.000000,4.000000,4.000000,4.000000,4.000000,4.000000,100.000000,,,,,,,,,,,,,,,,,,,,,,,,,,,,,,,,,,,,,,,,,,,,,,,,,,,,,,,,,,,,,,,,,,,,,,,,,,,,,,,,,,,,,,,,,,,,,,,,,,,,,,,,,,,,,,,,,,,,,,,,,,,,,,,,,
1739356671.159719,1739356671.160251,19.000000,0.000000,4231.153809,4207.307617,4291.410156,4268.461426,4214.743652,4202.563965,4223.974121,4269.487305,4221.794922,4201.794922,4539.102539,4406.666504,4349.743652,4447.307617,0.000000,0.000000,10.000000,,,,0.000000,4.000000,4.000000,4.000000,4.000000,4.000000,4.000000,4.000000,4.000000,4.000000,4.000000,4.000000,4.000000,4.000000,4.000000,100.000000,,,,,,,,,,,,,,,,,,,,,,,,,,,,,,,,,,,,,,,,,,,,,,,,,,,,,,,,,,,,,,,,,,,,,,,,,,,,,,,,,,,,,,,,,,,,,,,,,,,,,,,,,,,,,,,,,,,,,,,,,,,,,,,,,
1739356671.167527,1739356671.167960,20.000000,0.000000,4220.512695,4201.410156,4286.922852,4262.436035,4213.205078,4199.615234,4215.512695,4265.641113,4203.846191,4182.563965,4528.589844,4397.820313,4346.666504,4434.743652,0.000000,0.000000,10.000000,,,,0.000000,4.000000,4.000000,4.000000,4.000000,4.000000,4.000000,4.000000,4.000000,4.000000,4.000000,4.000000,4.000000,4.000000,4.000000,100.000000,,,,,,,,,,,,,,,,,5.000000,0.000000,0.699179,0.077759,-0.696838,0.139709,0.997192,-0.063484,0.021975,-45.637272,-29.025833,42.272919,,,,,,,,,,,,,,,,,,,,,,,,,,,,,,,,,,,,,,,,,,,,,,,,,,,,,,,,,,,,,,,,,,,,,,,,,,,,,,,,,,,,,,,,,,,,,,,,,,,,,
1739356671.175335,1739356671.175868,21.000000,0.000000,4232.692383,4222.051270,4304.358887,4288.077148,4232.563965,4218.589844,4235.512695,4274.487305,4217.179688,4198.846191,4549.230957,4417.948730,4361.025879,4450.641113,0.000000,0.000000,10.000000,,,,0.000000,4.000000,4.000000,4.000000,4.000000,4.000000,4.000000,4.000000,4.000000,4.000000,4.000000,4.000000,4.000000,4.000000,4.000000,100.000000,,,,,,,,,,,,,,,,,,,,,,,,,,,,,,,,,,,,,,,,,,,,,,,,,,,,,,,,,,,,,,,,,,,,,,,,,,,,,,,,,,,,,,,,,,,,,,,,,,,,,,,,,,,,,,,,,,,,,,,,,,,,,,,,,
1739356671.183143,1739356671.183676,22.000000,0.000000,4244.230957,4234.487305,4309.102539,4296.922852,4234.230957,4222.307617,4239.102539,4279.871582,4222.179688,4207.563965,4560.769043,4427.820313,4367.820313,4468.717773,0.000000,0.000000,10.000000,,,,0.000000,4.000000,4.000000,4.000000,4.000000,4.000000,4.000000,4.000000,4.000000,4.000000,4.000000,4.000000,4.000000,4.000000,4.000000,100.000000,,,,,,,,,,,,,,,,,,,,,,,,,,,,,,,,,,,,,,,,,,,,,,,,,,,,,,,,,,,,,,,,,,,,,,,,,,,,,,,,,,,,,,,,,,,,,,,,,,,,,,,,,,,,,,,,,,,,,,,,,,,,,,,,,
1739356671.190951,1739356671.191584,23.000000,0.000000,4241.666504,4221.666504,4298.974121,4279.615234,4216.922852,4205.512695,4220.256348,4277.948730,4212.692383,4200.128418,4555.641113,4419.358887,4368.333496,4465.897461,0.000000,0.000000,10.000000,,,,0.000000,4.000000,4.000000,4.000000,4.000000,4.000000,4.000000,4.000000,4.000000,4.000000,4.000000,4.000000,4.000000,4.000000,4.000000,100.000000,,,,,,,,,,,,,,,,,,,,,,,,,,,,,,,,,,,,,,,,,,,,,,,,,,,,,,,,,,,,,,,,,,,,,,,,,,,,,,,,,,,,,,,,,,,,,,,,,,,,,,,,,,,,,,,,,,,,,,,,,,,,,,,,,
1739356671.198759,1739356671.199392,24.000000,0.000000,4223.589844,4206.794922,4285.769043,4262.948730,4203.077148,4186.410156,4202.820313,4277.051270,4202.307617,4184.102539,4537.051270,4401.666504,4349.615234,4444.743652,0.000000,0.000000,10.000000,,,,0.000000,4.000000,4.000000,4.000000,4.000000,4.000000,4.000000,4.000000,4.000000,4.000000,4.000000,4.000000,4.000000,4.000000,4.000000,100.000000,,,,,,,,,,,,,,,,,6.000000,0.000000,0.699118,0.077759,-0.696899,0.139709,0.998169,-0.066903,0.007813,-45.590210,-29.189917,42.162292,,,,,,,,,,,,,,,,,,,,,,,,,,,,,,,,47.123177,10.345965,2.969943,0.987086,1.209965,28.942200,5.200556,2.411621,1.086325,1.124782,5.370889,1.837187,1.157270,0.589893,0.906615,8.754300,1.813070,1.358849,0.773591,1.135696,0.455463,0.301943,0.596544,0.715051,0.932193,0.293225,0.441880,0.697726,0.813516,0.742405,0.325316,0.611709,0.847287,0.859937,1.019630,0.089524,0.213068,0.129962,0.130983,0.153421,0.562305,1.176949,1.019631,0.882060,0.986146,0.679529,0.744113,1.091042,0.886132,1.171069,5.412106,1.593988,1.529088,0.664933,1.041780,8.256622,2.386232,1.800888,1.101501,1.371005,14.769655,2.307923,1.028529,0.638551,0.910235,38.556667,7.355772,2.482023,1.035373,1.058228
1739356671.206567,1739356671.207200,25.000000,0.000000,4229.487305,4217.051270,4292.307617,4270.769043,4211.025879,4189.487305,4209.487305,4286.922852,4213.333496,4189.487305,4538.461426,4409.102539,4351.153809,4446.922852,0.000000,0.000000,10.000000,,,,0.000000,4.000000,4.000000,4.000000,4.000000,4.000000,4.000000,4.000000,4.000000,4.000000,4.000000,4.000000,4.000000,4.000000,4.000000,100.000000,,,,,,,,,,,,,,,,,,,,,,,,,,,,,,,,,,,,,,,,,,,,,,,,,,,,,,,,,,,,,,,,,,,,,,,,,,,,,,,,,,,,,,,,,,,,,,,,,,,,,,,,,,,,,,,,,,,,,,,,,,,,,,,,,
1739356671.214375,1739356671.214908,26.000000,0.000000,4265.128418,4240.384766,4322.692383,4298.974121,4233.461426,4214.615234,4235.384766,4300.641113,4251.666504,4234.230957,4581.282227,4454.358887,4397.051270,4482.436035,0.000000,0.000000,10.000000,,,,0.000000,4.000000,4.000000,4.000000,4.000000,4.000000,4.000000,4.000000,4.000000,4.000000,4.000000,4.000000,4.000000,4.000000,4.000000,100.000000,,,,,,,,,,,,,,,,,,,,,,,,,,,,,,,,,,,,,,,,,,,,,,,,,,,,,,,,,,,,,,,,,,,,,,,,,,,,,,,,,,,,,,,,,,,,,,,,,,,,,,,,,,,,,,,,,,,,,,,,,,,,,,,,,
1739356671.222183,1739356671.222716,27.000000,0.000000,4265.128418,4241.025879,4326.025879,4303.846191,4233.333496,4216.025879,4233.589844,4295.769043,4258.846191,4246.025879,4588.333496,4461.410156,4396.538574,4486.794922,0.000000,0.000000,10.000000,,,,0.000000,4.000000,4.000000,4.000000,4.000000,4.000000,4.000000,4.000000,4.000000,4.000000,4.000000,4.000000,4.000000,4.000000,4.000000,100.000000,,,,,,,,,,,,,,,,,,,,,,,,,,,,,,,,,,,,,,,,,,,,,,,,,,,,,,,,,,,,,,,,,,,,,,,,,,,,,,,,,,,,,,,,,,,,,,,,,,,,,,,,,,,,,,,,,,,,,,,,,,,,,,,,,
1739356671.229992,1739356671.230424,28.000000,0.000000,4236.538574,4221.794922,4295.641113,4277.948730,4210.897461,4188.589844,4206.794922,4280.128418,4229.743652,4211.922852,4551.282227,4420.256348,4352.051270,4454.871582,0.000000,0.000000,10.000000,,,,0.000000,4.000000,4.000000,4.000000,4.000000,4.000000,4.000000,4.000000,4.000000,4.000000,4.000000,4.000000,4.000000,4.000000,4.000000,100.000000,,,,,,,,,,,,,,,,,7.000000,0.000000,0.699059,0.077637,-0.696960,0.139771,0.991332,-0.082530,0.012209,-45.647858,-29.087591,42.062733,,,,,,,,,,,,,,,,,,,,,,,,,,,,,,,,,,,,,,,,,,,,,,,,,,,,,,,,,,,,,,,,,,,,,,,,,,,,,,,,,,,,,,,,,,,,,,,,,,,,,
1739356671.237800,1739356671.238232,29.000000,0.000000,4250.512695,4232.948730,4300.641113,4282.563965,4216.538574,4193.589844,4212.692383,4285.000000,4235.512695,4216.025879,4563.589844,4427.820313,4367.692383,4462.948730,0.000000,0.000000,10.000000,,,,0.000000,4.000000,4.000000,4.000000,4.000000,4.000000,4.000000,4.000000,4.000000,4.000000,4.000000,4.000000,4.000000,4.000000,4.000000,100.000000,,,,,,,,,,,,,,,,,,,,,,,,,,,,,,,,,,,,,,,,,,,,,,,,,,,,,,,,,,,,,,,,,,,,,,,,,,,,,,,,,,,,,,,,,,,,,,,,,,,,,,,,,,,,,,,,,,,,,,,,,,,,,,,,,
1739356671.245608,1739356671.245940,30.000000,0.000000,4268.974121,4251.025879,4319.871582,4303.589844,4236.282227,4214.871582,4232.563965,4294.615234,4250.897461,4236.025879,4592.051270,4455.512695,4392.948730,4487.563965,0.000000,0.000000,10.000000,,,,0.000000,4.000000,4.000000,4.000000,4.000000,4.000000,4.000000,4.000000,4.000000,4.000000,4.000000,4.000000,4.000000,4.000000,4.000000,100.000000,,,,,,,,,,,,,,,,,,,,,,,,,,,,,,,,,,,,,,,,,,,,,,,,,,,,,,,,,,,,,,,,,,,,,,,,,,,,,,,,,,,,,,,,,,,,,,,,,,,,,,,,,,,,,,,,,,,,,,,,,,,,,,,,,
1739356671.253416,1739356671.253849,31.000000,0.000000,4260.512695,4244.871582,4317.179688,4303.846191,4235.128418,4214.871582,4235.256348,4292.692383,4243.077148,4231.922852,4585.384766,4452.692383,4381.794922,4488.974121,0.000000,0.000000,10.000000,,,,0.000000,4.000000,4.000000,4.000000,4.000000,4.000000,4.000000,4.000000,4.000000,4.000000,4.000000,4.000000,4.000000,4.000000,4.000000,100.000000,,,,,,,,,,,,,,,,,,,,,,,,,,,,,,,,,,,,,,,,,,,,,,,,,,,,,,,,,,,,,,,,,,,,,,,,,,,,,,,,,,,,,,,,,,,,,,,,,,,,,,,,,,,,,,,,,,,,,,,,,,,,,,,,,
1739356671.261224,1739356671.261657,32.000000,0.000000,4248.974121,4230.256348,4308.077148,4290.384766,4220.769043,4204.102539,4226.922852,4288.589844,4232.948730,4221.666504,4570.512695,4441.794922,4371.025879,4475.769043,0.000000,0.000000,10.000000,,,,0.000000,4.000000,4.000000,4.000000,4.000000,4.000000,4.000000,4.000000,4.000000,4.000000,4.000000,4.000000,4.000000,4.000000,4.000000,100.000000,,,,,,,,,,,,,,,,,8.000000,0.000000,0.699061,0.077393,-0.696960,0.139893,1.006959,-0.076670,0.023440,-45.716404,-29.145498,42.123123,,,,,,,,,,,,,,,,,,,,,,,,,,,,,,,,,,,,,,,,,,,,,,,,,,,,,,,,,,,,,,,,,,,,,,,,,,,,,,,,,,,,,,,,,,,,,,,,,,,,,
1739356671.269032,1739356671.269565,33.000000,0.000000,4235.000000,4219.743652,4295.769043,4275.256348,4206.410156,4189.230957,4208.717773,4283.077148,4214.230957,4196.410156,4551.153809,4421.922852,4355.256348,4454.358887,0.000000,0.000000,10.000000,,,,0.000000,4.000000,4.000000,4.000000,4.000000,4.000000,4.000000,4.000000,4.000000,4.000000,4.000000,4.000000,4.000000,4.000000,4.000000,100.000000,,,,,,,,,,,,,,,,,,,,,,,,,,,,,,,,,,,,,,,,,,,,,,,,,,,,,,,,,,,,,,,,,,,,,,,,,,,,,,,,,,,,,,,,,,,,,,,,,,,,,,,,,,,,,,,,,,,,,,,,,,,,,,,,,
1739356671.276840,1739356671.277373,34.000000,0.000000,4239.615234,4228.846191,4295.897461,4277.436035,4212.179688,4192.820313,4209.102539,4286.153809,4208.717773,4186.794922,4549.871582,4418.717773,4354.871582,4456.794922,0.000000,0.000000,10.000000,,,,0.000000,4.000000,4.000000,4.000000,4.000000,4.000000,4.000000,4.000000,4.000000,4.000000,4.000000,4.000000,4.000000,4.000000,4.000000,100.000000,,,,,,,,,,,,,,,,,,,,,,,,,,,,,,,,,,,,,,,,,,,,,,,,,,,,,,,,,,,,,,,,,,,,,,,,,,,,,,,,,,,,,,,,,,,,,,,,,,,,,,,,,,,,,,,,,,,,,,,,,,,,,,,,,
1739356671.284648,1739356671.285281,35.000000,0.000000,4264.102539,4249.743652,4315.641113,4298.974121,4233.461426,4220.256348,4237.563965,4297.948730,4237.563965,4219.358887,4582.436035,4451.922852,4384.871582,4482.179688,0.000000,0.000000,10.000000,,,,0.000000,4.000000,4.000000,4.000000,4.000000,4.000000,4.000000,4.000000,4.000000,4.000000,4.000000,4.000000,4.000000,4.000000,4.000000,100.000000,,,,,,,,,,,,,,,,,,,,,,,,,,,,,,,,,,,,,,,,,,,,,,,,,,,,,,,,,,,,,,,,,,,,,,,,,,,,,,,,,,,,,,,,,,,,,,,,,,,,,,,,,,,,,,,,,,,,,,,,,,,,,,,,,
1739356671.292456,1739356671.293089,36.000000,0.000000,4262.948730,4248.717773,4317.820313,4300.512695,4233.846191,4222.051270,4241.666504,4296.025879,4244.102539,4229.871582,4591.538574,4460.128418,4387.692383,4485.897461,0.000000,0.000000,10.000000,,,,0.000000,4.000000,4.000000,4.000000,4.000000,4.000000,4.000000,4.000000,4.000000,4.000000,4.000000,4.000000,4.000000,4.000000,4.000000,100.000000,,,,,,,,,,,,,,,,,9.000000,0.000000,0.699049,0.076843,-0.697021,0.139954,1.007447,-0.075693,0.008790,-45.644764,-29.147615,41.960812,,,,,,,,,,,,,,,,,,,,,,,,,,,,,,,,,,,,,,,,,,,,,,,,,,,,,,,,,,,,,,,,,,,,,,,,,,,,,,,,,,,,,,,,,,,,,,,,,,,,,
1739356671.300264,1739356671.300997,37.000000,0.000000,4236.794922,4223.077148,4292.051270,4273.205078,4208.974121,4191.666504,4210.000000,4282.436035,4207.436035,4193.205078,4560.000000,4425.128418,4356.794922,4465.384766,0.000000,0.000000,10.000000,,,,0.000000,4.000000,4.000000,4.000000,4.000000,4.000000,4.000000,4.000000,4.000000,4.000000,4.000000,4.000000,4.000000,4.000000,4.000000,100.000000,,,,,,,,,,,,,,,,,,,,,,,,,,,,,,,,,,,,,,,,,,,,,,,,,,,,,,,,,,,,,,,,,,,,,,,,,,,,,,,,,,,,,,,,,,,,,,,,,,,,,,,,,,,,,,,,,,,,,,,,,,,,,,,,,
1739356671.308072,1739356671.308805,38.000000,0.000000,4255.641113,4236.410156,4308.205078,4287.948730,4216.922852,4201.922852,4220.384766,4291.282227,4218.205078,4201.410156,4567.692383,4439.743652,4366.794922,4484.358887,0.000000,0.000000,10.000000,,,,0.000000,4.000000,4.000000,4.000000,4.000000,4.000000,4.000000,4.000000,4.000000,4.000000,4.000000,4.000000,4.000000,4.000000,4.000000,100.000000,,,,,,,,,,,,,,,,,,,,,,,,,,,,,,,,,,,,,,,,,,,,,,,,,,,,,,,,,,,,,,,,,,,,,,,,,,,,,,,,,,,,,,,,,,,,,,,,,,,,,,,,,,,,,,,,,,,,,,,,,,,,,,,,,
1739356671.315880,1739356671.316713,39.000000,0.000000,4289.487305,4268.974121,4341.410156,4324.102539,4243.717773,4230.000000,4251.922852,4305.256348,4260.000000,4241.410156,4593.589844,4479.743652,4392.692383,4514.743652,0.000000,0.000000,10.000000,,,,0.000000,4.000000,4.000000,4.000000,4.000000,4.000000,4.000000,4.000000,4.000000,4.000000,4.000000,4.000000,4.000000,4.000000,4.000000,100.000000,,,,,,,,,,,,,,,,,,,,,,,,,,,,,,,,,,,,,,,,,,,,,,,,,,,,,,,,,,,,,,,,,,,,,,,,,,,,,,,,,,,,,,,,,,,,,,,,,,,,,,,,,,,,,,,,,,,,,,,,,,,,,,,,,
1739356671.323689,1739356671.324621,40.000000,0.000000,4267.563965,4246.666504,4320.384766,4303.717773,4227.563965,4208.846191,4231.410156,4292.820313,4246.025879,4223.205078,4572.179688,4455.769043,4377.051270,4489.358887,0.000000,0.000000,10.000000,,,,0.000000,4.000000,4.000000,4.000000,4.000000,4.000000,4.000000,4.000000,4.000000,4.000000,4.000000,4.000000,4.000000,4.000000,4.000000,100.000000,,,,,,,,,,,,,,,,,10.000000,0.000000,0.698845,0.076477,-0.697205,0.140259,0.995239,-0.062019,0.010743,-45.546955,-29.032854,41.731396,,,,,,,,,,,,,,,,,,,,,,,,,,,,,,,,59.196747,12.538523,3.736413,1.000387,1.264368,36.958828,6.221994,3.082227,1.043552,1.170702,6.480326,2.174459,1.434797,0.612514,0.957747,11.136538,2.257113,1.737879,0.737694,1.169326,0.458239,0.310885,0.768468,0.652439,0.971100,0.263739,0.487280,0.825175,0.725364,0.787633,0.323967,0.648650,0.945770,0.748488,1.103676,0.078888,0.230720,0.155342,0.119247,0.169634,0.554445,1.232268,1.262540,0.921174,1.044640,0.630561,0.912686,1.392021,0.877036,1.236370,6.257717,1.878829,1.778143,0.735575,1.109461,10.057664,2.824773,2.300119,1.202345,1.458265,18.521671,2.811918,1.330815,0.767303,0.942141,48.040768,8.976592,3.079415,1.104614,1.130898
1739356671.331497,1739356671.332429,41.000000,0.000000,4255.384766,4228.974121,4305.384766,4284.743652,4213.846191,4196.794922,4217.948730,4287.051270,4227.563965,4204.230957,4566.153809,4439.615234,4372.436035,4473.077148,0.000000,0.000000,10.000000,,,,0.000000,4.000000,4.000000,4.000000,4.000000,4.000000,4.000000,4.000000,4.000000,4.000000,4.000000,4.000000,4.000000,4.000000,4.000000,100.000000,,,,,,,,,,,,,,,,,,,,,,,,,,,,,,,,,,,,,,,,,,,,,,,,,,,,,,,,,,,,,,,,,,,,,,,,,,,,,,,,,,,,,,,,,,,,,,,,,,,,,,,,,,,,,,,,,,,,,,,,,,,,,,,,,
1739356671.339305,1739356671.340238,42.000000,0.000000,4281.922852,4255.512695,4331.153809,4308.846191,4234.615234,4220.769043,4243.461426,4299.230957,4247.692383,4229.230957,4601.922852,4476.025879,4390.256348,4504.358887,0.000000,0.000000,10.000000,,,,0.000000,4.000000,4.000000,4.000000,4.000000,4.000000,4.000000,4.000000,4.000000,4.000000,4.000000,4.000000,4.000000,4.000000,4.000000,100.000000,,,,,,,,,,,,,,,,,,,,,,,,,,,,,,,,,,,,,,,,,,,,,,,,,,,,,,,,,,,,,,,,,,,,,,,,,,,,,,,,,,,,,,,,,,,,,,,,,,,,,,,,,,,,,,,,,,,,,,,,,,,,,,,,,
1739356671.347113,1739356671.347946,43.000000,0.000000,4286.666504,4265.641113,4338.333496,4317.948730,4241.410156,4226.025879,4247.692383,4297.051270,4252.692383,4232.436035,4607.051270,4483.333496,4380.512695,4513.974121,0.000000,0.000000,10.000000,,,,0.000000,4.000000,4.000000,4.000000,4.000000,4.000000,4.000000,4.000000,4.000000,4.000000,4.000000,4.000000,4.000000,4.000000,4.000000,100.000000,,,,,,,,,,,,,,,,,,,,,,,,,,,,,,,,,,,,,,,,,,,,,,,,,,,,,,,,,,,,,,,,,,,,,,,,,,,,,,,,,,,,,,,,,,,,,,,,,,,,,,,,,,,,,,,,,,,,,,,,,,,,,,,,,
1739356671.354921,1739356671.355754,44.000000,0.000000,4277.051270,4251.666504,4324.230957,4310.641113,4232.820313,4215.641113,4233.333496,4287.948730,4236.025879,4214.487305,4585.000000,4461.282227,4367.563965,4494.230957,0.000000,0.000000,10.000000,,,,0.000000,4.000000,4.000000,4.000000,4.000000,4.000000,4.000000,4.000000,4.000000,4.000000,4.000000,4.000000,4.000000,4.000000,4.000000,100.000000,,,,,,,,,,,,,,,,,11.000000,0.000000,0.698910,0.075989,-0.697144,0.140503,1.031376,-0.063484,0.015139,-45.775593,-29.246235,41.674923,,,,,,,,,,,,,,,,,,,,,,,,,,,,,,,,,,,,,,,,,,,,,,,,,,,,,,,,,,,,,,,,,,,,,,,,,,,,,,,,,,,,,,,,,,,,,,,,,,,,,
1739356671.362729,1739356671.363462,45.000000,0.000000,4274.102539,4244.358887,4316.538574,4304.871582,4224.743652,4211.666504,4228.077148,4287.820313,4231.410156,4216.153809,4584.102539,4455.000000,4378.333496,4485.128418,0.000000,0.000000,10.000000,,,,0.000000,4.000000,4.000000,4.000000,4.000000,4.000000,4.000000,4.000000,4.000000,4.000000,4.000000,4.000000,4.000000,4.000000,4.000000,100.000000,,,,,,,,,,,,,,,,,,,,,,,,,,,,,,,,,,,,,,,,,,,,,,,,,,,,,,,,,,,,,,,,,,,,,,,,,,,,,,,,,,,,,,,,,,,,,,,,,,,,,,,,,,,,,,,,,,,,,,,,,,,,,,,,,
1739356671.370537,1739356671.371270,46.000000,0.000000,4258.846191,4235.512695,4301.794922,4287.436035,4210.512695,4201.666504,4218.589844,4287.563965,4230.641113,4210.512695,4585.641113,4444.230957,4375.641113,4474.615234,0.000000,0.000000,10.000000,,,,0.000000,4.000000,4.000000,4.000000,4.000000,4.000000,4.000000,4.000000,4.000000,4.000000,4.000000,4.000000,4.000000,4.000000,4.000000,100.000000,,,,,,,,,,,,,,,,,,,,,,,,,,,,,,,,,,,,,,,,,,,,,,,,,,,,,,,,,,,,,,,,,,,,,,,,,,,,,,,,,,,,,,,,,,,,,,,,,,,,,,,,,,,,,,,,,,,,,,,,,,,,,,,,,
1739356671.378345,1739356671.378978,47.000000,0.000000,4251.538574,4231.153809,4298.589844,4285.641113,4212.436035,4204.358887,4222.307617,4289.615234,4234.102539,4204.230957,4580.512695,4441.666504,4369.487305,4473.846191,0.000000,0.000000,10.000000,,,,0.000000,4.000000,4.000000,4.000000,4.000000,4.000000,4.000000,4.000000,4.000000,4.000000,4.000000,4.000000,4.000000,4.000000,4.000000,100.000000,,,,,,,,,,,,,,,,,,,,,,,,,,,,,,,,,,,,,,,,,,,,,,,,,,,,,,,,,,,,,,,,,,,,,,,,,,,,,,,,,,,,,,,,,,,,,,,,,,,,,,,,,,,,,,,,,,,,,,,,,,,,,,,,,
1739356671.386153,1739356671.386786,48.000000,0.000000,4263.846191,4235.128418,4310.384766,4301.025879,4227.051270,4216.410156,4241.153809,4293.077148,4239.615234,4217.436035,4584.230957,4457.948730,4381.922852,4490.641113,0.000000,0.000000,10.000000,,,,0.000000,4.000000,4.000000,4.000000,4.000000,4.000000,4.000000,4.000000,4.000000,4.000000,4.000000,4.000000,4.000000,4.000000,4.000000,100.000000,,,,,,,,,,,,,,,,,12.000000,0.000000,0.699310,0.075439,-0.696716,0.140930,1.047003,-0.089855,0.029300,-45.698032,-29.204945,41.640766,,,,,,,,,,,,,,,,,,,,,,,,,,,,,,,,,,,,,,,,,,,,,,,,,,,,,,,,,,,,,,,,,,,,,,,,,,,,,,,,,,,,,,,,,,,,,,,,,,,,,
1739356671.393961,1739356671.394494,49.000000,0.000000,4265.384766,4233.717773,4310.769043,4299.487305,4225.641113,4211.794922,4239.102539,4288.846191,4235.128418,4216.025879,4586.538574,4456.666504,4382.692383,4490.769043,0.000000,0.000000,10.000000,,,,0.000000,4.000000,4.000000,4.000000,4.000000,4.000000,4.000000,4.000000,4.000000,4.000000,4.000000,4.000000,4.000000,4.000000,4.000000,100.000000,,,,,,,,,,,,,,,,,,,,,,,,,,,,,,,,,,,,,,,,,,,,,,,,,,,,,,,,,,,,,,,,,,,,,,,,,,,,,,,,,,,,,,,,,,,,,,,,,,,,,,,,,,,,,,,,,,,,,,,,,,,,,,,,,
1739356671.401769,1739356671.402302,50.000000,0.000000,4255.897461,4227.692383,4304.615234,4287.820313,4216.538574,4200.128418,4223.333496,4285.769043,4228.077148,4201.025879,4579.358887,4444.230957,4368.846191,4478.846191,0.000000,0.000000,10.000000,,,,0.000000,4.000000,4.000000,4.000000,4.000000,4.000000,4.000000,4.000000,4.000000,4.000000,4.000000,4.000000,4.000000,4.000000,4.000000,100.000000,,,,,,,,,,,,,,,,,,,,,,,,,,,,,,,,,,,,,,,,,,,,,,,,,,,,,,,,,,,,,,,,,,,,,,,,,,,,,,,,,,,,,,,,,,,,,,,,,,,,,,,,,,,,,,,,,,,,,,,,,,,,,,,,,
1739356671.409577,1739356671.410010,51.000000,0.000000,4248.333496,4219.358887,4297.563965,4281.410156,4210.000000,4191.538574,4213.333496,4285.256348,4220.128418,4197.820313,4569.487305,4442.051270,4364.230957,4473.846191,0.000000,0.000000,10.000000,,,,0.000000,4.000000,4.000000,4.000000,4.000000,4.000000,4.000000,4.000000,4.000000,4.000000,4.000000,4.000000,4.000000,4.000000,4.000000,100.000000,,,,,,,,,,,,,,,,,,,,,,,,,,,,,,,,,,,,,,,,,,,,,,,,,,,,,,,,,,,,,,,,,,,,,,,,,,,,,,,,,,,,,,,,,,,,,,,,,,,,,,,,,,,,,,,,,,,,,,,,,,,,,,,,,
1739356671.417385,1739356671.417818,52.000000,0.000000,4244.743652,4214.230957,4288.974121,4277.436035,4207.307617,4185.512695,4206.025879,4283.205078,4213.333496,4197.307617,4562.820313,4435.512695,4366.153809,4469.743652,0.000000,0.000000,10.000000,,,,0.000000,4.000000,4.000000,4.000000,4.000000,4.000000,4.000000,4.000000,4.000000,4.000000,4.000000,4.000000,4.000000,4.000000,4.000000,100.000000,,,,,,,,,,,,,,,,,13.000000,0.000000,0.699524,0.075134,-0.696472,0.141235,1.032841,-0.087901,0.028324,-45.761562,-29.117785,41.743355,,,,,,,,,,,,,,,,,,,,,,,,,,,,,,,,,,,,,,,,,,,,,,,,,,,,,,,,,,,,,,,,,,,,,,,,,,,,,,,,,,,,,,,,,,,,,,,,,,,,,
1739356671.425194,1739356671.425526,53.000000,0.000000,4261.153809,4236.666504,4306.794922,4295.641113,4226.282227,4202.563965,4224.743652,4291.282227,4233.333496,4212.948730,4582.436035,4449.743652,4382.692383,4487.820313,0.000000,0.000000,10.000000,,,,0.000000,4.000000,4.000000,4.000000,4.000000,4.000000,4.000000,4.000000,4.000000,4.000000,4.000000,4.000000,4.000000,4.000000,4.000000,100.000000,,,,,,,,,,,,,,,,,,,,,,,,,,,,,,,,,,,,,,,,,,,,,,,,,,,,,,,,,,,,,,,,,,,,,,,,,,,,,,,,,,,,,,,,,,,,,,,,,,,,,,,,,,,,,,,,,,,,,,,,,,,,,,,,,
1739356671.433002,1739356671.433334,54.000000,0.000000,4277.692383,4258.461426,4332.307617,4318.846191,4244.615234,4225.769043,4252.179688,4299.230957,4260.128418,4237.436035,4608.333496,4480.128418,4398.461426,4512.436035,0.000000,0.000000,10.000000,,,,0.000000,4.000000,4.000000,4.000000,4.000000,4.000000,4.000000,4.000000,4.000000,4.000000,4.000000,4.000000,4.000000,4.000000,4.000000,100.000000,,,,,,,,,,,,,,,,,,,,,,,,,,,,,,,,,,,,,,,,,,,,,,,,,,,,,,,,,,,,,,,,,,,,,,,,,,,,,,,,,,,,,,,,,,,,,,,,,,,,,,,,,,,,,,,,,,,,,,,,,,,,,,,,,
1739356671.440810,1739356671.441042,55.000000,0.000000,4258.589844,4237.436035,4315.128418,4302.307617,4228.205078,4212.307617,4236.538574,4291.922852,4245.000000,4222.692383,4591.538574,4467.436035,4378.461426,4493.974121,0.000000,0.000000,10.000000,,,,0.000000,4.000000,4.000000,4.000000,4.000000,4.000000,4.000000,4.000000,4.000000,4.000000,4.000000,4.000000,4.000000,4.000000,4.000000,100.000000,,,,,,,,,,,,,,,,,,,,,,,,,,,,,,,,,,,,,,,,,,,,,,,,,,,,,,,,,,,,,,,,,,,,,,,,,,,,,,,,,,,,,,,,,,,,,,,,,,,,,,,,,,,,,,,,,,,,,,,,,,,,,,,,,
1739356671.448618,1739356671.448950,56.000000,0.000000,4246.538574,4224.102539,4297.948730,4284.871582,4217.436035,4199.871582,4219.230957,4287.563965,4229.743652,4202.948730,4574.871582,4447.948730,4364.358887,4477.307617,0.000000,0.000000,10.000000,,,,0.000000,4.000000,4.000000,4.000000,4.000000,4.000000,4.000000,4.000000,4.000000,4.000000,4.000000,4.000000,4.000000,4.000000,4.000000,100.000000,,,,,,,,,,,,,,,,,14.000000,0.000000,0.700066,0.074707,-0.695862,0.141785,1.035283,-0.072763,0.024905,-45.685406,-29.089338,41.869019,,,,,,,,,,,,,,,,,,,,,,,,,,,,,,,,63.548656,13.322221,4.121807,1.032902,1.368013,40.215771,6.582053,3.456983,1.030479,1.254036,6.781254,2.424756,1.604277,0.663779,1.056532,12.065865,2.526024,1.962798,0.775704,1.249046,0.490388,0.314508,0.890077,0.631670,1.047680,0.232314,0.502819,0.877141,0.671441,0.873157,0.356679,0.671467,0.935874,0.669281,1.245702,0.093663,0.249161,0.190062,0.116698,0.197090,0.567078,1.321021,1.444971,0.984525,1.156464,0.600785,1.203935,1.678733,0.913423,1.350625,6.590176,2.110108,1.915504,0.846351,1.239803,10.503537,3.201361,2.621155,1.332097,1.626920,20.026485,3.055123,1.554132,0.908439,1.020778,51.313511,9.581096,3.356880,1.164919,1.251895
1739356671.456426,1739356671.456758,57.000000,0.000000,4277.051270,4254.358887,4327.436035,4313.205078,4243.846191,4227.820313,4249.615234,4300.512695,4257.948730,4228.974121,4604.102539,4482.563965,4393.846191,4508.205078,0.000000,0.000000,10.000000,,,,0.000000,4.000000,4.000000,4.000000,4.000000,4.000000,4.000000,4.000000,4.000000,4.000000,4.000000,4.000000,4.000000,4.000000,4.000000,100.000000,,,,,,,,,,,,,,,,,,,,,,,,,,,,,,,,,,,,,,,,,,,,,,,,,,,,,,,,,,,,,,,,,,,,,,,,,,,,,,,,,,,,,,,,,,,,,,,,,,,,,,,,,,,,,,,,,,,,,,,,,,,,,,,,,
1739356671.464234,1739356671.464666,58.000000,0.000000,4301.410156,4274.358887,4354.102539,4341.153809,4262.563965,4246.410156,4272.563965,4307.051270,4274.230957,4252.179688,4624.743652,4514.615234,4410.641113,4533.333496,0.000000,0.000000,10.000000,,,,0.000000,4.000000,4.000000,4.000000,4.000000,4.000000,4.000000,4.000000,4.000000,4.000000,4.000000,4.000000,4.000000,4.000000,4.000000,100.000000,,,,,,,,,,,,,,,,,,,,,,,,,,,,,,,,,,,,,,,,,,,,,,,,,,,,,,,,,,,,,,,,,,,,,,,,,,,,,,,,,,,,,,,,,,,,,,,,,,,,,,,,,,,,,,,,,,,,,,,,,,,,,,,,,
1739356671.472042,1739356671.472475,59.000000,0.000000,4264.230957,4236.153809,4322.820313,4307.820313,4231.794922,4211.025879,4231.538574,4287.692383,4226.025879,4208.333496,4579.102539,4470.256348,4368.205078,4494.230957,0.000000,0.000000,10.000000,,,,0.000000,4.000000,4.000000,4.000000,4.000000,4.000000,4.000000,4.000000,4.000000,4.000000,4.000000,4.000000,4.000000,4.000000,4.000000,100.000000,,,,,,,,,,,,,,,,,,,,,,,,,,,,,,,,,,,,,,,,,,,,,,,,,,,,,,,,,,,,,,,,,,,,,,,,,,,,,,,,,,,,,,,,,,,,,,,,,,,,,,,,,,,,,,,,,,,,,,,,,,,,,,,,,
1739356671.479850,1739356671.480383,60.000000,0.000000,4242.436035,4218.205078,4304.615234,4286.922852,4214.230957,4192.436035,4212.307617,4280.128418,4198.589844,4177.948730,4553.205078,4440.256348,4349.358887,4470.769043,0.000000,0.000000,10.000000,,,,0.000000,4.000000,4.000000,4.000000,4.000000,4.000000,4.000000,4.000000,4.000000,4.000000,4.000000,4.000000,4.000000,4.000000,4.000000,100.000000,,,,,,,,,,,,,,,,,15.000000,0.000000,0.700600,0.074341,-0.695251,0.142334,1.004517,-0.085948,0.028324,-45.666866,-29.097073,41.865452,,,,,,,,,,,,,,,,,,,,,,,,,,,,,,,,,,,,,,,,,,,,,,,,,,,,,,,,,,,,,,,,,,,,,,,,,,,,,,,,,,,,,,,,,,,,,,,,,,,,,
1739356671.487658,1739356671.488191,61.000000,0.000000,4277.179688,4254.230957,4337.948730,4320.897461,4242.179688,4225.128418,4252.307617,4293.974121,4236.410156,4215.000000,4588.846191,4480.512695,4384.615234,4507.179688,0.000000,0.000000,10.000000,,,,0.000000,4.000000,4.000000,4.000000,4.000000,4.000000,4.000000,4.000000,4.000000,4.000000,4.000000,4.000000,4.000000,4.000000,4.000000,100.000000,,,,,,,,,,,,,,,,,,,,,,,,,,,,,,,,,,,,,,,,,,,,,,,,,,,,,,,,,,,,,,,,,,,,,,,,,,,,,,,,,,,,,,,,,,,,,,,,,,,,,,,,,,,,,,,,,,,,,,,,,,,,,,,,,
1739356671.495466,1739356671.496099,62.000000,0.000000,4297.820313,4272.692383,4356.538574,4340.000000,4259.358887,4246.794922,4273.717773,4301.538574,4260.384766,4243.077148,4607.179688,4506.538574,4399.871582,4529.487305,0.000000,0.000000,10.000000,,,,0.000000,4.000000,4.000000,4.000000,4.000000,4.000000,4.000000,4.000000,4.000000,4.000000,4.000000,4.000000,4.000000,4.000000,4.000000,100.000000,,,,,,,,,,,,,,,,,,,,,,,,,,,,,,,,,,,,,,,,,,,,,,,,,,,,,,,,,,,,,,,,,,,,,,,,,,,,,,,,,,,,,,,,,,,,,,,,,,,,,,,,,,,,,,,,,,,,,,,,,,,,,,,,,
1739356671.503274,1739356671.503907,63.000000,0.000000,4280.897461,4253.333496,4340.384766,4322.179688,4242.820313,4231.282227,4251.282227,4294.230957,4239.230957,4224.871582,4589.230957,4482.179688,4382.051270,4511.666504,0.000000,0.000000,10.000000,,,,0.000000,4.000000,4.000000,4.000000,4.000000,4.000000,4.000000,4.000000,4.000000,4.000000,4.000000,4.000000,4.000000,4.000000,4.000000,100.000000,,,,,,,,,,,,,,,,,,,,,,,,,,,,,,,,,,,,,,,,,,,,,,,,,,,,,,,,,,,,,,,,,,,,,,,,,,,,,,,,,,,,,,,,,,,,,,,,,,,,,,,,,,,,,,,,,,,,,,,,,,,,,,,,,
1739356671.511083,1739356671.511815,64.000000,0.000000,4256.538574,4224.871582,4318.974121,4298.077148,4220.897461,4207.820313,4227.436035,4286.922852,4215.128418,4197.307617,4574.230957,4455.256348,4367.436035,4489.230957,4951.000000,0.000000,10.000000,,,,0.000000,4.000000,4.000000,4.000000,4.000000,4.000000,4.000000,4.000000,4.000000,4.000000,4.000000,4.000000,4.000000,4.000000,4.000000,100.000000,,,,,,,,,,,,,,,,,16.000000,0.000000,0.701861,0.074768,-0.693970,0.142151,0.991332,-0.097668,0.032719,-45.716846,-29.254030,42.095573,,,,,,,,,,,,,,,,,,,,,,,,,,,,,,,,,,,,,,,,,,,,,,,,,,,,,,,,,,,,,,,,,,,,,,,,,,,,,,,,,,,,,,,,,,,,,,,,,,,,,
1739356671.518891,1739356671.519623,65.000000,0.000000,4257.051270,4225.897461,4321.922852,4301.794922,4227.307617,4213.589844,4236.666504,4292.436035,4227.436035,4206.922852,4585.897461,4461.538574,4374.102539,4493.974121,5584.000000,0.000000,10.000000,,,,0.000000,4.000000,4.000000,4.000000,4.000000,4.000000,4.000000,4.000000,4.000000,4.000000,4.000000,4.000000,4.000000,4.000000,4.000000,100.000000,,,,,,,,,,,,,,,,,,,,,,,,,,,,,,,,,,,,,,,,,,,,,,,,,,,,,,,,,,,,,,,,,,,,,,,,,,,,,,,,,,,,,,,,,,,,,,,,,,,,,,,,,,,,,,,,,,,,,,,,,,,,,,,,,
1739356671.526699,1739356671.527331,66.000000,0.000000,4278.846191,4255.769043,4339.230957,4326.153809,4251.666504,4235.128418,4255.256348,4299.615234,4254.230957,4242.948730,4608.333496,4481.025879,4395.512695,4518.205078,5586.000000,0.000000,10.000000,,,,0.000000,4.000000,4.000000,4.000000,4.000000,4.000000,4.000000,4.000000,4.000000,4.000000,4.000000,4.000000,4.000000,4.000000,4.000000,100.000000,,,,,,,,,,,,,,,,,,,,,,,,,,,,,,,,,,,,,,,,,,,,,,,,,,,,,,,,,,,,,,,,,,,,,,,,,,,,,,,,,,,,,,,,,,,,,,,,,,,,,,,,,,,,,,,,,,,,,,,,,,,,,,,,,
1739356671.534507,1739356671.535139,67.000000,0.000000,4290.512695,4274.102539,4341.025879,4336.794922,4259.615234,4241.153809,4256.025879,4297.692383,4260.000000,4257.307617,4620.384766,4486.410156,4409.487305,4529.230957,5526.000000,0.000000,10.000000,,,,0.000000,4.000000,4.000000,4.000000,4.000000,4.000000,4.000000,4.000000,4.000000,4.000000,4.000000,4.000000,4.000000,4.000000,4.000000,100.000000,,,,,,,,,,,,,,,,,,,,,,,,,,,,,,,,,,,,,,,,,,,,,,,,,,,,,,,,,,,,,,,,,,,,,,,,,,,,,,,,,,,,,,,,,,,,,,,,,,,,,,,,,,,,,,,,,,,,,,,,,,,,,,,,,
1739356671.542315,1739356671.542847,68.000000,0.000000,4273.974121,4254.487305,4321.538574,4313.846191,4237.051270,4223.333496,4239.102539,4288.846191,4239.871582,4231.025879,4606.025879,4461.922852,4393.461426,4508.461426,5507.000000,0.000000,10.000000,,,,0.000000,4.000000,4.000000,4.000000,4.000000,4.000000,4.000000,4.000000,4.000000,4.000000,4.000000,4.000000,4.000000,4.000000,4.000000,100.000000,,,,,,,,,,,,,,,,,17.000000,0.000000,0.703792,0.076233,-0.692139,0.140747,0.975705,-0.085460,0.039556,-45.511829,-29.161961,42.019348,,,,,,,,,,,,,,,,,,,,,,,,,,,,,,,,,,,,,,,,,,,,,,,,,,,,,,,,,,,,,,,,,,,,,,,,,,,,,,,,,,,,,,,,,,,,,,,,,,,,,
1739356671.550123,1739356671.550655,69.000000,0.000000,4275.769043,4251.153809,4324.871582,4313.077148,4236.794922,4223.205078,4241.282227,4290.897461,4241.025879,4224.743652,4609.615234,4460.769043,4390.769043,4508.205078,5470.000000,0.000000,10.000000,,,,0.000000,4.000000,4.000000,4.000000,4.000000,4.000000,4.000000,4.000000,4.000000,4.000000,4.000000,4.000000,4.000000,4.000000,4.000000,100.000000,,,,,,,,,,,,,,,,,,,,,,,,,,,,,,,,,,,,,,,,,,,,,,,,,,,,,,,,,,,,,,,,,,,,,,,,,,,,,,,,,,,,,,,,,,,,,,,,,,,,,,,,,,,,,,,,,,,,,,,,,,,,,,,,,
1739356671.557931,1739356671.558363,70.000000,0.000000,4302.820313,4281.922852,4348.205078,4342.948730,4262.436035,4242.948730,4262.563965,4298.205078,4262.820313,4253.846191,4642.436035,4490.000000,4410.384766,4535.769043,5457.000000,0.000000,10.000000,,,,0.000000,4.000000,4.000000,4.000000,4.000000,4.000000,4.000000,4.000000,4.000000,4.000000,4.000000,4.000000,4.000000,4.000000,4.000000,100.000000,,,,,,,,,,,,,,,,,,,,,,,,,,,,,,,,,,,,,,,,,,,,,,,,,,,,,,,,,,,,,,,,,,,,,,,,,,,,,,,,,,,,,,,,,,,,,,,,,,,,,,,,,,,,,,,,,,,,,,,,,,,,,,,,,
1739356671.565739,1739356671.566171,71.000000,0.000000,4300.641113,4287.051270,4346.538574,4343.461426,4259.358887,4241.666504,4262.307617,4293.846191,4258.461426,4255.384766,4643.717773,4487.692383,4407.692383,4530.384766,2059.000000,0.000000,10.000000,,,,0.000000,4.000000,4.000000,4.000000,4.000000,4.000000,4.000000,4.000000,4.000000,4.000000,4.000000,4.000000,4.000000,4.000000,4.000000,100.000000,,,,,,,,,,,,,,,,,,,,,,,,,,,,,,,,,,,,,,,,,,,,,,,,,,,,,,,,,,,,,,,,,,,,,,,,,,,,,,,,,,,,,,,,,,,,,,,,,,,,,,,,,,,,,,,,,,,,,,,,,,,,,,,,,
1739356671.573547,1739356671.573879,72.000000,0.000000,4291.666504,4276.410156,4339.358887,4331.153809,4247.179688,4236.410156,4256.153809,4292.948730,4252.051270,4245.128418,4623.461426,4473.717773,4402.436035,4519.871582,5255.000000,0.000000,10.000000,,,,0.000000,4.000000,4.000000,4.000000,4.000000,4.000000,4.000000,4.000000,4.000000,4.000000,4.000000,4.000000,4.000000,4.000000,4.000000,100.000000,1.000000,25.000000,3.000000,3.000000,1.000000,4.000000,3.000000,3.000000,1.000000,4.000000,4.000000,3.000000,3.000000,1.000000,4.000000,3.000000,18.000000,0.000000,0.705861,0.078796,-0.690247,0.138245,0.980588,-0.076181,0.042974,-45.477310,-29.062431,41.934082,,,,,,,,,,,,,,,,,,,,,,,,,,,,,,,,58.676403,12.581623,3.995217,1.068704,1.537803,37.644249,6.284256,3.417071,1.038711,1.387624,6.210485,2.592069,1.617161,0.725378,1.219869,11.375487,2.619697,1.962508,0.859883,1.403555,0.562078,0.315789,0.924633,0.641986,1.177365,0.210915,0.480088,0.833239,0.646257,1.021932,0.421167,0.693299,0.825749,0.621158,1.462271,0.159542,0.292037,0.224046,0.120380,0.236252,0.627584,1.577016,1.524837,1.035892,1.354678,0.636158,1.706751,1.873322,0.969940,1.544948,6.296409,2.310833,1.897897,0.956946,1.446176,9.807252,3.541165,2.667758,1.452117,1.907701,18.829573,3.020307,1.627505,1.020853,1.168147,47.308922,9.063254,3.230685,1.201207,1.440155
1739356671.581355,1739356671.581687,73.000000,0.000000,4304.230957,4281.410156,4347.307617,4339.615234,4258.461426,4248.333496,4268.205078,4302.307617,4266.025879,4257.692383,4627.948730,4485.641113,4416.922852,4538.077148,5589.000000,0.000000,10.000000,,,,0.000000,4.000000,4.000000,4.000000,4.000000,4.000000,4.000000,4.000000,4.000000,4.000000,4.000000,4.000000,4.000000,4.000000,4.000000,100.000000,,,,,,,,,,,,,,,,,,,,,,,,,,,,,,,,,,,,,,,,,,,,,,,,,,,,,,,,,,,,,,,,,,,,,,,,,,,,,,,,,,,,,,,,,,,,,,,,,,,,,,,,,,,,,,,,,,,,,,,,,,,,,,,,,
1739356671.589163,1739356671.589395,74.000000,0.000000,4310.769043,4288.077148,4351.025879,4348.077148,4265.512695,4257.179688,4277.820313,4300.641113,4269.615234,4264.743652,4636.153809,4492.436035,4420.256348,4543.333496,4831.000000,0.000000,10.000000,,,,0.000000,4.000000,4.000000,4.000000,4.000000,4.000000,4.000000,4.000000,4.000000,4.000000,4.000000,4.000000,4.000000,4.000000,4.000000,100.000000,,,,,,,,,,,,,,,,,,,,,,,,,,,,,,,,,,,,,,,,,,,,,,,,,,,,,,,,,,,,,,,,,,,,,,,,,,,,,,,,,,,,,,,,,,,,,,,,,,,,,,,,,,,,,,,,,,,,,,,,,,,,,,,,,
1739356671.596971,1739356671.597203,75.000000,0.000000,4293.205078,4275.897461,4336.025879,4333.333496,4249.871582,4245.512695,4261.538574,4285.384766,4245.000000,4236.794922,4613.589844,4466.282227,4400.128418,4518.205078,5589.000000,0.000000,10.000000,,,,0.000000,4.000000,4.000000,4.000000,4.000000,4.000000,4.000000,4.000000,4.000000,4.000000,4.000000,4.000000,4.000000,4.000000,4.000000,100.000000,,,,,,,,,,,,,,,,,,,,,,,,,,,,,,,,,,,,,,,,,,,,,,,,,,,,,,,,,,,,,,,,,,,,,,,,,,,,,,,,,,,,,,,,,,,,,,,,,,,,,,,,,,,,,,,,,,,,,,,,,,,,,,,,,
1739356671.604779,1739356671.604911,76.000000,0.000000,4287.563965,4269.743652,4328.461426,4323.974121,4249.230957,4245.128418,4253.205078,4285.897461,4233.717773,4217.179688,4595.769043,4453.717773,4394.102539,4509.615234,5619.000000,0.000000,10.000000,,,,0.000000,4.000000,4.000000,4.000000,4.000000,4.000000,4.000000,4.000000,4.000000,4.000000,4.000000,4.000000,4.000000,4.000000,4.000000,100.000000,,,,,,,,,,,,,,,,,19.000000,0.000000,0.708099,0.081970,-0.688293,0.134644,0.960566,-0.076181,0.036137,-45.429581,-28.989523,41.874004,,,,,,,,,,,,,,,,,,,,,,,,,,,,,,,,,,,,,,,,,,,,,,,,,,,,,,,,,,,,,,,,,,,,,,,,,,,,,,,,,,,,,,,,,,,,,,,,,,,,,
1739356671.612588,1739356671.612719,77.000000,0.000000,4305.256348,4285.897461,4345.384766,4340.384766,4267.307617,4264.615234,4274.871582,4300.256348,4254.358887,4240.769043,4610.512695,4477.307617,4411.153809,4531.025879,6449.000000,0.000000,10.000000,,,,0.000000,4.000000,4.000000,4.000000,4.000000,4.000000,4.000000,4.000000,4.000000,4.000000,4.000000,4.000000,4.000000,4.000000,4.000000,100.000000,,,,,,,,,,,,,,,,,,,,,,,,,,,,,,,,,,,,,,,,,,,,,,,,,,,,,,,,,,,,,,,,,,,,,,,,,,,,,,,,,,,,,,,,,,,,,,,,,,,,,,,,,,,,,,,,,,,,,,,,,,,,,,,,,
1739356671.620396,1739356671.620427,78.000000,0.000000,4317.179688,4300.897461,4359.743652,4355.897461,4277.436035,4271.922852,4287.051270,4305.641113,4272.307617,4269.487305,4627.179688,4497.820313,4422.692383,4544.615234,4831.000000,0.000000,10.000000,,,,0.000000,4.000000,4.000000,4.000000,4.000000,4.000000,4.000000,4.000000,4.000000,4.000000,4.000000,4.000000,4.000000,4.000000,4.000000,100.000000,,,,,,,,,,,,,,,,,,,,,,,,,,,,,,,,,,,,,,,,,,,,,,,,,,,,,,,,,,,,,,,,,,,,,,,,,,,,,,,,,,,,,,,,,,,,,,,,,,,,,,,,,,,,,,,,,,,,,,,,,,,,,,,,,
1739356671.628204,1739356671.628335,79.000000,0.000000,4303.974121,4290.128418,4346.538574,4341.153809,4263.077148,4254.871582,4261.025879,4297.820313,4259.358887,4256.282227,4611.666504,4477.051270,4408.077148,4527.948730,5589.000000,0.000000,10.000000,,,,0.000000,4.000000,4.000000,4.000000,4.000000,4.000000,4.000000,4.000000,4.000000,4.000000,4.000000,4.000000,4.000000,4.000000,4.000000,100.000000,,,,,,,,,,,,,,,,,,,,,,,,,,,,,,,,,,,,,,,,,,,,,,,,,,,,,,,,,,,,,,,,,,,,,,,,,,,,,,,,,,,,,,,,,,,,,,,,,,,,,,,,,,,,,,,,,,,,,,,,,,,,,,,,,
1739356671.636012,1739356671.636143,80.000000,0.000000,4281.153809,4270.000000,4329.230957,4320.384766,4242.948730,4237.820313,4238.461426,4292.051270,4238.589844,4228.717773,4586.538574,4447.436035,4390.128418,4506.153809,5619.000000,0.000000,10.000000,,,,0.000000,4.000000,4.000000,4.000000,4.000000,4.000000,4.000000,4.000000,4.000000,4.000000,4.000000,4.000000,4.000000,4.000000,4.000000,100.000000,,,,,,,,,,,,,,,,,20.000000,0.000000,0.710384,0.085876,-0.686340,0.130066,0.986449,-0.041997,0.052252,-45.453289,-28.907236,42.053272,,,,,,,,,,,,,,,,,,,,,,,,,,,,,,,,,,,,,,,,,,,,,,,,,,,,,,,,,,,,,,,,,,,,,,,,,,,,,,,,,,,,,,,,,,,,,,,,,,,,,
1739356671.643820,1739356671.644051,81.000000,0.000000,4303.589844,4294.358887,4353.077148,4348.846191,4265.769043,4258.461426,4264.871582,4304.358887,4263.333496,4254.487305,4609.743652,4480.384766,4413.974121,4529.743652,6449.000000,0.000000,10.000000,,,,0.000000,4.000000,4.000000,4.000000,4.000000,4.000000,4.000000,4.000000,4.000000,4.000000,4.000000,4.000000,4.000000,4.000000,4.000000,100.000000,,,,,,,,,,,,,,,,,,,,,,,,,,,,,,,,,,,,,,,,,,,,,,,,,,,,,,,,,,,,,,,,,,,,,,,,,,,,,,,,,,,,,,,,,,,,,,,,,,,,,,,,,,,,,,,,,,,,,,,,,,,,,,,,,
1739356671.651628,1739356671.651860,82.000000,0.000000,4336.794922,4323.974121,4378.077148,4373.974121,4290.641113,4277.051270,4286.794922,4311.794922,4288.717773,4287.692383,4640.641113,4515.641113,4441.410156,4557.307617,4831.000000,0.000000,10.000000,,,,0.000000,4.000000,4.000000,4.000000,4.000000,4.000000,4.000000,4.000000,4.000000,4.000000,4.000000,4.000000,4.000000,4.000000,4.000000,100.000000,,,,,,,,,,,,,,,,,,,,,,,,,,,,,,,,,,,,,,,,,,,,,,,,,,,,,,,,,,,,,,,,,,,,,,,,,,,,,,,,,,,,,,,,,,,,,,,,,,,,,,,,,,,,,,,,,,,,,,,,,,,,,,,,,
1739356671.659436,1739356671.659768,83.000000,0.000000,4311.666504,4295.000000,4356.282227,4342.692383,4263.333496,4253.205078,4259.358887,4299.615234,4261.282227,4260.897461,4616.282227,4483.974121,4423.333496,4532.563965,5589.000000,0.000000,10.000000,,,,0.000000,4.000000,4.000000,4.000000,4.000000,4.000000,4.000000,4.000000,4.000000,4.000000,4.000000,4.000000,4.000000,4.000000,4.000000,100.000000,,,,,,,,,,,,,,,,,,,,,,,,,,,,,,,,,,,,,,,,,,,,,,,,,,,,,,,,,,,,,,,,,,,,,,,,,,,,,,,,,,,,,,,,,,,,,,,,,,,,,,,,,,,,,,,,,,,,,,,,,,,,,,,,,
1739356671.667244,1739356671.667576,84.000000,0.000000,4291.794922,4274.230957,4341.922852,4329.871582,4247.563965,4243.589844,4251.922852,4298.717773,4250.128418,4241.282227,4598.589844,4463.846191,4413.205078,4517.948730,5619.000000,0.000000,10.000000,,,,0.000000,4.000000,4.000000,4.000000,4.000000,4.000000,4.000000,4.000000,4.000000,4.000000,4.000000,4.000000,4.000000,4.000000,4.000000,100.000000,,,,,,,,,,,,,,,,,21.000000,0.000000,0.711404,0.088013,-0.685425,0.127869,0.975217,-0.029300,0.056648,-45.524628,-28.916513,42.214611,,,,,,,,,,,,,,,,,,,,,,,,,,,,,,,,,,,,,,,,,,,,,,,,,,,,,,,,,,,,,,,,,,,,,,,,,,,,,,,,,,,,,,,,,,,,,,,,,,,,,
1739356671.675052,1739356671.675484,85.000000,0.000000,4315.256348,4297.820313,4361.282227,4356.153809,4271.666504,4268.974121,4277.820313,4311.922852,4277.307617,4266.538574,4625.000000,4490.128418,4436.153809,4545.512695,6449.000000,0.000000,10.000000,,,,0.000000,4.000000,4.000000,4.000000,4.000000,4.000000,4.000000,4.000000,4.000000,4.000000,4.000000,4.000000,4.000000,4.000000,4.000000,100.000000,,,,,,,,,,,,,,,,,,,,,,,,,,,,,,,,,,,,,,,,,,,,,,,,,,,,,,,,,,,,,,,,,,,,,,,,,,,,,,,,,,,,,,,,,,,,,,,,,,,,,,,,,,,,,,,,,,,,,,,,,,,,,,,,,
1739356671.682860,1739356671.683292,86.000000,0.000000,4317.051270,4305.641113,4367.179688,4354.615234,4274.871582,4275.128418,4279.743652,4315.512695,4278.077148,4276.666504,4632.692383,4496.794922,4443.333496,4552.307617,4831.000000,0.000000,10.000000,,,,0.000000,4.000000,4.000000,4.000000,4.000000,4.000000,4.000000,4.000000,4.000000,4.000000,4.000000,4.000000,4.000000,4.000000,4.000000,100.000000,,,,,,,,,,,,,,,,,,,,,,,,,,,,,,,,,,,,,,,,,,,,,,,,,,,,,,,,,,,,,,,,,,,,,,,,,,,,,,,,,,,,,,,,,,,,,,,,,,,,,,,,,,,,,,,,,,,,,,,,,,,,,,,,,
1739356671.690668,1739356671.691200,87.000000,0.000000,4291.666504,4283.077148,4357.307617,4331.538574,4256.410156,4257.820313,4266.153809,4318.717773,4256.410156,4256.538574,4611.153809,4476.922852,4430.769043,4532.307617,5589.000000,0.000000,10.000000,,,,0.000000,4.000000,4.000000,4.000000,4.000000,4.000000,4.000000,4.000000,4.000000,4.000000,4.000000,4.000000,4.000000,4.000000,4.000000,100.000000,,,,,,,,,,,,,,,,,,,,,,,,,,,,,,,,,,,,,,,,,,,,,,,,,,,,,,,,,,,,,,,,,,,,,,,,,,,,,,,,,,,,,,,,,,,,,,,,,,,,,,,,,,,,,,,,,,,,,,,,,,,,,,,,,
1739356671.698476,1739356671.699008,88.000000,0.000000,4292.051270,4277.563965,4367.436035,4335.512695,4256.153809,4257.436035,4268.461426,4332.820313,4259.230957,4249.358887,4607.179688,4478.077148,4433.717773,4535.000000,5619.000000,0.000000,10.000000,,,,0.000000,4.000000,4.000000,4.000000,4.000000,4.000000,4.000000,4.000000,4.000000,4.000000,4.000000,4.000000,4.000000,4.000000,4.000000,100.000000,,,,,,,,,,,,,,,,,22.000000,0.000000,0.713276,0.092163,-0.683716,0.123596,1.009401,-0.020510,0.057136,-45.622166,-28.808195,42.243149,,,,,,,,,,,,,,,,,,,,,,,,,,,,,,,,46.211884,10.738937,3.396601,1.083220,1.774241,30.032032,5.561359,2.977514,1.047264,1.578489,4.981333,2.693947,1.470726,0.775089,1.451799,9.226836,2.609155,1.738932,0.941363,1.647804,0.646983,0.324602,0.860042,0.661247,1.362104,0.218752,0.428291,0.706980,0.633254,1.243488,0.522931,0.723140,0.654765,0.598242,1.750320,0.285961,0.377399,0.247299,0.127106,0.285943,0.718022,2.102054,1.492318,1.041242,1.652796,0.712577,2.453621,1.920368,1.015171,1.836330,5.367393,2.525220,1.734594,1.035426,1.730646,7.970455,3.886112,2.432209,1.526933,2.305413,15.274597,2.798206,1.528193,1.073495,1.394480,37.321884,7.713888,2.751822,1.203379,1.702037
1739356671.706284,1739356671.706915,89.000000,0.000000,4300.000000,4287.307617,4384.743652,4345.256348,4262.179688,4263.205078,4270.897461,4345.128418,4268.077148,4258.589844,4619.358887,4494.102539,4446.922852,4547.692383,6449.000000,0.000000,10.000000,,,,0.000000,4.000000,4.000000,4.000000,4.000000,4.000000,4.000000,4.000000,4.000000,4.000000,4.000000,4.000000,4.000000,4.000000,4.000000,100.000000,,,,,,,,,,,,,,,,,,,,,,,,,,,,,,,,,,,,,,,,,,,,,,,,,,,,,,,,,,,,,,,,,,,,,,,,,,,,,,,,,,,,,,,,,,,,,,,,,,,,,,,,,,,,,,,,,,,,,,,,,,,,,,,,,
1739356671.714093,1739356671.714723,90.000000,0.000000,4282.948730,4279.743652,4380.256348,4328.717773,4250.000000,4250.000000,4255.769043,4349.871582,4254.230957,4254.871582,4617.179688,4488.974121,4446.666504,4537.563965,4831.000000,0.000000,10.000000,,,,0.000000,4.000000,4.000000,4.000000,4.000000,4.000000,4.000000,4.000000,4.000000,4.000000,4.000000,4.000000,4.000000,4.000000,4.000000,100.000000,,,,,,,,,,,,,,,,,,,,,,,,,,,,,,,,,,,,,,,,,,,,,,,,,,,,,,,,,,,,,,,,,,,,,,,,,,,,,,,,,,,,,,,,,,,,,,,,,,,,,,,,,,,,,,,,,,,,,,,,,,,,,,,,,
1739356671.721901,1739356671.722431,91.000000,0.000000,4278.333496,4273.589844,4376.666504,4326.538574,4245.384766,4244.230957,4253.461426,4354.358887,4248.589844,4242.436035,4615.128418,4483.333496,4443.717773,4534.743652,5589.000000,0.000000,10.000000,,,,0.000000,4.000000,4.000000,4.000000,4.000000,4.000000,4.000000,4.000000,4.000000,4.000000,4.000000,4.000000,4.000000,4.000000,4.000000,100.000000,,,,,,,,,,,,,,,,,,,,,,,,,,,,,,,,,,,,,,,,,,,,,,,,,,,,,,,,,,,,,,,,,,,,,,,,,,,,,,,,,,,,,,,,,,,,,,,,,,,,,,,,,,,,,,,,,,,,,,,,,,,,,,,,,
1739356671.729709,1739356671.730239,92.000000,0.000000,4290.512695,4275.897461,4385.128418,4340.769043,4253.333496,4248.333496,4260.769043,4357.820313,4257.051270,4239.615234,4617.948730,4494.102539,4447.307617,4544.871582,5619.000000,0.000000,10.000000,,,,0.000000,4.000000,4.000000,4.000000,4.000000,4.000000,4.000000,4.000000,4.000000,4.000000,4.000000,4.000000,4.000000,4.000000,4.000000,100.000000,,,,,,,,,,,,,,,,,23.000000,0.000000,0.714446,0.096436,-0.682556,0.119934,1.006471,-0.005372,0.051764,-45.526615,-28.644043,42.402168,,,,,,,,,,,,,,,,,,,,,,,,,,,,,,,,,,,,,,,,,,,,,,,,,,,,,,,,,,,,,,,,,,,,,,,,,,,,,,,,,,,,,,,,,,,,,,,,,,,,,
1739356671.737517,1739356671.737948,93.000000,0.000000,4295.512695,4277.820313,4391.794922,4339.743652,4254.230957,4246.666504,4256.025879,4356.666504,4259.615234,4252.179688,4622.179688,4506.410156,4455.897461,4547.436035,6449.000000,0.000000,10.000000,,,,0.000000,4.000000,4.000000,4.000000,4.000000,4.000000,4.000000,4.000000,4.000000,4.000000,4.000000,4.000000,4.000000,4.000000,4.000000,100.000000,,,,,,,,,,,,,,,,,,,,,,,,,,,,,,,,,,,,,,,,,,,,,,,,,,,,,,,,,,,,,,,,,,,,,,,,,,,,,,,,,,,,,,,,,,,,,,,,,,,,,,,,,,,,,,,,,,,,,,,,,,,,,,,,,
1739356671.745325,1739356671.745856,94.000000,0.000000,4302.436035,4288.205078,4396.410156,4341.153809,4257.563965,4253.974121,4255.512695,4354.358887,4261.922852,4264.743652,4633.077148,4517.563965,4463.077148,4551.666504,4831.000000,0.000000,10.000000,,,,0.000000,4.000000,4.000000,4.000000,4.000000,4.000000,4.000000,4.000000,4.000000,4.000000,4.000000,4.000000,4.000000,4.000000,4.000000,100.000000,,,,,,,,,,,,,,,,,,,,,,,,,,,,,,,,,,,,,,,,,,,,,,,,,,,,,,,,,,,,,,,,,,,,,,,,,,,,,,,,,,,,,,,,,,,,,,,,,,,,,,,,,,,,,,,,,,,,,,,,,,,,,,,,,
1739356671.753133,1739356671.753664,95.000000,0.000000,4315.000000,4300.769043,4402.179688,4353.333496,4274.230957,4270.769043,4268.333496,4354.487305,4273.589844,4268.717773,4640.769043,4526.282227,4462.692383,4557.563965,5589.000000,0.000000,10.000000,,,,0.000000,4.000000,4.000000,4.000000,4.000000,4.000000,4.000000,4.000000,4.000000,4.000000,4.000000,4.000000,4.000000,4.000000,4.000000,100.000000,,,,,,,,,,,,,,,,,,,,,,,,,,,,,,,,,,,,,,,,,,,,,,,,,,,,,,,,,,,,,,,,,,,,,,,,,,,,,,,,,,,,,,,,,,,,,,,,,,,,,,,,,,,,,,,,,,,,,,,,,,,,,,,,,
1739356671.760941,1739356671.761572,96.000000,0.000000,4309.230957,4293.077148,4393.205078,4339.487305,4272.820313,4264.871582,4264.871582,4349.743652,4274.615234,4265.384766,4632.436035,4512.948730,4457.692383,4544.871582,5619.000000,0.000000,10.000000,,,,0.000000,4.000000,4.000000,4.000000,4.000000,4.000000,4.000000,4.000000,4.000000,4.000000,4.000000,4.000000,4.000000,4.000000,4.000000,100.000000,,,,,,,,,,,,,,,,,24.000000,0.000000,0.715192,0.100403,-0.681763,0.116699,0.995239,0.008302,0.042974,-45.623955,-28.429638,42.328617,,,,,,,,,,,,,,,,,,,,,,,,,,,,,,,,,,,,,,,,,,,,,,,,,,,,,,,,,,,,,,,,,,,,,,,,,,,,,,,,,,,,,,,,,,,,,,,,,,,,,
1739356671.768749,1739356671.769380,97.000000,0.000000,4307.820313,4295.128418,4390.384766,4331.410156,4267.307617,4261.538574,4263.205078,4347.820313,4271.794922,4272.051270,4636.794922,4512.563965,4470.128418,4546.794922,6449.000000,0.000000,10.000000,,,,0.000000,4.000000,4.000000,4.000000,4.000000,4.000000,4.000000,4.000000,4.000000,4.000000,4.000000,4.000000,4.000000,4.000000,4.000000,100.000000,,,,,,,,,,,,,,,,,,,,,,,,,,,,,,,,,,,,,,,,,,,,,,,,,,,,,,,,,,,,,,,,,,,,,,,,,,,,,,,,,,,,,,,,,,,,,,,,,,,,,,,,,,,,,,,,,,,,,,,,,,,,,,,,,
1739356671.776557,1739356671.777288,98.000000,0.000000,4336.666504,4327.948730,4415.897461,4368.333496,4297.307617,4294.487305,4297.563965,4356.025879,4291.922852,4297.563965,4661.025879,4553.461426,4493.846191,4580.641113,4831.000000,0.000000,10.000000,,,,0.000000,4.000000,4.000000,4.000000,4.000000,4.000000,4.000000,4.000000,4.000000,4.000000,4.000000,4.000000,4.000000,4.000000,4.000000,100.000000,,,,,,,,,,,,,,,,,,,,,,,,,,,,,,,,,,,,,,,,,,,,,,,,,,,,,,,,,,,,,,,,,,,,,,,,,,,,,,,,,,,,,,,,,,,,,,,,,,,,,,,,,,,,,,,,,,,,,,,,,,,,,,,,,
1739356671.784365,1739356671.785096,99.000000,0.000000,4337.179688,4327.948730,4415.128418,4377.948730,4310.769043,4307.692383,4311.922852,4352.948730,4298.461426,4298.333496,4649.358887,4561.538574,4486.153809,4582.179688,5589.000000,0.000000,10.000000,,,,0.000000,4.000000,4.000000,4.000000,4.000000,4.000000,4.000000,4.000000,4.000000,4.000000,4.000000,4.000000,4.000000,4.000000,4.000000,100.000000,,,,,,,,,,,,,,,,,,,,,,,,,,,,,,,,,,,,,,,,,,,,,,,,,,,,,,,,,,,,,,,,,,,,,,,,,,,,,,,,,,,,,,,,,,,,,,,,,,,,,,,,,,,,,,,,,,,,,,,,,,,,,,,,,
1739356671.792173,1739356671.792905,100.000000,0.000000,4297.436035,4289.230957,4375.641113,4340.512695,4280.897461,4280.769043,4282.307617,4338.333496,4271.666504,4267.563965,4606.666504,4518.974121,4454.871582,4545.641113,5619.000000,0.000000,10.000000,,,,0.000000,4.000000,4.000000,4.000000,4.000000,4.000000,4.000000,4.000000,4.000000,4.000000,4.000000,4.000000,4.000000,4.000000,4.000000,100.000000,,,,,,,,,,,,,,,,,25.000000,0.000000,0.715639,0.104370,-0.681213,0.113647,0.990355,0.003907,0.060066,-45.778225,-28.136675,42.529091,,,,,,,,,,,,,,,,,,,,,,,,,,,,,,,,,,,,,,,,,,,,,,,,,,,,,,,,,,,,,,,,,,,,,,,,,,,,,,,,,,,,,,,,,,,,,,,,,,,,,
1739356671.799981,1739356671.800613,101.000000,0.000000,4283.974121,4277.820313,4358.461426,4330.256348,4265.256348,4267.307617,4268.589844,4334.102539,4256.282227,4252.692383,4593.974121,4502.820313,4447.436035,4532.179688,6449.000000,0.000000,10.000000,,,,0.000000,4.000000,4.000000,4.000000,4.000000,4.000000,4.000000,4.000000,4.000000,4.000000,4.000000,4.000000,4.000000,4.000000,4.000000,100.000000,,,,,,,,,,,,,,,,,,,,,,,,,,,,,,,,,,,,,,,,,,,,,,,,,,,,,,,,,,,,,,,,,,,,,,,,,,,,,,,,,,,,,,,,,,,,,,,,,,,,,,,,,,,,,,,,,,,,,,,,,,,,,,,,,
1739356671.807789,1739356671.808421,102.000000,0.000000,4310.000000,4302.820313,4379.358887,4356.666504,4283.589844,4283.974121,4289.487305,4336.410156,4273.846191,4270.384766,4617.436035,4531.025879,4468.205078,4556.410156,4831.000000,0.000000,10.000000,,,,0.000000,4.000000,4.000000,4.000000,4.000000,4.000000,4.000000,4.000000,4.000000,4.000000,4.000000,4.000000,4.000000,4.000000,4.000000,100.000000,,,,,,,,,,,,,,,,,,,,,,,,,,,,,,,,,,,,,,,,,,,,,,,,,,,,,,,,,,,,,,,,,,,,,,,,,,,,,,,,,,,,,,,,,,,,,,,,,,,,,,,,,,,,,,,,,,,,,,,,,,,,,,,,,
1739356671.815598,1739356671.816129,103.000000,0.000000,4326.025879,4315.897461,4391.282227,4370.000000,4295.128418,4296.282227,4297.692383,4330.000000,4286.538574,4286.153809,4631.794922,4552.051270,4480.512695,4572.436035,5589.000000,0.000000,10.000000,,,,0.000000,4.000000,4.000000,4.000000,4.000000,4.000000,4.000000,4.000000,4.000000,4.000000,4.000000,4.000000,4.000000,4.000000,4.000000,100.000000,,,,,,,,,,,,,,,,,,,,,,,,,,,,,,,,,,,,,,,,,,,,,,,,,,,,,,,,,,,,,,,,,,,,,,,,,,,,,,,,,,,,,,,,,,,,,,,,,,,,,,,,,,,,,,,,,,,,,,,,,,,,,,,,,
1739356671.823406,1739356671.824037,104.000000,0.000000,4324.358887,4310.128418,4382.563965,4368.717773,4292.692383,4290.256348,4283.333496,4319.102539,4278.846191,4282.179688,4622.179688,4551.794922,4476.794922,4564.102539,5619.000000,0.000000,10.000000,,,,0.000000,4.000000,4.000000,4.000000,4.000000,4.000000,4.000000,4.000000,4.000000,4.000000,4.000000,4.000000,4.000000,4.000000,4.000000,100.000000,,,,,,,,,,,,,,,,,26.000000,0.000000,0.715814,0.107666,-0.680969,0.110901,1.002075,0.029300,0.054694,-45.700401,-27.873007,42.492847,,,,,,,,,,,,,,,,,,,,,,,,,,,,,,,,30.525002,8.501752,2.520514,1.051264,2.057668,20.138916,4.732489,2.287513,1.028028,1.822533,3.612674,2.750050,1.209589,0.792484,1.736084,6.502767,2.576486,1.369139,0.970271,1.969843,0.728417,0.355572,0.716005,0.665015,1.586692,0.279390,0.375328,0.542317,0.614760,1.524519,0.648800,0.764719,0.478952,0.592646,2.084232,0.459569,0.503238,0.253561,0.134061,0.342578,0.814269,2.886626,1.365451,0.985931,2.031961,0.823631,3.377550,1.806998,1.023337,2.215958,4.159866,2.817275,1.474183,1.063741,2.074890,5.946263,4.241508,1.989341,1.531172,2.789457,10.697772,2.527213,1.289339,1.053907,1.686922,24.931877,6.070251,2.079665,1.165087,2.025317
1739356671.831214,1739356671.831845,105.000000,0.000000,4329.615234,4316.153809,4381.410156,4378.205078,4296.153809,4285.256348,4280.641113,4312.179688,4280.128418,4283.846191,4613.461426,4555.384766,4472.563965,4561.922852,6449.000000,0.000000,10.000000,,,,0.000000,4.000000,4.000000,4.000000,4.000000,4.000000,4.000000,4.000000,4.000000,4.000000,4.000000,4.000000,4.000000,4.000000,4.000000,100.000000,,,,,,,,,,,,,,,,,,,,,,,,,,,,,,,,,,,,,,,,,,,,,,,,,,,,,,,,,,,,,,,,,,,,,,,,,,,,,,,,,,,,,,,,,,,,,,,,,,,,,,,,,,,,,,,,,,,,,,,,,,,,,,,,,
1739356671.839022,1739356671.839753,106.000000,0.000000,4317.179688,4308.589844,4370.512695,4371.794922,4286.025879,4279.487305,4277.692383,4306.538574,4277.307617,4281.538574,4597.563965,4545.512695,4459.743652,4553.589844,4831.000000,0.000000,10.000000,,,,0.000000,4.000000,4.000000,4.000000,4.000000,4.000000,4.000000,4.000000,4.000000,4.000000,4.000000,4.000000,4.000000,4.000000,4.000000,100.000000,,,,,,,,,,,,,,,,,,,,,,,,,,,,,,,,,,,,,,,,,,,,,,,,,,,,,,,,,,,,,,,,,,,,,,,,,,,,,,,,,,,,,,,,,,,,,,,,,,,,,,,,,,,,,,,,,,,,,,,,,,,,,,,,,
1739356671.846830,1739356671.847561,107.000000,0.000000,4295.897461,4286.538574,4351.282227,4354.230957,4272.051270,4274.743652,4269.102539,4303.333496,4263.333496,4267.436035,4579.871582,4527.820313,4443.846191,4533.461426,5589.000000,0.000000,10.000000,,,,0.000000,4.000000,4.000000,4.000000,4.000000,4.000000,4.000000,4.000000,4.000000,4.000000,4.000000,4.000000,4.000000,4.000000,4.000000,100.000000,,,,,,,,,,,,,,,,,,,,,,,,,,,,,,,,,,,,,,,,,,,,,,,,,,,,,,,,,,,,,,,,,,,,,,,,,,,,,,,,,,,,,,,,,,,,,,,,,,,,,,,,,,,,,,,,,,,,,,,,,,,,,,,,,
1739356671.854638,1739356671.855470,108.000000,0.000000,4299.743652,4288.077148,4350.384766,4359.230957,4276.666504,4277.692383,4274.102539,4301.153809,4261.794922,4262.563965,4579.487305,4532.179688,4441.922852,4533.205078,5619.000000,0.000000,10.000000,,,,0.000000,4.000000,4.000000,4.000000,4.000000,4.000000,4.000000,4.000000,4.000000,4.000000,4.000000,4.000000,4.000000,4.000000,4.000000,100.000000,,,,,,,,,,,,,,,,,27.000000,0.000000,0.715909,0.110596,-0.680725,0.108887,0.989867,0.024417,0.047369,-45.713696,-27.669039,42.626896,,,,,,,,,,,,,,,,,,,,,,,,,,,,,,,,,,,,,,,,,,,,,,,,,,,,,,,,,,,,,,,,,,,,,,,,,,,,,,,,,,,,,,,,,,,,,,,,,,,,,
1739356671.862446,1739356671.863278,109.000000,0.000000,4300.256348,4293.333496,4346.153809,4363.077148,4279.358887,4282.563965,4280.512695,4295.128418,4269.230957,4265.384766,4580.000000,4531.410156,4435.897461,4533.333496,6449.000000,0.000000,10.000000,,,,0.000000,4.000000,4.000000,4.000000,4.000000,4.000000,4.000000,4.000000,4.000000,4.000000,4.000000,4.000000,4.000000,4.000000,4.000000,100.000000,,,,,,,,,,,,,,,,,,,,,,,,,,,,,,,,,,,,,,,,,,,,,,,,,,,,,,,,,,,,,,,,,,,,,,,,,,,,,,,,,,,,,,,,,,,,,,,,,,,,,,,,,,,,,,,,,,,,,,,,,,,,,,,,,
1739356671.870254,1739356671.871186,110.000000,0.000000,4278.717773,4276.410156,4324.358887,4343.974121,4265.512695,4277.051270,4270.256348,4284.871582,4262.948730,4254.871582,4563.974121,4506.282227,4414.615234,4508.077148,4831.000000,0.000000,10.000000,,,,0.000000,4.000000,4.000000,4.000000,4.000000,4.000000,4.000000,4.000000,4.000000,4.000000,4.000000,4.000000,4.000000,4.000000,4.000000,100.000000,,,,,,,,,,,,,,,,,,,,,,,,,,,,,,,,,,,,,,,,,,,,,,,,,,,,,,,,,,,,,,,,,,,,,,,,,,,,,,,,,,,,,,,,,,,,,,,,,,,,,,,,,,,,,,,,,,,,,,,,,,,,,,,,,
1739356671.878062,1739356671.878994,111.000000,0.000000,4270.897461,4269.871582,4318.205078,4333.717773,4256.282227,4264.487305,4260.384766,4278.333496,4248.205078,4242.948730,4552.436035,4497.179688,4406.025879,4495.128418,5589.000000,0.000000,10.000000,,,,0.000000,4.000000,4.000000,4.000000,4.000000,4.000000,4.000000,4.000000,4.000000,4.000000,4.000000,4.000000,4.000000,4.000000,4.000000,100.000000,,,,,,,,,,,,,,,,,,,,,,,,,,,,,,,,,,,,,,,,,,,,,,,,,,,,,,,,,,,,,,,,,,,,,,,,,,,,,,,,,,,,,,,,,,,,,,,,,,,,,,,,,,,,,,,,,,,,,,,,,,,,,,,,,
1739356671.885870,1739356671.886901,112.000000,0.000000,4284.871582,4283.461426,4328.846191,4345.641113,4260.384766,4261.410156,4260.384766,4278.589844,4247.051270,4249.871582,4560.256348,4515.384766,4417.692383,4509.615234,5619.000000,0.000000,10.000000,,,,0.000000,4.000000,4.000000,4.000000,4.000000,4.000000,4.000000,4.000000,4.000000,4.000000,4.000000,4.000000,4.000000,4.000000,4.000000,100.000000,,,,,,,,,,,,,,,,,28.000000,0.000000,0.715823,0.111877,-0.680664,0.108521,0.998657,0.029300,0.047369,-45.692326,-27.452135,42.664207,,,,,,,,,,,,,,,,,,,,,,,,,,,,,,,,,,,,,,,,,,,,,,,,,,,,,,,,,,,,,,,,,,,,,,,,,,,,,,,,,,,,,,,,,,,,,,,,,,,,,
1739356671.893679,1739356671.894810,113.000000,0.000000,4303.333496,4298.589844,4336.538574,4365.128418,4269.615234,4272.179688,4266.538574,4281.025879,4257.820313,4261.538574,4573.461426,4534.743652,4431.922852,4523.717773,6449.000000,0.000000,10.000000,,,,0.000000,4.000000,4.000000,4.000000,4.000000,4.000000,4.000000,4.000000,4.000000,4.000000,4.000000,4.000000,4.000000,4.000000,4.000000,100.000000,,,,,,,,,,,,,,,,,,,,,,,,,,,,,,,,,,,,,,,,,,,,,,,,,,,,,,,,,,,,,,,,,,,,,,,,,,,,,,,,,,,,,,,,,,,,,,,,,,,,,,,,,,,,,,,,,,,,,,,,,,,,,,,,,
1739356671.901487,1739356671.902618,114.000000,0.000000,4312.692383,4309.358887,4338.589844,4376.025879,4278.461426,4280.000000,4272.051270,4278.974121,4258.974121,4261.282227,4574.487305,4541.922852,4434.871582,4527.179688,4831.000000,0.000000,10.000000,,,,0.000000,4.000000,4.000000,4.000000,4.000000,4.000000,4.000000,4.000000,4.000000,4.000000,4.000000,4.000000,4.000000,4.000000,4.000000,100.000000,,,,,,,,,,,,,,,,,,,,,,,,,,,,,,,,,,,,,,,,,,,,,,,,,,,,,,,,,,,,,,,,,,,,,,,,,,,,,,,,,,,,,,,,,,,,,,,,,,,,,,,,,,,,,,,,,,,,,,,,,,,,,,,,,
1739356671.909294,1739356671.910426,115.000000,0.000000,4301.922852,4302.692383,4328.589844,4365.256348,4276.025879,4273.333496,4263.461426,4271.538574,4244.871582,4255.256348,4565.000000,4536.538574,4427.820313,4520.256348,5589.000000,0.000000,10.000000,,,,0.000000,4.000000,4.000000,4.000000,4.000000,4.000000,4.000000,4.000000,4.000000,4.000000,4.000000,4.000000,4.000000,4.000000,4.000000,100.000000,,,,,,,,,,,,,,,,,,,,,,,,,,,,,,,,,,,,,,,,,,,,,,,,,,,,,,,,,,,,,,,,,,,,,,,,,,,,,,,,,,,,,,,,,,,,,,,,,,,,,,,,,,,,,,,,,,,,,,,,,,,,,,,,,
1739356671.917103,1739356671.918134,116.000000,0.000000,4291.410156,4292.307617,4320.641113,4355.512695,4273.333496,4272.051270,4262.051270,4271.922852,4247.436035,4257.563965,4569.102539,4535.384766,4426.666504,4514.871582,5619.000000,0.000000,10.000000,,,,0.000000,4.000000,4.000000,4.000000,4.000000,4.000000,4.000000,4.000000,4.000000,4.000000,4.000000,4.000000,4.000000,4.000000,4.000000,100.000000,,,,,,,,,,,,,,,,,29.000000,0.000000,0.715246,0.113525,-0.680969,0.108704,1.006959,0.010743,0.047857,-45.906425,-27.190256,42.681118,,,,,,,,,,,,,,,,,,,,,,,,,,,,,,,,,,,,,,,,,,,,,,,,,,,,,,,,,,,,,,,,,,,,,,,,,,,,,,,,,,,,,,,,,,,,,,,,,,,,,
1739356671.924911,1739356671.925942,117.000000,0.000000,4298.589844,4298.717773,4327.820313,4366.794922,4279.230957,4281.410156,4274.615234,4278.461426,4264.358887,4262.692383,4578.333496,4541.410156,4432.051270,4520.897461,6449.000000,0.000000,10.000000,,,,0.000000,4.000000,4.000000,4.000000,4.000000,4.000000,4.000000,4.000000,4.000000,4.000000,4.000000,4.000000,4.000000,4.000000,4.000000,100.000000,,,,,,,,,,,,,,,,,,,,,,,,,,,,,,,,,,,,,,,,,,,,,,,,,,,,,,,,,,,,,,,,,,,,,,,,,,,,,,,,,,,,,,,,,,,,,,,,,,,,,,,,,,,,,,,,,,,,,,,,,,,,,,,,,
1739356671.932719,1739356671.933650,118.000000,0.000000,4298.974121,4301.025879,4325.128418,4371.794922,4277.307617,4278.974121,4271.282227,4276.282227,4263.974121,4259.358887,4572.436035,4537.692383,4429.358887,4517.179688,4831.000000,0.000000,10.000000,,,,0.000000,4.000000,4.000000,4.000000,4.000000,4.000000,4.000000,4.000000,4.000000,4.000000,4.000000,4.000000,4.000000,4.000000,4.000000,100.000000,,,,,,,,,,,,,,,,,,,,,,,,,,,,,,,,,,,,,,,,,,,,,,,,,,,,,,,,,,,,,,,,,,,,,,,,,,,,,,,,,,,,,,,,,,,,,,,,,,,,,,,,,,,,,,,,,,,,,,,,,,,,,,,,,
1739356671.940527,1739356671.941458,119.000000,0.000000,4293.205078,4295.256348,4314.615234,4363.846191,4273.717773,4273.205078,4260.512695,4273.717773,4262.820313,4263.717773,4570.512695,4538.077148,4428.205078,4512.563965,5589.000000,0.000000,10.000000,,,,0.000000,4.000000,4.000000,4.000000,4.000000,4.000000,4.000000,4.000000,4.000000,4.000000,4.000000,4.000000,4.000000,4.000000,4.000000,100.000000,,,,,,,,,,,,,,,,,,,,,,,,,,,,,,,,,,,,,,,,,,,,,,,,,,,,,,,,,,,,,,,,,,,,,,,,,,,,,,,,,,,,,,,,,,,,,,,,,,,,,,,,,,,,,,,,,,,,,,,,,,,,,,,,,
1739356671.948335,1739356671.949166,120.000000,0.000000,4295.769043,4296.410156,4313.077148,4362.563965,4276.666504,4274.230957,4261.794922,4272.948730,4267.436035,4270.769043,4571.794922,4538.461426,4430.256348,4518.461426,5619.000000,0.000000,10.000000,,,,0.000000,4.000000,4.000000,4.000000,4.000000,4.000000,4.000000,4.000000,4.000000,4.000000,4.000000,4.000000,4.000000,4.000000,4.000000,100.000000,,,,,,,,,,,,,,,,,30.000000,0.000000,0.714484,0.114380,-0.681519,0.109375,0.994750,0.013185,0.050299,-45.832451,-26.787897,42.746342,,,,,,,,,,,,,,,,,,,,,,,,,,,,,,,,16.488373,6.545674,1.633663,0.962960,2.347936,11.092747,4.067087,1.563764,0.962413,2.097201,2.655760,2.753492,0.914997,0.765851,2.031956,4.019023,2.574985,0.969344,0.919633,2.324708,0.802817,0.420578,0.537253,0.640260,1.820297,0.414395,0.355429,0.393260,0.583107,1.825187,0.784872,0.818049,0.341672,0.598716,2.417377,0.696790,0.641831,0.243848,0.138588,0.399897,0.888680,3.775968,1.187346,0.883806,2.435906,0.951664,4.306437,1.572104,0.989708,2.642045,3.131217,3.188480,1.184953,1.042661,2.435700,4.232391,4.555914,1.473870,1.460578,3.292687,6.514314,2.306440,0.985678,0.974426,2.003280,13.970922,4.634327,1.409114,1.088537,2.374015
1739356671.956143,1739356671.956974,121.000000,0.000000,4297.436035,4300.256348,4306.153809,4366.153809,4276.922852,4273.589844,4262.948730,4264.230957,4266.410156,4267.179688,4568.589844,4526.538574,4428.205078,4518.333496,6449.000000,0.000000,10.000000,,,,0.000000,4.000000,4.000000,4.000000,4.000000,4.000000,4.000000,4.000000,4.000000,4.000000,4.000000,4.000000,4.000000,4.000000,4.000000,100.000000,,,,,,,,,,,,,,,,,,,,,,,,,,,,,,,,,,,,,,,,,,,,,,,,,,,,,,,,,,,,,,,,,,,,,,,,,,,,,,,,,,,,,,,,,,,,,,,,,,,,,,,,,,,,,,,,,,,,,,,,,,,,,,,,,
1739356671.963951,1739356671.964682,122.000000,0.000000,4296.922852,4296.922852,4299.358887,4361.922852,4272.436035,4274.102539,4261.666504,4257.307617,4264.615234,4266.153809,4575.000000,4524.615234,4429.102539,4516.922852,4831.000000,0.000000,10.000000,,,,0.000000,4.000000,4.000000,4.000000,4.000000,4.000000,4.000000,4.000000,4.000000,4.000000,4.000000,4.000000,4.000000,4.000000,4.000000,100.000000,,,,,,,,,,,,,,,,,,,,,,,,,,,,,,,,,,,,,,,,,,,,,,,,,,,,,,,,,,,,,,,,,,,,,,,,,,,,,,,,,,,,,,,,,,,,,,,,,,,,,,,,,,,,,,,,,,,,,,,,,,,,,,,,,
1739356671.971759,1739356671.972490,123.000000,0.000000,4296.538574,4293.333496,4301.794922,4356.025879,4271.666504,4278.846191,4264.102539,4258.077148,4258.333496,4265.256348,4582.820313,4531.538574,4428.077148,4518.589844,5589.000000,0.000000,10.000000,,,,0.000000,4.000000,4.000000,4.000000,4.000000,4.000000,4.000000,4.000000,4.000000,4.000000,4.000000,4.000000,4.000000,4.000000,4.000000,100.000000,,,,,,,,,,,,,,,,,,,,,,,,,,,,,,,,,,,,,,,,,,,,,,,,,,,,,,,,,,,,,,,,,,,,,,,,,,,,,,,,,,,,,,,,,,,,,,,,,,,,,,,,,,,,,,,,,,,,,,,,,,,,,,,,,
1739356671.979567,1739356671.980198,124.000000,0.000000,4295.256348,4296.922852,4301.025879,4362.948730,4276.025879,4280.769043,4265.641113,4250.256348,4246.025879,4254.230957,4575.256348,4527.307617,4420.256348,4513.205078,5619.000000,0.000000,10.000000,,,,0.000000,4.000000,4.000000,4.000000,4.000000,4.000000,4.000000,4.000000,4.000000,4.000000,4.000000,4.000000,4.000000,4.000000,4.000000,100.000000,,,,,,,,,,,,,,,,,31.000000,0.000000,0.713342,0.114075,-0.682617,0.110291,0.961543,0.008790,0.045904,-45.865871,-26.625772,42.838375,,,,,,,,,,,,,,,,,,,,,,,,,,,,,,,,,,,,,,,,,,,,,,,,,,,,,,,,,,,,,,,,,,,,,,,,,,,,,,,,,,,,,,,,,,,,,,,,,,,,,
1739356671.987375,1739356671.988006,125.000000,0.000000,4297.563965,4297.307617,4296.282227,4366.922852,4273.974121,4280.256348,4266.410156,4243.077148,4246.922852,4248.077148,4567.692383,4520.897461,4420.897461,4505.641113,6449.000000,0.000000,10.000000,,,,0.000000,4.000000,4.000000,4.000000,4.000000,4.000000,4.000000,4.000000,4.000000,4.000000,4.000000,4.000000,4.000000,4.000000,4.000000,100.000000,,,,,,,,,,,,,,,,,,,,,,,,,,,,,,,,,,,,,,,,,,,,,,,,,,,,,,,,,,,,,,,,,,,,,,,,,,,,,,,,,,,,,,,,,,,,,,,,,,,,,,,,,,,,,,,,,,,,,,,,,,,,,,,,,
1739356671.995184,1739356671.995714,126.000000,0.000000,4293.205078,4287.948730,4297.051270,4350.641113,4267.051270,4275.769043,4261.666504,4253.461426,4254.615234,4250.256348,4570.000000,4521.666504,4423.846191,4503.077148,4831.000000,0.000000,10.000000,,,,0.000000,4.000000,4.000000,4.000000,4.000000,4.000000,4.000000,4.000000,4.000000,4.000000,4.000000,4.000000,4.000000,4.000000,4.000000,100.000000,,,,,,,,,,,,,,,,,,,,,,,,,,,,,,,,,,,,,,,,,,,,,,,,,,,,,,,,,,,,,,,,,,,,,,,,,,,,,,,,,,,,,,,,,,,,,,,,,,,,,,,,,,,,,,,,,,,,,,,,,,,,,,,,,
1739356672.002992,1739356672.003522,127.000000,0.000000,4282.820313,4276.922852,4299.358887,4333.974121,4259.358887,4266.794922,4251.282227,4267.051270,4248.589844,4246.794922,4574.358887,4522.692383,4416.538574,4499.871582,10.000000,0.000000,10.000000,,,,0.000000,4.000000,4.000000,4.000000,4.000000,4.000000,4.000000,4.000000,4.000000,4.000000,4.000000,4.000000,4.000000,4.000000,4.000000,100.000000,,,,,,,,,,,,,,,,,,,,,,,,,,,,,,,,,,,,,,,,,,,,,,,,,,,,,,,,,,,,,,,,,,,,,,,,,,,,,,,,,,,,,,,,,,,,,,,,,,,,,,,,,,,,,,,,,,,,,,,,,,,,,,,,,
1739356672.010800,1739356672.011230,0.000000,0.000000,4276.025879,4268.589844,4294.230957,4327.179688,4250.256348,4259.487305,4247.051270,4265.256348,4246.666504,4246.025879,4577.051270,4518.717773,4410.641113,4493.974121,4896.000000,0.000000,10.000000,,,,0.000000,4.000000,4.000000,4.000000,4.000000,4.000000,4.000000,4.000000,4.000000,4.000000,4.000000,4.000000,4.000000,4.000000,4.000000,100.000000,,,,,,,,,,,,,,,,,0.000000,0.000000,0.712526,0.112488,-0.683594,0.111145,0.998169,-0.000977,0.045416,-46.112617,-26.479862,42.804535,,,,,,,,,,,,,,,,,,,,,,,,,,,,,,,,,,,,,,,,,,,,,,,,,,,,,,,,,,,,,,,,,,,,,,,,,,,,,,,,,,,,,,,,,,,,,,,,,,,,,
1739356672.018608,1739356672.019138,1.000000,0.000000,4268.974121,4261.922852,4290.641113,4317.307617,4241.025879,4254.230957,4241.794922,4253.589844,4253.333496,4248.461426,4569.615234,4508.974121,4409.871582,4486.025879,5524.000000,0.000000,10.000000,,,,0.000000,4.000000,4.000000,4.000000,4.000000,4.000000,4.000000,4.000000,4.000000,4.000000,4.000000,4.000000,4.000000,4.000000,4.000000,100.000000,,,,,,,,,,,,,,,,,,,,,,,,,,,,,,,,,,,,,,,,,,,,,,,,,,,,,,,,,,,,,,,,,,,,,,,,,,,,,,,,,,,,,,,,,,,,,,,,,,,,,,,,,,,,,,,,,,,,,,,,,,,,,,,,,
1739356672.026416,1739356672.026947,2.000000,0.000000,4264.487305,4263.077148,4300.128418,4310.512695,4235.256348,4250.000000,4233.717773,4260.256348,4250.512695,4243.974121,4569.358887,4508.589844,4411.666504,4483.333496,5529.000000,0.000000,10.000000,,,,0.000000,4.000000,4.000000,4.000000,4.000000,4.000000,4.000000,4.000000,4.000000,4.000000,4.000000,4.000000,4.000000,4.000000,4.000000,100.000000,,,,,,,,,,,,,,,,,,,,,,,,,,,,,,,,,,,,,,,,,,,,,,,,,,,,,,,,,,,,,,,,,,,,,,,,,,,,,,,,,,,,,,,,,,,,,,,,,,,,,,,,,,,,,,,,,,,,,,,,,,,,,,,,,
1739356672.034224,1739356672.034855,3.000000,0.000000,4258.461426,4263.077148,4308.717773,4310.512695,4231.666504,4242.563965,4226.922852,4287.948730,4237.563965,4229.230957,4576.666504,4514.102539,4413.205078,4488.846191,5479.000000,0.000000,10.000000,,,,0.000000,4.000000,4.000000,4.000000,4.000000,4.000000,4.000000,4.000000,4.000000,4.000000,4.000000,4.000000,4.000000,4.000000,4.000000,100.000000,,,,,,,,,,,,,,,,,,,,,,,,,,,,,,,,,,,,,,,,,,,,,,,,,,,,,,,,,,,,,,,,,,,,,,,,,,,,,,,,,,,,,,,,,,,,,,,,,,,,,,,,,,,,,,,,,,,,,,,,,,,,,,,,,
1739356672.042032,1739356672.042663,4.000000,0.000000,4252.820313,4254.615234,4305.000000,4311.538574,4229.487305,4233.974121,4220.897461,4307.436035,4229.358887,4218.205078,4570.897461,4513.589844,4413.589844,4493.205078,5460.000000,0.000000,10.000000,,,,0.000000,4.000000,4.000000,4.000000,4.000000,4.000000,4.000000,4.000000,4.000000,4.000000,4.000000,4.000000,4.000000,4.000000,4.000000,100.000000,,,,,,,,,,,,,,,,,1.000000,0.000000,0.712178,0.110291,-0.684204,0.111816,0.993285,0.009767,0.051276,-46.068024,-26.431877,42.774082,,,,,,,,,,,,,,,,,,,,,,,,,,,,,,,,,,,,,,,,,,,,,,,,,,,,,,,,,,,,,,,,,,,,,,,,,,,,,,,,,,,,,,,,,,,,,,,,,,,,,
1739356672.049840,1739356672.050571,5.000000,0.000000,4255.128418,4248.846191,4302.307617,4310.769043,4230.384766,4232.692383,4221.794922,4309.487305,4231.666504,4220.128418,4560.641113,4514.615234,4414.743652,4495.256348,5427.000000,0.000000,10.000000,,,,0.000000,4.000000,4.000000,4.000000,4.000000,4.000000,4.000000,4.000000,4.000000,4.000000,4.000000,4.000000,4.000000,4.000000,4.000000,100.000000,,,,,,,,,,,,,,,,,,,,,,,,,,,,,,,,,,,,,,,,,,,,,,,,,,,,,,,,,,,,,,,,,,,,,,,,,,,,,,,,,,,,,,,,,,,,,,,,,,,,,,,,,,,,,,,,,,,,,,,,,,,,,,,,,
1739356672.057648,1739356672.058379,6.000000,0.000000,4260.128418,4250.769043,4313.205078,4307.436035,4233.333496,4237.820313,4231.410156,4310.769043,4231.922852,4223.846191,4559.102539,4518.333496,4416.666504,4496.153809,5409.000000,0.000000,10.000000,,,,0.000000,4.000000,4.000000,4.000000,4.000000,4.000000,4.000000,4.000000,4.000000,4.000000,4.000000,4.000000,4.000000,4.000000,4.000000,100.000000,,,,,,,,,,,,,,,,,,,,,,,,,,,,,,,,,,,,,,,,,,,,,,,,,,,,,,,,,,,,,,,,,,,,,,,,,,,,,,,,,,,,,,,,,,,,,,,,,,,,,,,,,,,,,,,,,,,,,,,,,,,,,,,,,
1739356672.065456,1739356672.066287,7.000000,0.000000,4252.307617,4246.153809,4315.897461,4296.538574,4231.794922,4236.538574,4230.512695,4310.641113,4223.717773,4215.128418,4553.205078,4513.589844,4409.487305,4488.974121,2042.000000,0.000000,10.000000,,,,0.000000,4.000000,4.000000,4.000000,4.000000,4.000000,4.000000,4.000000,4.000000,4.000000,4.000000,4.000000,4.000000,4.000000,4.000000,100.000000,,,,,,,,,,,,,,,,,,,,,,,,,,,,,,,,,,,,,,,,,,,,,,,,,,,,,,,,,,,,,,,,,,,,,,,,,,,,,,,,,,,,,,,,,,,,,,,,,,,,,,,,,,,,,,,,,,,,,,,,,,,,,,,,,
1739356672.073264,1739356672.074095,8.000000,0.000000,4236.538574,4232.563965,4302.948730,4281.666504,4220.384766,4230.000000,4217.692383,4303.205078,4212.820313,4196.538574,4531.922852,4500.512695,4391.282227,4474.102539,5233.000000,0.000000,10.000000,,,,0.000000,4.000000,4.000000,4.000000,4.000000,4.000000,4.000000,4.000000,4.000000,4.000000,4.000000,4.000000,4.000000,4.000000,4.000000,100.000000,1.000000,25.000000,1.000000,3.000000,1.000000,3.000000,3.000000,3.000000,3.000000,4.000000,3.000000,3.000000,3.000000,1.000000,4.000000,3.000000,2.000000,0.000000,0.711866,0.107422,-0.684814,0.112854,0.966915,-0.001953,0.042974,-45.927887,-26.422022,42.763340,,,,,,,,,,,,,,,,,,,,,,,,,,,,,,,,7.229080,5.249114,0.965767,0.838179,2.592535,4.995452,3.676346,0.992154,0.859851,2.360671,2.340369,2.690357,0.673749,0.704484,2.282353,2.354456,2.600393,0.643950,0.806385,2.644389,0.911582,0.522944,0.377380,0.596628,2.021474,0.660811,0.392111,0.299455,0.547992,2.087253,0.952920,0.895372,0.256451,0.617431,2.690583,1.059150,0.753237,0.228990,0.139996,0.449361,0.930404,4.521802,1.012193,0.773385,2.782328,1.081198,5.016417,1.297224,0.935768,3.042009,2.708022,3.590247,0.935819,0.993329,2.750716,3.279672,4.744472,1.028627,1.341682,3.725362,3.648580,2.180190,0.707056,0.870615,2.279332,6.776206,3.698916,0.893462,0.989898,2.691875
1739356672.081072,1739356672.081803,9.000000,0.000000,4230.769043,4224.230957,4292.563965,4276.410156,4212.948730,4229.358887,4215.000000,4298.205078,4211.025879,4189.358887,4519.743652,4490.769043,4380.128418,4463.589844,5574.000000,0.000000,10.000000,,,,0.000000,4.000000,4.000000,4.000000,4.000000,4.000000,4.000000,4.000000,4.000000,4.000000,4.000000,4.000000,4.000000,4.000000,4.000000,100.000000,,,,,,,,,,,,,,,,,,,,,,,,,,,,,,,,,,,,,,,,,,,,,,,,,,,,,,,,,,,,,,,,,,,,,,,,,,,,,,,,,,,,,,,,,,,,,,,,,,,,,,,,,,,,,,,,,,,,,,,,,,,,,,,,,
1739356672.088880,1739356672.089611,10.000000,0.000000,4233.717773,4227.820313,4291.922852,4281.025879,4216.538574,4232.179688,4220.897461,4297.820313,4216.025879,4195.897461,4524.871582,4488.333496,4384.487305,4463.846191,4786.000000,0.000000,10.000000,,,,0.000000,4.000000,4.000000,4.000000,4.000000,4.000000,4.000000,4.000000,4.000000,4.000000,4.000000,4.000000,4.000000,4.000000,4.000000,100.000000,,,,,,,,,,,,,,,,,,,,,,,,,,,,,,,,,,,,,,,,,,,,,,,,,,,,,,,,,,,,,,,,,,,,,,,,,,,,,,,,,,,,,,,,,,,,,,,,,,,,,,,,,,,,,,,,,,,,,,,,,,,,,,,,,
1739356672.096689,1739356672.097319,11.000000,0.000000,4217.307617,4207.563965,4278.333496,4264.487305,4201.282227,4215.769043,4203.333496,4289.871582,4198.205078,4177.179688,4508.717773,4468.717773,4374.615234,4451.153809,5567.000000,0.000000,10.000000,,,,0.000000,4.000000,4.000000,4.000000,4.000000,4.000000,4.000000,4.000000,4.000000,4.000000,4.000000,4.000000,4.000000,4.000000,4.000000,100.000000,,,,,,,,,,,,,,,,,,,,,,,,,,,,,,,,,,,,,,,,,,,,,,,,,,,,,,,,,,,,,,,,,,,,,,,,,,,,,,,,,,,,,,,,,,,,,,,,,,,,,,,,,,,,,,,,,,,,,,,,,,,,,,,,,
1739356672.104497,1739356672.105127,12.000000,0.000000,4184.358887,4170.641113,4248.077148,4227.179688,4170.256348,4185.128418,4168.461426,4276.538574,4163.077148,4139.743652,4477.436035,4435.000000,4349.487305,4420.641113,5609.000000,0.000000,10.000000,,,,0.000000,4.000000,4.000000,4.000000,4.000000,4.000000,4.000000,4.000000,4.000000,4.000000,4.000000,4.000000,4.000000,4.000000,4.000000,100.000000,,,,,,,,,,,,,,,,,3.000000,0.000000,0.711827,0.105469,-0.684998,0.113831,0.951776,-0.002930,0.055671,-46.085098,-26.429819,42.737007,,,,,,,,,,,,,,,,,,,,,,,,,,,,,,,,,,,,,,,,,,,,,,,,,,,,,,,,,,,,,,,,,,,,,,,,,,,,,,,,,,,,,,,,,,,,,,,,,,,,,
1739356672.112305,1739356672.112835,13.000000,0.000000,4192.948730,4177.948730,4248.846191,4225.384766,4170.641113,4184.358887,4167.820313,4277.820313,4167.051270,4148.589844,4483.461426,4442.051270,4359.358887,4427.820313,6427.000000,0.000000,10.000000,,,,0.000000,4.000000,4.000000,4.000000,4.000000,4.000000,4.000000,4.000000,4.000000,4.000000,4.000000,4.000000,4.000000,4.000000,4.000000,100.000000,,,,,,,,,,,,,,,,,,,,,,,,,,,,,,,,,,,,,,,,,,,,,,,,,,,,,,,,,,,,,,,,,,,,,,,,,,,,,,,,,,,,,,,,,,,,,,,,,,,,,,,,,,,,,,,,,,,,,,,,,,,,,,,,,
1739356672.120113,1739356672.120643,14.000000,0.000000,4231.153809,4207.307617,4278.846191,4254.615234,4196.666504,4209.230957,4195.641113,4288.205078,4201.410156,4188.333496,4515.128418,4481.410156,4391.025879,4464.871582,4786.000000,0.000000,10.000000,,,,0.000000,4.000000,4.000000,4.000000,4.000000,4.000000,4.000000,4.000000,4.000000,4.000000,4.000000,4.000000,4.000000,4.000000,4.000000,100.000000,,,,,,,,,,,,,,,,,,,,,,,,,,,,,,,,,,,,,,,,,,,,,,,,,,,,,,,,,,,,,,,,,,,,,,,,,,,,,,,,,,,,,,,,,,,,,,,,,,,,,,,,,,,,,,,,,,,,,,,,,,,,,,,,,
1739356672.127921,1739356672.128351,15.000000,0.000000,4235.128418,4205.000000,4282.563965,4260.769043,4203.077148,4213.717773,4200.512695,4283.205078,4206.410156,4191.282227,4519.871582,4489.871582,4386.538574,4464.743652,5567.000000,0.000000,10.000000,,,,0.000000,4.000000,4.000000,4.000000,4.000000,4.000000,4.000000,4.000000,4.000000,4.000000,4.000000,4.000000,4.000000,4.000000,4.000000,100.000000,,,,,,,,,,,,,,,,,,,,,,,,,,,,,,,,,,,,,,,,,,,,,,,,,,,,,,,,,,,,,,,,,,,,,,,,,,,,,,,,,,,,,,,,,,,,,,,,,,,,,,,,,,,,,,,,,,,,,,,,,,,,,,,,,
1739356672.135729,1739356672.136159,16.000000,0.000000,4225.641113,4202.563965,4272.436035,4257.692383,4199.230957,4208.717773,4193.077148,4273.205078,4195.512695,4181.153809,4516.922852,4481.025879,4368.589844,4452.051270,0.000000,0.000000,10.000000,,,,0.000000,4.000000,4.000000,4.000000,4.000000,4.000000,4.000000,4.000000,4.000000,4.000000,4.000000,4.000000,4.000000,4.000000,4.000000,100.000000,,,,,,,,,,,,,,,,,4.000000,0.000000,0.712404,0.100647,-0.684692,0.116394,0.941033,-0.000488,0.046392,-46.043255,-26.436838,42.879974,,,,,,,,,,,,,,,,,,,,,,,,,,,,,,,,,,,,,,,,,,,,,,,,,,,,,,,,,,,,,,,,,,,,,,,,,,,,,,,,,,,,,,,,,,,,,,,,,,,,,
1739356672.143537,1739356672.143867,17.000000,0.000000,4230.256348,4214.871582,4277.179688,4263.717773,4210.128418,4215.384766,4198.974121,4272.692383,4194.102539,4181.153809,4520.641113,4482.563965,4371.666504,4460.512695,0.000000,0.000000,10.000000,,,,0.000000,4.000000,4.000000,4.000000,4.000000,4.000000,4.000000,4.000000,4.000000,4.000000,4.000000,4.000000,4.000000,4.000000,4.000000,100.000000,,,,,,,,,,,,,,,,,,,,,,,,,,,,,,,,,,,,,,,,,,,,,,,,,,,,,,,,,,,,,,,,,,,,,,,,,,,,,,,,,,,,,,,,,,,,,,,,,,,,,,,,,,,,,,,,,,,,,,,,,,,,,,,,,
1739356672.151345,1739356672.151675,18.000000,0.000000,4232.307617,4217.948730,4280.512695,4265.897461,4219.230957,4220.256348,4201.410156,4272.948730,4185.256348,4174.102539,4517.692383,4480.512695,4374.871582,4462.051270,0.000000,0.000000,10.000000,,,,0.000000,4.000000,4.000000,4.000000,4.000000,4.000000,4.000000,4.000000,4.000000,4.000000,4.000000,4.000000,4.000000,4.000000,4.000000,100.000000,,,,,,,,,,,,,,,,,,,,,,,,,,,,,,,,,,,,,,,,,,,,,,,,,,,,,,,,,,,,,,,,,,,,,,,,,,,,,,,,,,,,,,,,,,,,,,,,,,,,,,,,,,,,,,,,,,,,,,,,,,,,,,,,,
1739356672.159153,1739356672.159383,19.000000,0.000000,4233.333496,4221.282227,4277.051270,4272.179688,4217.179688,4225.128418,4205.000000,4271.410156,4189.871582,4182.563965,4528.717773,4485.256348,4374.487305,4457.692383,0.000000,0.000000,10.000000,,,,0.000000,4.000000,4.000000,4.000000,4.000000,4.000000,4.000000,4.000000,4.000000,4.000000,4.000000,4.000000,4.000000,4.000000,4.000000,100.000000,,,,,,,,,,,,,,,,,,,,,,,,,,,,,,,,,,,,,,,,,,,,,,,,,,,,,,,,,,,,,,,,,,,,,,,,,,,,,,,,,,,,,,,,,,,,,,,,,,,,,,,,,,,,,,,,,,,,,,,,,,,,,,,,,
1739356672.166961,1739356672.167191,20.000000,0.000000,4235.000000,4224.230957,4272.692383,4276.666504,4215.384766,4229.358887,4213.333496,4266.794922,4208.974121,4199.230957,4540.769043,4493.077148,4376.153809,4461.153809,0.000000,0.000000,10.000000,,,,0.000000,4.000000,4.000000,4.000000,4.000000,4.000000,4.000000,4.000000,4.000000,4.000000,4.000000,4.000000,4.000000,4.000000,4.000000,100.000000,,,,,,,,,,,,,,,,,5.000000,0.000000,0.713814,0.095154,-0.683472,0.119507,0.948358,-0.029300,0.055183,-46.288929,-26.509821,42.941975,,,,,,,,,,,,,,,,,,,,,,,,,,,,,,,,,,,,,,,,,,,,,,,,,,,,,,,,,,,,,,,,,,,,,,,,,,,,,,,,,,,,,,,,,,,,,,,,,,,,,
1739356672.174769,1739356672.174899,21.000000,0.000000,4229.358887,4217.563965,4260.256348,4265.769043,4216.410156,4222.436035,4212.051270,4258.589844,4206.666504,4192.820313,4525.512695,4478.205078,4370.512695,4454.230957,0.000000,0.000000,10.000000,,,,0.000000,4.000000,4.000000,4.000000,4.000000,4.000000,4.000000,4.000000,4.000000,4.000000,4.000000,4.000000,4.000000,4.000000,4.000000,100.000000,,,,,,,,,,,,,,,,,,,,,,,,,,,,,,,,,,,,,,,,,,,,,,,,,,,,,,,,,,,,,,,,,,,,,,,,,,,,,,,,,,,,,,,,,,,,,,,,,,,,,,,,,,,,,,,,,,,,,,,,,,,,,,,,,
1739356672.182577,1739356672.182807,22.000000,0.000000,4232.820313,4220.769043,4253.974121,4261.153809,4218.077148,4220.384766,4212.948730,4253.846191,4204.230957,4195.897461,4517.179688,4466.538574,4372.820313,4450.128418,0.000000,0.000000,10.000000,,,,0.000000,4.000000,4.000000,4.000000,4.000000,4.000000,4.000000,4.000000,4.000000,4.000000,4.000000,4.000000,4.000000,4.000000,4.000000,100.000000,,,,,,,,,,,,,,,,,,,,,,,,,,,,,,,,,,,,,,,,,,,,,,,,,,,,,,,,,,,,,,,,,,,,,,,,,,,,,,,,,,,,,,,,,,,,,,,,,,,,,,,,,,,,,,,,,,,,,,,,,,,,,,,,,
1739356672.190385,1739356672.190615,23.000000,0.000000,4227.820313,4213.589844,4243.974121,4252.051270,4202.948730,4213.077148,4202.436035,4243.205078,4200.512695,4195.512695,4513.846191,4453.974121,4370.000000,4443.974121,0.000000,0.000000,10.000000,,,,0.000000,4.000000,4.000000,4.000000,4.000000,4.000000,4.000000,4.000000,4.000000,4.000000,4.000000,4.000000,4.000000,4.000000,4.000000,100.000000,,,,,,,,,,,,,,,,,,,,,,,,,,,,,,,,,,,,,,,,,,,,,,,,,,,,,,,,,,,,,,,,,,,,,,,,,,,,,,,,,,,,,,,,,,,,,,,,,,,,,,,,,,,,,,,,,,,,,,,,,,,,,,,,,
1739356672.198194,1739356672.198523,24.000000,0.000000,4218.077148,4202.692383,4229.230957,4237.179688,4189.358887,4199.102539,4184.230957,4233.717773,4187.563965,4176.538574,4503.974121,4434.487305,4360.000000,4433.846191,0.000000,0.000000,10.000000,,,,0.000000,4.000000,4.000000,4.000000,4.000000,4.000000,4.000000,4.000000,4.000000,4.000000,4.000000,4.000000,4.000000,4.000000,4.000000,100.000000,,,,,,,,,,,,,,,,,6.000000,0.000000,0.715239,0.090271,-0.682190,0.122070,0.943963,-0.022952,0.062019,-46.126705,-26.692173,42.997776,,,,,,,,,,,,,,,,,,,,,,,,,,,,,,,,3.225961,4.522702,0.651973,0.721265,2.738656,2.342834,3.457386,0.680773,0.755399,2.557468,2.594238,2.521289,0.546508,0.635882,2.429703,1.603835,2.577576,0.463758,0.680488,2.857221,1.121804,0.640460,0.283921,0.555444,2.147132,1.020696,0.480154,0.278647,0.525490,2.249997,1.153128,0.999668,0.221642,0.649049,2.844946,1.567847,0.811667,0.221568,0.137707,0.481962,0.966510,4.891370,0.880567,0.692797,2.987323,1.233138,5.316770,1.069759,0.891677,3.326069,3.009017,3.916536,0.774123,0.943356,2.952859,3.025980,4.692976,0.764242,1.220485,3.996962,2.361052,2.100446,0.529445,0.784558,2.446240,3.653181,3.199578,0.603936,0.895383,2.912863
1739356672.206002,1739356672.206332,25.000000,0.000000,4235.384766,4222.948730,4239.615234,4250.256348,4203.333496,4207.307617,4191.538574,4241.538574,4199.871582,4189.615234,4519.487305,4445.897461,4376.666504,4451.282227,0.000000,0.000000,10.000000,,,,0.000000,4.000000,4.000000,4.000000,4.000000,4.000000,4.000000,4.000000,4.000000,4.000000,4.000000,4.000000,4.000000,4.000000,4.000000,100.000000,,,,,,,,,,,,,,,,,,,,,,,,,,,,,,,,,,,,,,,,,,,,,,,,,,,,,,,,,,,,,,,,,,,,,,,,,,,,,,,,,,,,,,,,,,,,,,,,,,,,,,,,,,,,,,,,,,,,,,,,,,,,,,,,,
1739356672.213810,1739356672.214240,26.000000,0.000000,4260.000000,4244.487305,4259.615234,4271.025879,4219.871582,4224.743652,4207.692383,4245.641113,4225.128418,4223.205078,4546.282227,4471.922852,4399.487305,4472.179688,0.000000,0.000000,10.000000,,,,0.000000,4.000000,4.000000,4.000000,4.000000,4.000000,4.000000,4.000000,4.000000,4.000000,4.000000,4.000000,4.000000,4.000000,4.000000,100.000000,,,,,,,,,,,,,,,,,,,,,,,,,,,,,,,,,,,,,,,,,,,,,,,,,,,,,,,,,,,,,,,,,,,,,,,,,,,,,,,,,,,,,,,,,,,,,,,,,,,,,,,,,,,,,,,,,,,,,,,,,,,,,,,,,
1739356672.221618,1739356672.222048,27.000000,0.000000,4258.077148,4236.538574,4258.589844,4265.641113,4214.487305,4220.128418,4203.974121,4237.307617,4221.666504,4219.615234,4543.077148,4468.077148,4391.025879,4465.769043,0.000000,0.000000,10.000000,,,,0.000000,4.000000,4.000000,4.000000,4.000000,4.000000,4.000000,4.000000,4.000000,4.000000,4.000000,4.000000,4.000000,4.000000,4.000000,100.000000,,,,,,,,,,,,,,,,,,,,,,,,,,,,,,,,,,,,,,,,,,,,,,,,,,,,,,,,,,,,,,,,,,,,,,,,,,,,,,,,,,,,,,,,,,,,,,,,,,,,,,,,,,,,,,,,,,,,,,,,,,,,,,,,,
1739356672.229426,1739356672.229956,28.000000,0.000000,4251.410156,4231.153809,4257.692383,4261.025879,4207.820313,4212.436035,4196.794922,4239.487305,4208.205078,4199.487305,4533.846191,4457.948730,4378.333496,4463.077148,0.000000,0.000000,10.000000,,,,0.000000,4.000000,4.000000,4.000000,4.000000,4.000000,4.000000,4.000000,4.000000,4.000000,4.000000,4.000000,4.000000,4.000000,4.000000,100.000000,,,,,,,,,,,,,,,,,7.000000,0.000000,0.716366,0.086731,-0.681213,0.123474,1.013307,-0.043951,0.074228,-46.014034,-26.689621,43.048000,,,,,,,,,,,,,,,,,,,,,,,,,,,,,,,,,,,,,,,,,,,,,,,,,,,,,,,,,,,,,,,,,,,,,,,,,,,,,,,,,,,,,,,,,,,,,,,,,,,,,
1739356672.237234,1739356672.237764,29.000000,0.000000,4252.436035,4234.871582,4261.025879,4266.410156,4208.333496,4218.974121,4193.333496,4245.128418,4207.051270,4193.333496,4534.230957,4452.820313,4376.025879,4466.025879,0.000000,0.000000,10.000000,,,,0.000000,4.000000,4.000000,4.000000,4.000000,4.000000,4.000000,4.000000,4.000000,4.000000,4.000000,4.000000,4.000000,4.000000,4.000000,100.000000,,,,,,,,,,,,,,,,,,,,,,,,,,,,,,,,,,,,,,,,,,,,,,,,,,,,,,,,,,,,,,,,,,,,,,,,,,,,,,,,,,,,,,,,,,,,,,,,,,,,,,,,,,,,,,,,,,,,,,,,,,,,,,,,,
1739356672.245042,1739356672.245672,30.000000,0.000000,4238.205078,4223.589844,4251.666504,4261.153809,4202.436035,4217.436035,4182.948730,4243.974121,4199.358887,4186.410156,4523.589844,4434.358887,4364.615234,4451.282227,0.000000,0.000000,10.000000,,,,0.000000,4.000000,4.000000,4.000000,4.000000,4.000000,4.000000,4.000000,4.000000,4.000000,4.000000,4.000000,4.000000,4.000000,4.000000,100.000000,,,,,,,,,,,,,,,,,,,,,,,,,,,,,,,,,,,,,,,,,,,,,,,,,,,,,,,,,,,,,,,,,,,,,,,,,,,,,,,,,,,,,,,,,,,,,,,,,,,,,,,,,,,,,,,,,,,,,,,,,,,,,,,,,
1739356672.252850,1739356672.253480,31.000000,0.000000,4229.230957,4211.666504,4250.128418,4258.717773,4198.589844,4209.230957,4186.922852,4250.897461,4194.743652,4183.717773,4522.692383,4428.461426,4361.666504,4446.025879,0.000000,0.000000,10.000000,,,,0.000000,4.000000,4.000000,4.000000,4.000000,4.000000,4.000000,4.000000,4.000000,4.000000,4.000000,4.000000,4.000000,4.000000,4.000000,100.000000,,,,,,,,,,,,,,,,,,,,,,,,,,,,,,,,,,,,,,,,,,,,,,,,,,,,,,,,,,,,,,,,,,,,,,,,,,,,,,,,,,,,,,,,,,,,,,,,,,,,,,,,,,,,,,,,,,,,,,,,,,,,,,,,,
1739356672.260658,1739356672.261388,32.000000,0.000000,4242.948730,4215.000000,4267.179688,4267.179688,4200.128418,4207.563965,4202.179688,4263.461426,4201.794922,4187.307617,4543.974121,4444.358887,4374.102539,4460.769043,0.000000,0.000000,10.000000,,,,0.000000,4.000000,4.000000,4.000000,4.000000,4.000000,4.000000,4.000000,4.000000,4.000000,4.000000,4.000000,4.000000,4.000000,4.000000,100.000000,,,,,,,,,,,,,,,,,8.000000,0.000000,0.717303,0.083862,-0.680420,0.124390,1.077768,-0.038579,0.082041,-45.962631,-26.937326,43.043201,,,,,,,,,,,,,,,,,,,,,,,,,,,,,,,,,,,,,,,,,,,,,,,,,,,,,,,,,,,,,,,,,,,,,,,,,,,,,,,,,,,,,,,,,,,,,,,,,,,,,
1739356672.268466,1739356672.269196,33.000000,0.000000,4249.230957,4219.871582,4275.897461,4269.871582,4194.871582,4206.666504,4200.128418,4268.461426,4196.410156,4181.538574,4553.461426,4442.820313,4375.512695,4462.563965,0.000000,0.000000,10.000000,,,,0.000000,4.000000,4.000000,4.000000,4.000000,4.000000,4.000000,4.000000,4.000000,4.000000,4.000000,4.000000,4.000000,4.000000,4.000000,100.000000,,,,,,,,,,,,,,,,,,,,,,,,,,,,,,,,,,,,,,,,,,,,,,,,,,,,,,,,,,,,,,,,,,,,,,,,,,,,,,,,,,,,,,,,,,,,,,,,,,,,,,,,,,,,,,,,,,,,,,,,,,,,,,,,,
1739356672.276274,1739356672.276904,34.000000,0.000000,4233.846191,4215.897461,4269.358887,4262.436035,4186.282227,4202.436035,4187.179688,4270.641113,4182.948730,4167.820313,4543.589844,4426.922852,4368.461426,4455.128418,0.000000,0.000000,10.000000,,,,0.000000,4.000000,4.000000,4.000000,4.000000,4.000000,4.000000,4.000000,4.000000,4.000000,4.000000,4.000000,4.000000,4.000000,4.000000,100.000000,,,,,,,,,,,,,,,,,,,,,,,,,,,,,,,,,,,,,,,,,,,,,,,,,,,,,,,,,,,,,,,,,,,,,,,,,,,,,,,,,,,,,,,,,,,,,,,,,,,,,,,,,,,,,,,,,,,,,,,,,,,,,,,,,
1739356672.284083,1739356672.284712,35.000000,0.000000,4227.948730,4213.077148,4273.717773,4259.358887,4183.077148,4196.666504,4183.461426,4283.461426,4187.307617,4164.230957,4544.102539,4427.692383,4373.589844,4459.615234,0.000000,0.000000,10.000000,,,,0.000000,4.000000,4.000000,4.000000,4.000000,4.000000,4.000000,4.000000,4.000000,4.000000,4.000000,4.000000,4.000000,4.000000,4.000000,100.000000,,,,,,,,,,,,,,,,,,,,,,,,,,,,,,,,,,,,,,,,,,,,,,,,,,,,,,,,,,,,,,,,,,,,,,,,,,,,,,,,,,,,,,,,,,,,,,,,,,,,,,,,,,,,,,,,,,,,,,,,,,,,,,,,,
1739356672.291891,1739356672.292420,36.000000,0.000000,4244.487305,4219.743652,4295.641113,4267.179688,4185.512695,4193.461426,4187.563965,4300.000000,4200.256348,4174.615234,4558.974121,4444.102539,4387.051270,4474.230957,0.000000,0.000000,10.000000,,,,0.000000,4.000000,4.000000,4.000000,4.000000,4.000000,4.000000,4.000000,4.000000,4.000000,4.000000,4.000000,4.000000,4.000000,4.000000,100.000000,,,,,,,,,,,,,,,,,9.000000,0.000000,0.718066,0.081055,-0.679810,0.125183,1.047979,-0.061531,0.073739,-46.066368,-27.193594,42.988880,,,,,,,,,,,,,,,,,,,,,,,,,,,,,,,,,,,,,,,,,,,,,,,,,,,,,,,,,,,,,,,,,,,,,,,,,,,,,,,,,,,,,,,,,,,,,,,,,,,,,
1739356672.299699,1739356672.300228,37.000000,0.000000,4243.205078,4220.641113,4303.717773,4268.077148,4183.846191,4186.410156,4184.743652,4304.102539,4193.333496,4173.461426,4553.846191,4449.871582,4382.436035,4479.743652,0.000000,0.000000,10.000000,,,,0.000000,4.000000,4.000000,4.000000,4.000000,4.000000,4.000000,4.000000,4.000000,4.000000,4.000000,4.000000,4.000000,4.000000,4.000000,100.000000,,,,,,,,,,,,,,,,,,,,,,,,,,,,,,,,,,,,,,,,,,,,,,,,,,,,,,,,,,,,,,,,,,,,,,,,,,,,,,,,,,,,,,,,,,,,,,,,,,,,,,,,,,,,,,,,,,,,,,,,,,,,,,,,,
1739356672.307507,1739356672.307936,38.000000,0.000000,4233.333496,4216.666504,4301.922852,4263.717773,4182.436035,4183.717773,4180.384766,4301.666504,4187.948730,4170.256348,4540.897461,4443.974121,4375.128418,4473.077148,0.000000,0.000000,10.000000,,,,0.000000,4.000000,4.000000,4.000000,4.000000,4.000000,4.000000,4.000000,4.000000,4.000000,4.000000,4.000000,4.000000,4.000000,4.000000,100.000000,,,,,,,,,,,,,,,,,,,,,,,,,,,,,,,,,,,,,,,,,,,,,,,,,,,,,,,,,,,,,,,,,,,,,,,,,,,,,,,,,,,,,,,,,,,,,,,,,,,,,,,,,,,,,,,,,,,,,,,,,,,,,,,,,
1739356672.315315,1739356672.315845,39.000000,0.000000,4239.743652,4218.974121,4309.487305,4268.077148,4186.538574,4193.077148,4183.333496,4303.461426,4201.538574,4179.743652,4545.769043,4446.410156,4385.384766,4475.769043,0.000000,0.000000,10.000000,,,,0.000000,4.000000,4.000000,4.000000,4.000000,4.000000,4.000000,4.000000,4.000000,4.000000,4.000000,4.000000,4.000000,4.000000,4.000000,100.000000,,,,,,,,,,,,,,,,,,,,,,,,,,,,,,,,,,,,,,,,,,,,,,,,,,,,,,,,,,,,,,,,,,,,,,,,,,,,,,,,,,,,,,,,,,,,,,,,,,,,,,,,,,,,,,,,,,,,,,,,,,,,,,,,,
1739356672.323123,1739356672.323653,40.000000,0.000000,4240.641113,4216.410156,4309.487305,4264.615234,4188.077148,4196.794922,4186.025879,4303.077148,4202.051270,4180.256348,4547.563965,4450.128418,4384.871582,4480.641113,0.000000,0.000000,10.000000,,,,0.000000,4.000000,4.000000,4.000000,4.000000,4.000000,4.000000,4.000000,4.000000,4.000000,4.000000,4.000000,4.000000,4.000000,4.000000,100.000000,,,,,,,,,,,,,,,,,10.000000,0.000000,0.719276,0.078857,-0.678833,0.124939,0.980588,-0.067391,0.076181,-45.959732,-27.307568,42.956657,,,,,,,,,,,,,,,,,,,,,,,,,,,,,,,,2.606199,4.014236,0.706837,0.658913,2.748527,1.990375,3.232299,0.648100,0.689078,2.634027,3.133916,2.251406,0.560780,0.591114,2.434381,1.451467,2.443644,0.466397,0.595658,2.911685,1.518185,0.753192,0.296533,0.535020,2.164700,1.500164,0.596581,0.332498,0.523732,2.271371,1.416847,1.130210,0.239032,0.687666,2.839982,2.205350,0.846866,0.228819,0.135874,0.492109,1.075748,4.775676,0.801711,0.664183,2.996890,1.496316,5.138740,0.945796,0.884356,3.417360,4.102505,4.085036,0.723508,0.913496,2.991700,3.163270,4.372044,0.741585,1.141993,4.043659,2.264409,2.015967,0.495421,0.745818,2.455338,3.139302,2.913547,0.541391,0.829261,2.980609
1739356672.330931,1739356672.331561,41.000000,0.000000,4227.563965,4202.948730,4296.153809,4249.743652,4185.256348,4194.358887,4185.897461,4298.717773,4187.307617,4167.820313,4536.410156,4440.384766,4373.077148,4474.102539,0.000000,0.000000,10.000000,,,,0.000000,4.000000,4.000000,4.000000,4.000000,4.000000,4.000000,4.000000,4.000000,4.000000,4.000000,4.000000,4.000000,4.000000,4.000000,100.000000,,,,,,,,,,,,,,,,,,,,,,,,,,,,,,,,,,,,,,,,,,,,,,,,,,,,,,,,,,,,,,,,,,,,,,,,,,,,,,,,,,,,,,,,,,,,,,,,,,,,,,,,,,,,,,,,,,,,,,,,,,,,,,,,,
1739356672.338739,1739356672.339369,42.000000,0.000000,4226.538574,4199.102539,4294.487305,4247.820313,4185.000000,4197.820313,4190.512695,4296.538574,4187.563965,4167.692383,4538.461426,4431.538574,4381.410156,4472.307617,0.000000,0.000000,10.000000,,,,0.000000,4.000000,4.000000,4.000000,4.000000,4.000000,4.000000,4.000000,4.000000,4.000000,4.000000,4.000000,4.000000,4.000000,4.000000,100.000000,,,,,,,,,,,,,,,,,,,,,,,,,,,,,,,,,,,,,,,,,,,,,,,,,,,,,,,,,,,,,,,,,,,,,,,,,,,,,,,,,,,,,,,,,,,,,,,,,,,,,,,,,,,,,,,,,,,,,,,,,,,,,,,,,
1739356672.346547,1739356672.347277,43.000000,0.000000,4233.846191,4206.666504,4300.769043,4261.282227,4189.487305,4203.205078,4200.000000,4295.641113,4198.974121,4180.128418,4547.179688,4433.205078,4391.153809,4479.102539,0.000000,0.000000,10.000000,,,,0.000000,4.000000,4.000000,4.000000,4.000000,4.000000,4.000000,4.000000,4.000000,4.000000,4.000000,4.000000,4.000000,4.000000,4.000000,100.000000,,,,,,,,,,,,,,,,,,,,,,,,,,,,,,,,,,,,,,,,,,,,,,,,,,,,,,,,,,,,,,,,,,,,,,,,,,,,,,,,,,,,,,,,,,,,,,,,,,,,,,,,,,,,,,,,,,,,,,,,,,,,,,,,,
1739356672.354355,1739356672.355085,44.000000,0.000000,4230.000000,4209.487305,4295.769043,4264.102539,4191.666504,4202.692383,4205.641113,4295.512695,4202.563965,4186.282227,4545.128418,4430.641113,4379.358887,4476.410156,0.000000,0.000000,10.000000,,,,0.000000,4.000000,4.000000,4.000000,4.000000,4.000000,4.000000,4.000000,4.000000,4.000000,4.000000,4.000000,4.000000,4.000000,4.000000,100.000000,,,,,,,,,,,,,,,,,11.000000,0.000000,0.720214,0.078369,-0.678040,0.124146,0.955195,-0.038579,0.086436,-45.863758,-27.493477,43.044327,,,,,,,,,,,,,,,,,,,,,,,,,,,,,,,,,,,,,,,,,,,,,,,,,,,,,,,,,,,,,,,,,,,,,,,,,,,,,,,,,,,,,,,,,,,,,,,,,,,,,
1739356672.362163,1739356672.362894,45.000000,0.000000,4228.717773,4203.717773,4287.051270,4253.205078,4187.051270,4202.179688,4203.461426,4290.897461,4200.641113,4184.102539,4537.820313,4419.615234,4371.794922,4465.000000,0.000000,0.000000,10.000000,,,,0.000000,4.000000,4.000000,4.000000,4.000000,4.000000,4.000000,4.000000,4.000000,4.000000,4.000000,4.000000,4.000000,4.000000,4.000000,100.000000,,,,,,,,,,,,,,,,,,,,,,,,,,,,,,,,,,,,,,,,,,,,,,,,,,,,,,,,,,,,,,,,,,,,,,,,,,,,,,,,,,,,,,,,,,,,,,,,,,,,,,,,,,,,,,,,,,,,,,,,,,,,,,,,,
1739356672.369971,1739356672.370602,46.000000,0.000000,4233.205078,4201.538574,4274.102539,4245.897461,4184.871582,4202.948730,4200.512695,4274.230957,4202.692383,4184.487305,4533.461426,4413.333496,4375.384766,4458.077148,0.000000,0.000000,10.000000,,,,0.000000,4.000000,4.000000,4.000000,4.000000,4.000000,4.000000,4.000000,4.000000,4.000000,4.000000,4.000000,4.000000,4.000000,4.000000,100.000000,,,,,,,,,,,,,,,,,,,,,,,,,,,,,,,,,,,,,,,,,,,,,,,,,,,,,,,,,,,,,,,,,,,,,,,,,,,,,,,,,,,,,,,,,,,,,,,,,,,,,,,,,,,,,,,,,,,,,,,,,,,,,,,,,
1739356672.377779,1739356672.378510,47.000000,0.000000,4233.717773,4209.230957,4262.307617,4247.692383,4191.410156,4200.128418,4200.641113,4260.641113,4204.743652,4189.615234,4534.358887,4410.384766,4373.205078,4455.256348,0.000000,0.000000,10.000000,,,,0.000000,4.000000,4.000000,4.000000,4.000000,4.000000,4.000000,4.000000,4.000000,4.000000,4.000000,4.000000,4.000000,4.000000,4.000000,100.000000,,,,,,,,,,,,,,,,,,,,,,,,,,,,,,,,,,,,,,,,,,,,,,,,,,,,,,,,,,,,,,,,,,,,,,,,,,,,,,,,,,,,,,,,,,,,,,,,,,,,,,,,,,,,,,,,,,,,,,,,,,,,,,,,,
1739356672.385588,1739356672.386318,48.000000,0.000000,4233.461426,4212.948730,4268.077148,4247.179688,4194.230957,4200.256348,4197.179688,4263.333496,4201.794922,4189.871582,4538.589844,4408.205078,4369.871582,4456.153809,0.000000,0.000000,10.000000,,,,0.000000,4.000000,4.000000,4.000000,4.000000,4.000000,4.000000,4.000000,4.000000,4.000000,4.000000,4.000000,4.000000,4.000000,4.000000,100.000000,,,,,,,,,,,,,,,,,12.000000,0.000000,0.722214,0.078552,-0.676453,0.121033,0.986937,-0.021487,0.094738,-45.610714,-27.544130,43.039894,,,,,,,,,,,,,,,,,,,,,,,,,,,,,,,,,,,,,,,,,,,,,,,,,,,,,,,,,,,,,,,,,,,,,,,,,,,,,,,,,,,,,,,,,,,,,,,,,,,,,
1739356672.393396,1739356672.394126,49.000000,0.000000,4232.436035,4204.358887,4277.307617,4238.205078,4192.692383,4202.051270,4189.487305,4268.717773,4196.153809,4184.230957,4540.128418,4404.743652,4367.692383,4453.589844,0.000000,0.000000,10.000000,,,,0.000000,4.000000,4.000000,4.000000,4.000000,4.000000,4.000000,4.000000,4.000000,4.000000,4.000000,4.000000,4.000000,4.000000,4.000000,100.000000,,,,,,,,,,,,,,,,,,,,,,,,,,,,,,,,,,,,,,,,,,,,,,,,,,,,,,,,,,,,,,,,,,,,,,,,,,,,,,,,,,,,,,,,,,,,,,,,,,,,,,,,,,,,,,,,,,,,,,,,,,,,,,,,,
1739356672.401204,1739356672.401834,50.000000,0.000000,4232.948730,4200.769043,4274.871582,4233.461426,4196.153809,4201.410156,4187.051270,4267.692383,4193.717773,4184.615234,4541.666504,4400.000000,4364.487305,4450.384766,0.000000,0.000000,10.000000,,,,0.000000,4.000000,4.000000,4.000000,4.000000,4.000000,4.000000,4.000000,4.000000,4.000000,4.000000,4.000000,4.000000,4.000000,4.000000,100.000000,,,,,,,,,,,,,,,,,,,,,,,,,,,,,,,,,,,,,,,,,,,,,,,,,,,,,,,,,,,,,,,,,,,,,,,,,,,,,,,,,,,,,,,,,,,,,,,,,,,,,,,,,,,,,,,,,,,,,,,,,,,,,,,,,
1739356672.409012,1739356672.409742,51.000000,0.000000,4234.615234,4205.512695,4274.358887,4235.897461,4199.487305,4200.384766,4194.230957,4267.436035,4198.974121,4188.589844,4550.128418,4399.871582,4364.487305,4453.461426,0.000000,0.000000,10.000000,,,,0.000000,4.000000,4.000000,4.000000,4.000000,4.000000,4.000000,4.000000,4.000000,4.000000,4.000000,4.000000,4.000000,4.000000,4.000000,100.000000,,,,,,,,,,,,,,,,,,,,,,,,,,,,,,,,,,,,,,,,,,,,,,,,,,,,,,,,,,,,,,,,,,,,,,,,,,,,,,,,,,,,,,,,,,,,,,,,,,,,,,,,,,,,,,,,,,,,,,,,,,,,,,,,,
1739356672.416820,1739356672.417551,52.000000,0.000000,4231.538574,4205.000000,4277.179688,4236.666504,4198.205078,4202.563965,4200.769043,4270.128418,4202.820313,4187.436035,4553.589844,4397.948730,4365.000000,4450.384766,0.000000,0.000000,10.000000,,,,0.000000,4.000000,4.000000,4.000000,4.000000,4.000000,4.000000,4.000000,4.000000,4.000000,4.000000,4.000000,4.000000,4.000000,4.000000,100.000000,,,,,,,,,,,,,,,,,13.000000,0.000000,0.723390,0.080566,-0.675720,0.116699,1.032841,-0.009767,0.093273,-45.616310,-27.523050,43.152573,,,,,,,,,,,,,,,,,,,,,,,,,,,,,,,,,,,,,,,,,,,,,,,,,,,,,,,,,,,,,,,,,,,,,,,,,,,,,,,,,,,,,,,,,,,,,,,,,,,,,
1739356672.424628,1739356672.425459,53.000000,0.000000,4223.717773,4201.410156,4271.410156,4233.205078,4194.871582,4204.230957,4201.666504,4271.410156,4201.538574,4187.179688,4543.461426,4389.230957,4362.307617,4442.436035,0.000000,0.000000,10.000000,,,,0.000000,4.000000,4.000000,4.000000,4.000000,4.000000,4.000000,4.000000,4.000000,4.000000,4.000000,4.000000,4.000000,4.000000,4.000000,100.000000,,,,,,,,,,,,,,,,,,,,,,,,,,,,,,,,,,,,,,,,,,,,,,,,,,,,,,,,,,,,,,,,,,,,,,,,,,,,,,,,,,,,,,,,,,,,,,,,,,,,,,,,,,,,,,,,,,,,,,,,,,,,,,,,,
1739356672.432436,1739356672.433267,54.000000,0.000000,4215.897461,4196.666504,4262.948730,4223.846191,4190.128418,4202.563965,4202.307617,4270.641113,4204.102539,4187.820313,4537.307617,4380.769043,4355.512695,4437.436035,0.000000,0.000000,10.000000,,,,0.000000,4.000000,4.000000,4.000000,4.000000,4.000000,4.000000,4.000000,4.000000,4.000000,4.000000,4.000000,4.000000,4.000000,4.000000,100.000000,,,,,,,,,,,,,,,,,,,,,,,,,,,,,,,,,,,,,,,,,,,,,,,,,,,,,,,,,,,,,,,,,,,,,,,,,,,,,,,,,,,,,,,,,,,,,,,,,,,,,,,,,,,,,,,,,,,,,,,,,,,,,,,,,
1739356672.440244,1739356672.441175,55.000000,0.000000,4202.820313,4179.871582,4257.436035,4207.692383,4180.769043,4197.563965,4198.589844,4271.666504,4202.820313,4179.487305,4529.487305,4371.794922,4342.563965,4426.922852,0.000000,0.000000,10.000000,,,,0.000000,4.000000,4.000000,4.000000,4.000000,4.000000,4.000000,4.000000,4.000000,4.000000,4.000000,4.000000,4.000000,4.000000,4.000000,100.000000,,,,,,,,,,,,,,,,,,,,,,,,,,,,,,,,,,,,,,,,,,,,,,,,,,,,,,,,,,,,,,,,,,,,,,,,,,,,,,,,,,,,,,,,,,,,,,,,,,,,,,,,,,,,,,,,,,,,,,,,,,,,,,,,,
1739356672.448052,1739356672.448983,56.000000,0.000000,4183.333496,4162.051270,4245.128418,4187.820313,4170.641113,4187.948730,4187.307617,4270.384766,4188.589844,4163.077148,4506.666504,4354.743652,4327.051270,4407.820313,0.000000,0.000000,10.000000,,,,0.000000,4.000000,4.000000,4.000000,4.000000,4.000000,4.000000,4.000000,4.000000,4.000000,4.000000,4.000000,4.000000,4.000000,4.000000,100.000000,,,,,,,,,,,,,,,,,14.000000,0.000000,0.723448,0.082764,-0.676086,0.112610,1.023074,-0.005372,0.079111,-45.671345,-27.554079,42.920647,,,,,,,,,,,,,,,,,,,,,,,,,,,,,,,,3.047232,3.440181,1.065556,0.677075,2.612492,2.480230,2.907628,0.858419,0.682299,2.557794,3.620223,1.970322,0.728052,0.590336,2.289250,1.529631,2.243728,0.654564,0.584040,2.792846,2.165856,0.867394,0.439812,0.540995,2.061651,2.079637,0.724125,0.455461,0.537673,2.142564,1.781047,1.289099,0.309477,0.725295,2.666922,2.949727,0.935975,0.253226,0.142709,0.479374,1.397902,4.234703,0.763600,0.695818,2.806725,2.065389,4.563854,0.939726,0.933355,3.282226,5.747142,4.084298,0.796616,0.914587,2.850150,3.368008,3.913794,0.987120,1.136555,3.847613,2.792352,1.915174,0.612750,0.759573,2.298790,3.438114,2.674676,0.682082,0.803559,2.868963
