Timestamp,OriginalTimestamp,EEG.Counter,EEG.Interpolated,EEG.AF3,EEG.F7,EEG.F3,EEG.FC5,EEG.T7,EEG.P7,EEG.O1,EEG.O2,EEG.P8,EEG.T8,EEG.FC6,EEG.F4,EEG.F8,EEG.AF4,EEG.RawCq,EEG.Battery,EEG.BatteryPercent,MarkerIndex,MarkerType,MarkerValueInt,EEG.MarkerHardware,CQ.AF3,CQ.F7,CQ.F3,CQ.FC5,CQ.T7,CQ.P7,CQ.O1,CQ.O2,CQ.P8,CQ.T8,CQ.FC6,CQ.F4,CQ.F8,CQ.AF4,CQ.Overall,EQ.SampleRateQuality,EQ.OVERALL,EQ.AF3,EQ.F7,EQ.F3,EQ.FC5,EQ.T7,EQ.P7,EQ.O1,EQ.O2,EQ.P8,EQ.T8,EQ.FC6,EQ.F4,EQ.F8,EQ.AF4,MOT.CounterMems,MOT.InterpolatedMems,MOT.Q0,MOT.Q1,MOT.Q2,MOT.Q3,MOT.AccX,MOT.AccY,MOT.AccZ,MOT.MagX,MOT.MagY,MOT.MagZ,PM.Attention.IsActive,PM.Attention.Scaled,PM.Attention.Raw,PM.Attention.Min,PM.Attention.Max,PM.Engagement.IsActive,PM.Engagement.Scaled,PM.Engagement.Raw,PM.Engagement.Min,PM.Engagement.Max,PM.Excitement.IsActive,PM.Excitement.Scaled,PM.Excitement.Raw,PM.Excitement.Min,PM.Excitement.Max,PM.LongTermExcitement,PM.Stress.IsActive,PM.Stress.Scaled,PM.Stress.Raw,PM.Stress.Min,PM.Stress.Max,PM.Relaxation.IsActive,PM.Relaxation.Scaled,PM.Relaxation.Raw,PM.Relaxation.Min,PM.Relaxation.Max,PM.Interest.IsActive,PM.Interest.Scaled,PM.Interest.Raw,PM.Interest.Min,PM.Interest.Max,POW.AF3.Theta,POW.AF3.Alpha,POW.AF3.BetaL,POW.AF3.BetaH,POW.AF3.Gamma,POW.F7.Theta,POW.F7.Alpha,POW.F7.BetaL,POW.F7.BetaH,POW.F7.Gamma,POW.F3.Theta,POW.F3.Alpha,POW.F3.BetaL,POW.F3.BetaH,POW.F3.Gamma,POW.FC5.Theta,POW.FC5.Alpha,POW.FC5.BetaL,POW.FC5.BetaH,POW.FC5.Gamma,POW.T7.Theta,POW.T7.Alpha,POW.T7.BetaL,POW.T7.BetaH,POW.T7.Gamma,POW.P7.Theta,POW.P7.Alpha,POW.P7.BetaL,POW.P7.BetaH,POW.P7.Gamma,POW.O1.Theta,POW.O1.Alpha,POW.O1.BetaL,POW.O1.BetaH,POW.O1.Gamma,POW.O2.Theta,POW.O2.Alpha,POW.O2.BetaL,POW.O2.BetaH,POW.O2.Gamma,POW.P8.Theta,POW.P8.Alpha,POW.P8.BetaL,POW.P8.BetaH,POW.P8.Gamma,POW.T8.Theta,POW.T8.Alpha,POW.T8.BetaL,POW.T8.BetaH,POW.T8.Gamma,POW.FC6.Theta,POW.FC6.Alpha,POW.FC6.BetaL,POW.FC6.BetaH,POW.FC6.Gamma,POW.F4.Theta,POW.F4.Alpha,POW.F4.BetaL,POW.F4.BetaH,POW.F4.Gamma,POW.F8.Theta,POW.F8.Alpha,POW.F8.BetaL,POW.F8.BetaH,POW.F8.Gamma,POW.AF4.Theta,POW.AF4.Alpha,POW.AF4.BetaL,POW.AF4.BetaH,POW.AF4.Gamma
1739356602.667232,1739356602.668269,79.000000,0.000000,4236.666504,4235.641113,4292.563965,4272.051270,4231.666504,4211.410156,4222.563965,4272.436035,4217.692383,4227.820313,4530.256348,4426.538574,4351.538574,4461.538574,5612.000000,0.000000,10.000000,,,,0.000000,4.000000,4.000000,4.000000,4.000000,4.000000,4.000000,4.000000,4.000000,4.000000,4.000000,4.000000,4.000000,4.000000,4.000000,100.000000,,,,,,,,,,,,,,,,,,,,,,,,,,,,,,,,,,,,,,,,,,,,,,,,,,,,,,,,,,,,,,,,,,,,,,,,,,,,,,,,,,,,,,,,,,,,,,,,,,,,,,,,,,,,,,,,,,,,,,,,,,,,,,,,,
1739356602.675041,1739356602.676177,80.000000,0.000000,4246.922852,4239.743652,4298.589844,4280.000000,4228.974121,4224.615234,4235.000000,4270.000000,4221.153809,4229.102539,4529.615234,4433.589844,4357.436035,4468.846191,5649.000000,0.000000,10.000000,,,,0.000000,4.000000,4.000000,4.000000,4.000000,4.000000,4.000000,4.000000,4.000000,4.000000,4.000000,4.000000,4.000000,4.000000,4.000000,100.000000,,,,,,,,,,,,,,,,,20.000000,0.000000,0.767708,-0.093567,-0.621948,0.122681,0.951288,-0.288121,0.226590,-34.153664,-37.898724,44.627171,,,,,,,,,,,,,,,,,,,,,,,,,,,,,,,,,,,,,,,,,,,,,,,,,,,,,,,,,,,,,,,,,,,,,,,,,,,,,,,,,,,,,,,,,,,,,,,,,,,,,
1739356602.682849,1739356602.683985,81.000000,0.000000,4245.897461,4241.538574,4292.179688,4270.512695,4238.461426,4233.077148,4228.717773,4270.000000,4217.948730,4215.000000,4522.692383,4425.128418,4354.615234,4469.230957,6494.000000,0.000000,10.000000,,,,0.000000,4.000000,4.000000,4.000000,4.000000,4.000000,4.000000,4.000000,4.000000,4.000000,4.000000,4.000000,4.000000,4.000000,4.000000,100.000000,,,,,,,,,,,,,,,,,,,,,,,,,,,,,,,,,,,,,,,,,,,,,,,,,,,,,,,,,,,,,,,,,,,,,,,,,,,,,,,,,,,,,,,,,,,,,,,,,,,,,,,,,,,,,,,,,,,,,,,,,,,,,,,,,
1739356602.690657,1739356602.691793,82.000000,0.000000,4247.820313,4238.077148,4296.922852,4280.897461,4250.128418,4230.128418,4225.641113,4271.153809,4215.128418,4215.128418,4513.846191,4423.461426,4356.153809,4470.000000,4856.000000,0.000000,10.000000,,,,0.000000,4.000000,4.000000,4.000000,4.000000,4.000000,4.000000,4.000000,4.000000,4.000000,4.000000,4.000000,4.000000,4.000000,4.000000,100.000000,,,,,,,,,,,,,,,,,,,,,,,,,,,,,,,,,,,,,,,,,,,,,,,,,,,,,,,,,,,,,,,,,,,,,,,,,,,,,,,,,,,,,,,,,,,,,,,,,,,,,,,,,,,,,,,,,,,,,,,,,,,,,,,,,
1739356602.698465,1739356602.699601,83.000000,0.000000,4250.512695,4239.358887,4302.948730,4290.769043,4247.692383,4225.897461,4228.974121,4268.717773,4213.461426,4222.307617,4513.717773,4431.666504,4362.436035,4471.794922,5612.000000,0.000000,10.000000,,,,0.000000,4.000000,4.000000,4.000000,4.000000,4.000000,4.000000,4.000000,4.000000,4.000000,4.000000,4.000000,4.000000,4.000000,4.000000,100.000000,,,,,,,,,,,,,,,,,,,,,,,,,,,,,,,,,,,,,,,,,,,,,,,,,,,,,,,,,,,,,,,,,,,,,,,,,,,,,,,,,,,,,,,,,,,,,,,,,,,,,,,,,,,,,,,,,,,,,,,,,,,,,,,,,
1739356602.706273,1739356602.707309,84.000000,0.000000,4248.077148,4244.871582,4299.358887,4276.153809,4248.589844,4224.871582,4230.256348,4269.102539,4211.666504,4217.948730,4517.179688,4433.205078,4366.153809,4473.846191,5649.000000,0.000000,10.000000,,,,0.000000,4.000000,4.000000,4.000000,4.000000,4.000000,4.000000,4.000000,4.000000,4.000000,4.000000,4.000000,4.000000,4.000000,4.000000,100.000000,,,,,,,,,,,,,,,,,21.000000,0.000000,0.765532,-0.094604,-0.624695,0.121521,0.974240,-0.273959,0.218288,-34.204964,-37.892185,44.531120,,,,,,,,,,,,,,,,,,,,,,,,,,,,,,,,,,,,,,,,,,,,,,,,,,,,,,,,,,,,,,,,,,,,,,,,,,,,,,,,,,,,,,,,,,,,,,,,,,,,,
1739356602.714081,1739356602.715117,85.000000,0.000000,4257.179688,4245.897461,4304.871582,4285.769043,4245.128418,4235.897461,4234.743652,4272.820313,4211.153809,4216.666504,4521.282227,4437.307617,4367.179688,4481.794922,6494.000000,0.000000,10.000000,,,,0.000000,4.000000,4.000000,4.000000,4.000000,4.000000,4.000000,4.000000,4.000000,4.000000,4.000000,4.000000,4.000000,4.000000,4.000000,100.000000,,,,,,,,,,,,,,,,,,,,,,,,,,,,,,,,,,,,,,,,,,,,,,,,,,,,,,,,,,,,,,,,,,,,,,,,,,,,,,,,,,,,,,,,,,,,,,,,,,,,,,,,,,,,,,,,,,,,,,,,,,,,,,,,,
1739356602.721889,1739356602.722825,86.000000,0.000000,4283.333496,4263.333496,4323.974121,4322.692383,4247.307617,4248.589844,4251.538574,4277.820313,4226.794922,4235.128418,4545.384766,4460.769043,4382.436035,4503.717773,4856.000000,0.000000,10.000000,,,,0.000000,4.000000,4.000000,4.000000,4.000000,4.000000,4.000000,4.000000,4.000000,4.000000,4.000000,4.000000,4.000000,4.000000,4.000000,100.000000,,,,,,,,,,,,,,,,,,,,,,,,,,,,,,,,,,,,,,,,,,,,,,,,,,,,,,,,,,,,,,,,,,,,,,,,,,,,,,,,,,,,,,,,,,,,,,,,,,,,,,,,,,,,,,,,,,,,,,,,,,,,,,,,,
1739356602.729697,1739356602.730733,87.000000,0.000000,4289.102539,4271.794922,4324.487305,4326.282227,4261.794922,4239.358887,4258.974121,4280.769043,4238.717773,4249.230957,4561.538574,4467.820313,4393.717773,4511.794922,5612.000000,0.000000,10.000000,,,,0.000000,4.000000,4.000000,4.000000,4.000000,4.000000,4.000000,4.000000,4.000000,4.000000,4.000000,4.000000,4.000000,4.000000,4.000000,100.000000,,,,,,,,,,,,,,,,,,,,,,,,,,,,,,,,,,,,,,,,,,,,,,,,,,,,,,,,,,,,,,,,,,,,,,,,,,,,,,,,,,,,,,,,,,,,,,,,,,,,,,,,,,,,,,,,,,,,,,,,,,,,,,,,,
1739356602.737505,1739356602.738541,88.000000,0.000000,4261.410156,4246.025879,4300.256348,4301.410156,4255.641113,4226.666504,4231.410156,4274.102539,4218.333496,4233.205078,4537.307617,4436.153809,4374.230957,4487.820313,5649.000000,0.000000,10.000000,,,,0.000000,4.000000,4.000000,4.000000,4.000000,4.000000,4.000000,4.000000,4.000000,4.000000,4.000000,4.000000,4.000000,4.000000,4.000000,100.000000,,,,,,,,,,,,,,,,,22.000000,0.000000,0.764387,-0.094971,-0.626099,0.121216,0.933219,-0.275913,0.213893,-34.401134,-38.086300,44.594677,,,,,,,,,,,,,,,,,,,,,,,,,,,,,,,,54.586224,10.410002,2.953287,0.481562,0.356074,49.905857,7.948769,1.682773,0.416138,0.268742,6.574394,2.874494,1.104568,0.320554,0.381353,22.693171,4.530403,1.067403,0.664201,0.569885,1.154280,1.171468,0.719020,0.356167,0.496664,0.371485,0.671759,0.773085,0.238303,0.378133,0.473989,1.932132,1.023575,0.432502,0.701375,0.082568,0.332698,0.219337,0.053125,0.091599,1.212913,1.897072,1.678058,0.328261,0.451165,1.193267,2.591198,1.632495,0.381807,0.506754,11.545892,3.361702,1.312292,0.603905,0.427120,8.679845,5.216099,1.789347,0.424584,0.487499,12.310191,3.265928,1.262215,0.518535,0.264901,41.622051,7.523754,2.815758,0.428356,0.386199
1739356602.745313,1739356602.746449,89.000000,0.000000,4264.871582,4247.436035,4304.487305,4311.666504,4243.333496,4236.410156,4228.461426,4275.641113,4222.051270,4234.102539,4534.102539,4438.205078,4375.128418,4491.025879,6494.000000,0.000000,10.000000,,,,0.000000,4.000000,4.000000,4.000000,4.000000,4.000000,4.000000,4.000000,4.000000,4.000000,4.000000,4.000000,4.000000,4.000000,4.000000,100.000000,,,,,,,,,,,,,,,,,,,,,,,,,,,,,,,,,,,,,,,,,,,,,,,,,,,,,,,,,,,,,,,,,,,,,,,,,,,,,,,,,,,,,,,,,,,,,,,,,,,,,,,,,,,,,,,,,,,,,,,,,,,,,,,,,
1739356602.753122,1739356602.754257,90.000000,0.000000,4297.692383,4282.051270,4329.230957,4337.307617,4257.820313,4243.333496,4264.871582,4285.128418,4261.666504,4267.436035,4565.512695,4474.487305,4405.512695,4520.897461,4856.000000,0.000000,10.000000,,,,0.000000,4.000000,4.000000,4.000000,4.000000,4.000000,4.000000,4.000000,4.000000,4.000000,4.000000,4.000000,4.000000,4.000000,4.000000,100.000000,,,,,,,,,,,,,,,,,,,,,,,,,,,,,,,,,,,,,,,,,,,,,,,,,,,,,,,,,,,,,,,,,,,,,,,,,,,,,,,,,,,,,,,,,,,,,,,,,,,,,,,,,,,,,,,,,,,,,,,,,,,,,,,,,
1739356602.760929,1739356602.762066,91.000000,0.000000,4282.948730,4281.794922,4313.461426,4326.794922,4271.410156,4230.512695,4247.051270,4277.307617,4252.307617,4261.794922,4561.922852,4456.410156,4396.794922,4506.666504,5612.000000,0.000000,10.000000,,,,0.000000,4.000000,4.000000,4.000000,4.000000,4.000000,4.000000,4.000000,4.000000,4.000000,4.000000,4.000000,4.000000,4.000000,4.000000,100.000000,,,,,,,,,,,,,,,,,,,,,,,,,,,,,,,,,,,,,,,,,,,,,,,,,,,,,,,,,,,,,,,,,,,,,,,,,,,,,,,,,,,,,,,,,,,,,,,,,,,,,,,,,,,,,,,,,,,,,,,,,,,,,,,,,
1739356602.768737,1739356602.769774,92.000000,0.000000,4249.615234,4256.538574,4286.410156,4312.692383,4264.102539,4218.333496,4203.589844,4266.153809,4211.282227,4224.358887,4533.333496,4417.563965,4367.051270,4475.128418,5649.000000,0.000000,10.000000,,,,0.000000,4.000000,4.000000,4.000000,4.000000,4.000000,4.000000,4.000000,4.000000,4.000000,4.000000,4.000000,4.000000,4.000000,4.000000,100.000000,,,,,,,,,,,,,,,,,23.000000,0.000000,0.762183,-0.095642,-0.628784,0.120667,0.913197,-0.300330,0.202661,-34.444355,-38.127670,44.351875,,,,,,,,,,,,,,,,,,,,,,,,,,,,,,,,,,,,,,,,,,,,,,,,,,,,,,,,,,,,,,,,,,,,,,,,,,,,,,,,,,,,,,,,,,,,,,,,,,,,,
1739356602.776546,1739356602.777582,93.000000,0.000000,4268.717773,4264.358887,4303.205078,4340.512695,4261.025879,4226.922852,4234.102539,4274.102539,4220.128418,4229.871582,4542.307617,4438.461426,4379.871582,4493.717773,6494.000000,0.000000,10.000000,,,,0.000000,4.000000,4.000000,4.000000,4.000000,4.000000,4.000000,4.000000,4.000000,4.000000,4.000000,4.000000,4.000000,4.000000,4.000000,100.000000,,,,,,,,,,,,,,,,,,,,,,,,,,,,,,,,,,,,,,,,,,,,,,,,,,,,,,,,,,,,,,,,,,,,,,,,,,,,,,,,,,,,,,,,,,,,,,,,,,,,,,,,,,,,,,,,,,,,,,,,,,,,,,,,,
1739356602.784354,1739356602.785290,94.000000,0.000000,4286.922852,4276.282227,4320.128418,4361.794922,4266.025879,4246.025879,4262.179688,4278.077148,4236.282227,4247.307617,4555.897461,4465.128418,4394.230957,4515.128418,4856.000000,0.000000,10.000000,,,,0.000000,4.000000,4.000000,4.000000,4.000000,4.000000,4.000000,4.000000,4.000000,4.000000,4.000000,4.000000,4.000000,4.000000,4.000000,100.000000,,,,,,,,,,,,,,,,,,,,,,,,,,,,,,,,,,,,,,,,,,,,,,,,,,,,,,,,,,,,,,,,,,,,,,,,,,,,,,,,,,,,,,,,,,,,,,,,,,,,,,,,,,,,,,,,,,,,,,,,,,,,,,,,,
1739356602.792162,1739356602.793198,95.000000,0.000000,4277.436035,4263.461426,4318.077148,4346.025879,4254.487305,4242.820313,4243.461426,4271.153809,4223.461426,4234.743652,4555.000000,4458.974121,4386.025879,4508.205078,5612.000000,0.000000,10.000000,,,,0.000000,4.000000,4.000000,4.000000,4.000000,4.000000,4.000000,4.000000,4.000000,4.000000,4.000000,4.000000,4.000000,4.000000,4.000000,100.000000,,,,,,,,,,,,,,,,,,,,,,,,,,,,,,,,,,,,,,,,,,,,,,,,,,,,,,,,,,,,,,,,,,,,,,,,,,,,,,,,,,,,,,,,,,,,,,,,,,,,,,,,,,,,,,,,,,,,,,,,,,,,,,,,,
1739356602.799970,1739356602.801006,96.000000,0.000000,4298.846191,4267.051270,4338.205078,4352.307617,4230.256348,4228.717773,4268.717773,4278.846191,4232.051270,4241.922852,4580.897461,4475.897461,4398.974121,4527.563965,5649.000000,0.000000,10.000000,,,,0.000000,4.000000,4.000000,4.000000,4.000000,4.000000,4.000000,4.000000,4.000000,4.000000,4.000000,4.000000,4.000000,4.000000,4.000000,100.000000,,,,,,,,,,,,,,,,,24.000000,0.000000,0.760237,-0.096252,-0.631287,0.119385,0.992309,-0.308143,0.170919,-34.533253,-38.131569,44.216686,,,,,,,,,,,,,,,,,,,,,,,,,,,,,,,,,,,,,,,,,,,,,,,,,,,,,,,,,,,,,,,,,,,,,,,,,,,,,,,,,,,,,,,,,,,,,,,,,,,,,
1739356602.807778,1739356602.808914,97.000000,0.000000,4302.820313,4282.051270,4330.512695,4371.410156,4239.487305,4234.615234,4268.461426,4277.179688,4233.717773,4245.000000,4575.384766,4472.436035,4394.358887,4531.794922,6494.000000,0.000000,10.000000,,,,0.000000,4.000000,4.000000,4.000000,4.000000,4.000000,4.000000,4.000000,4.000000,4.000000,4.000000,4.000000,4.000000,4.000000,4.000000,100.000000,,,,,,,,,,,,,,,,,,,,,,,,,,,,,,,,,,,,,,,,,,,,,,,,,,,,,,,,,,,,,,,,,,,,,,,,,,,,,,,,,,,,,,,,,,,,,,,,,,,,,,,,,,,,,,,,,,,,,,,,,,,,,,,,,
1739356602.815586,1739356602.816722,98.000000,0.000000,4279.102539,4298.077148,4305.769043,4366.794922,4266.922852,4240.512695,4211.794922,4265.256348,4210.256348,4217.948730,4537.948730,4441.282227,4367.436035,4505.512695,4856.000000,0.000000,10.000000,,,,0.000000,4.000000,4.000000,4.000000,4.000000,4.000000,4.000000,4.000000,4.000000,4.000000,4.000000,4.000000,4.000000,4.000000,4.000000,100.000000,,,,,,,,,,,,,,,,,,,,,,,,,,,,,,,,,,,,,,,,,,,,,,,,,,,,,,,,,,,,,,,,,,,,,,,,,,,,,,,,,,,,,,,,,,,,,,,,,,,,,,,,,,,,,,,,,,,,,,,,,,,,,,,,,
1739356602.823394,1739356602.824631,99.000000,0.000000,4301.794922,4309.743652,4334.871582,4377.563965,4251.666504,4222.563965,4230.000000,4273.077148,4219.102539,4221.410156,4554.230957,4465.384766,4381.666504,4518.589844,5612.000000,0.000000,10.000000,,,,0.000000,4.000000,4.000000,4.000000,4.000000,4.000000,4.000000,4.000000,4.000000,4.000000,4.000000,4.000000,4.000000,4.000000,4.000000,100.000000,,,,,,,,,,,,,,,,,,,,,,,,,,,,,,,,,,,,,,,,,,,,,,,,,,,,,,,,,,,,,,,,,,,,,,,,,,,,,,,,,,,,,,,,,,,,,,,,,,,,,,,,,,,,,,,,,,,,,,,,,,,,,,,,,
1739356602.831202,1739356602.832439,100.000000,0.000000,4321.025879,4298.589844,4348.717773,4423.589844,4243.077148,4209.871582,4269.487305,4278.333496,4237.307617,4245.128418,4577.820313,4488.717773,4406.153809,4537.436035,5649.000000,0.000000,10.000000,,,,0.000000,4.000000,4.000000,4.000000,4.000000,4.000000,4.000000,4.000000,4.000000,4.000000,4.000000,4.000000,4.000000,4.000000,4.000000,100.000000,,,,,,,,,,,,,,,,,25.000000,0.000000,0.757686,-0.096436,-0.634705,0.117310,0.946893,-0.272006,0.150409,-34.496593,-38.185078,44.045017,,,,,,,,,,,,,,,,,,,,,,,,,,,,,,,,,,,,,,,,,,,,,,,,,,,,,,,,,,,,,,,,,,,,,,,,,,,,,,,,,,,,,,,,,,,,,,,,,,,,,
1739356602.839010,1739356602.840347,101.000000,0.000000,4288.333496,4296.922852,4304.487305,4481.410156,4278.589844,4225.000000,4224.487305,4265.641113,4222.820313,4234.230957,4542.307617,4449.871582,4389.743652,4508.846191,6494.000000,0.000000,10.000000,,,,0.000000,4.000000,4.000000,4.000000,4.000000,4.000000,4.000000,4.000000,4.000000,4.000000,4.000000,4.000000,4.000000,4.000000,4.000000,100.000000,,,,,,,,,,,,,,,,,,,,,,,,,,,,,,,,,,,,,,,,,,,,,,,,,,,,,,,,,,,,,,,,,,,,,,,,,,,,,,,,,,,,,,,,,,,,,,,,,,,,,,,,,,,,,,,,,,,,,,,,,,,,,,,,,
1739356602.846818,1739356602.848155,102.000000,0.000000,4267.820313,4321.538574,4282.692383,4555.769043,4287.563965,4229.230957,4183.205078,4257.820313,4209.102539,4213.846191,4507.436035,4421.410156,4372.307617,4481.794922,4856.000000,0.000000,10.000000,,,,0.000000,4.000000,4.000000,4.000000,4.000000,4.000000,4.000000,4.000000,4.000000,4.000000,4.000000,4.000000,4.000000,4.000000,4.000000,100.000000,,,,,,,,,,,,,,,,,,,,,,,,,,,,,,,,,,,,,,,,,,,,,,,,,,,,,,,,,,,,,,,,,,,,,,,,,,,,,,,,,,,,,,,,,,,,,,,,,,,,,,,,,,,,,,,,,,,,,,,,,,,,,,,,,
1739356602.854627,1739356602.856063,103.000000,0.000000,4272.307617,4324.743652,4289.743652,4679.487305,4271.538574,4211.538574,4204.230957,4260.000000,4213.589844,4216.282227,4505.897461,4428.333496,4375.256348,4480.641113,5612.000000,0.000000,10.000000,,,,0.000000,4.000000,4.000000,4.000000,4.000000,4.000000,4.000000,4.000000,4.000000,4.000000,4.000000,4.000000,4.000000,4.000000,4.000000,100.000000,,,,,,,,,,,,,,,,,,,,,,,,,,,,,,,,,,,,,,,,,,,,,,,,,,,,,,,,,,,,,,,,,,,,,,,,,,,,,,,,,,,,,,,,,,,,,,,,,,,,,,,,,,,,,,,,,,,,,,,,,,,,,,,,,
1739356602.862435,1739356602.863871,104.000000,0.000000,4281.153809,4305.512695,4298.077148,4866.538574,4257.692383,4214.102539,4239.743652,4257.820313,4225.769043,4229.358887,4508.205078,4439.743652,4378.846191,4482.820313,5649.000000,0.000000,10.000000,,,,0.000000,4.000000,4.000000,4.000000,4.000000,4.000000,4.000000,4.000000,4.000000,4.000000,4.000000,4.000000,4.000000,4.000000,4.000000,100.000000,,,,,,,,,,,,,,,,,26.000000,0.000000,0.755929,-0.096191,-0.637268,0.114929,0.953241,-0.251984,0.157734,-34.580269,-38.216572,43.857182,,,,,,,,,,,,,,,,,,,,,,,,,,,,,,,,59.687820,11.088542,3.394196,0.397696,0.385227,54.156372,8.577628,1.879159,0.317436,0.286318,7.066685,2.997133,1.270361,0.263740,0.417485,22.492163,4.720954,1.069039,0.526103,0.614864,1.072298,1.370743,0.716814,0.344572,0.594836,0.380296,0.551838,0.812746,0.277042,0.448572,0.528383,1.554588,1.003323,0.439436,0.779742,0.091933,0.255518,0.235409,0.048400,0.105207,1.227118,1.876360,1.694490,0.330818,0.493884,1.377167,2.322407,1.710620,0.369011,0.549919,11.520010,2.882593,1.388221,0.568042,0.439401,9.467400,4.886620,2.110322,0.378232,0.551145,13.159169,2.940238,1.495442,0.454025,0.296892,45.421295,7.562378,3.357336,0.332670,0.435156
1739356602.870243,1739356602.871779,105.000000,0.000000,4306.922852,4308.846191,4323.589844,5023.717773,4218.461426,4217.179688,4275.897461,4257.179688,4239.358887,4237.563965,4511.282227,4461.794922,4385.641113,4493.589844,6494.000000,0.000000,10.000000,,,,0.000000,4.000000,4.000000,4.000000,4.000000,4.000000,4.000000,4.000000,4.000000,4.000000,4.000000,4.000000,4.000000,4.000000,4.000000,100.000000,,,,,,,,,,,,,,,,,,,,,,,,,,,,,,,,,,,,,,,,,,,,,,,,,,,,,,,,,,,,,,,,,,,,,,,,,,,,,,,,,,,,,,,,,,,,,,,,,,,,,,,,,,,,,,,,,,,,,,,,,,,,,,,,,
1739356602.878051,1739356602.879588,106.000000,0.000000,4302.179688,4317.820313,4314.743652,5142.436035,4209.230957,4205.384766,4263.589844,4260.769043,4224.743652,4222.436035,4491.666504,4454.743652,4383.974121,4484.615234,4856.000000,0.000000,10.000000,,,,0.000000,4.000000,4.000000,4.000000,4.000000,4.000000,4.000000,4.000000,4.000000,4.000000,4.000000,4.000000,4.000000,4.000000,4.000000,100.000000,,,,,,,,,,,,,,,,,,,,,,,,,,,,,,,,,,,,,,,,,,,,,,,,,,,,,,,,,,,,,,,,,,,,,,,,,,,,,,,,,,,,,,,,,,,,,,,,,,,,,,,,,,,,,,,,,,,,,,,,,,,,,,,,,
1739356602.885859,1739356602.887496,107.000000,0.000000,4266.538574,4306.538574,4271.538574,5321.025879,4254.102539,4208.205078,4201.922852,4265.641113,4198.077148,4198.333496,4459.102539,4416.922852,4375.641113,4459.230957,5612.000000,0.000000,10.000000,,,,0.000000,4.000000,4.000000,4.000000,4.000000,4.000000,4.000000,4.000000,4.000000,4.000000,4.000000,4.000000,4.000000,4.000000,4.000000,100.000000,,,,,,,,,,,,,,,,,,,,,,,,,,,,,,,,,,,,,,,,,,,,,,,,,,,,,,,,,,,,,,,,,,,,,,,,,,,,,,,,,,,,,,,,,,,,,,,,,,,,,,,,,,,,,,,,,,,,,,,,,,,,,,,,,
1739356602.893667,1739356602.895304,108.000000,0.000000,4261.666504,4292.179688,4260.641113,5558.717773,4259.102539,4205.897461,4178.846191,4270.128418,4196.153809,4189.615234,4458.077148,4410.384766,4371.666504,4456.666504,5649.000000,0.000000,10.000000,,,,0.000000,4.000000,4.000000,4.000000,4.000000,4.000000,4.000000,4.000000,4.000000,4.000000,4.000000,4.000000,4.000000,4.000000,4.000000,100.000000,,,,,,,,,,,,,,,,,27.000000,0.000000,0.755280,-0.095154,-0.638367,0.113953,0.975705,-0.174826,0.196313,-34.638908,-38.311581,43.971466,,,,,,,,,,,,,,,,,,,,,,,,,,,,,,,,,,,,,,,,,,,,,,,,,,,,,,,,,,,,,,,,,,,,,,,,,,,,,,,,,,,,,,,,,,,,,,,,,,,,,
1739356602.901475,1739356602.903012,109.000000,0.000000,4261.025879,4290.384766,4254.102539,5825.897461,4240.384766,4180.384766,4175.128418,4269.230957,4188.333496,4181.153809,4454.871582,4410.256348,4360.000000,4448.205078,6494.000000,0.000000,10.000000,,,,0.000000,4.000000,4.000000,4.000000,4.000000,4.000000,4.000000,4.000000,4.000000,4.000000,4.000000,4.000000,4.000000,4.000000,4.000000,100.000000,,,,,,,,,,,,,,,,,,,,,,,,,,,,,,,,,,,,,,,,,,,,,,,,,,,,,,,,,,,,,,,,,,,,,,,,,,,,,,,,,,,,,,,,,,,,,,,,,,,,,,,,,,,,,,,,,,,,,,,,,,,,,,,,,
1739356602.909283,1739356602.910820,110.000000,0.000000,4261.794922,4308.461426,4248.589844,6145.384766,4260.512695,4170.256348,4172.820313,4268.333496,4184.743652,4185.641113,4438.333496,4407.563965,4362.051270,4442.179688,4856.000000,0.000000,10.000000,,,,0.000000,4.000000,4.000000,4.000000,4.000000,4.000000,4.000000,4.000000,4.000000,4.000000,4.000000,4.000000,4.000000,4.000000,4.000000,100.000000,,,,,,,,,,,,,,,,,,,,,,,,,,,,,,,,,,,,,,,,,,,,,,,,,,,,,,,,,,,,,,,,,,,,,,,,,,,,,,,,,,,,,,,,,,,,,,,,,,,,,,,,,,,,,,,,,,,,,,,,,,,,,,,,,
1739356602.917091,1739356602.918528,111.000000,0.000000,4295.000000,4307.563965,4277.820313,6453.461426,4252.948730,4177.179688,4199.743652,4270.641113,4208.589844,4211.153809,4449.615234,4440.000000,4388.717773,4470.128418,5612.000000,0.000000,10.000000,,,,0.000000,4.000000,4.000000,4.000000,4.000000,4.000000,4.000000,4.000000,4.000000,4.000000,4.000000,4.000000,4.000000,4.000000,4.000000,100.000000,,,,,,,,,,,,,,,,,,,,,,,,,,,,,,,,,,,,,,,,,,,,,,,,,,,,,,,,,,,,,,,,,,,,,,,,,,,,,,,,,,,,,,,,,,,,,,,,,,,,,,,,,,,,,,,,,,,,,,,,,,,,,,,,,
1739356602.924899,1739356602.926336,112.000000,0.000000,4318.846191,4275.769043,4297.436035,6612.820313,4213.589844,4188.846191,4217.563965,4272.179688,4213.974121,4211.153809,4463.333496,4465.897461,4400.384766,4483.333496,5649.000000,0.000000,10.000000,,,,0.000000,4.000000,4.000000,4.000000,4.000000,4.000000,4.000000,4.000000,4.000000,4.000000,4.000000,4.000000,4.000000,4.000000,4.000000,100.000000,,,,,,,,,,,,,,,,,28.000000,0.000000,0.754359,-0.092346,-0.639648,0.115173,1.029911,-0.281284,0.121109,-34.708351,-38.163757,43.874317,,,,,,,,,,,,,,,,,,,,,,,,,,,,,,,,,,,,,,,,,,,,,,,,,,,,,,,,,,,,,,,,,,,,,,,,,,,,,,,,,,,,,,,,,,,,,,,,,,,,,
1739356602.932707,1739356602.934044,113.000000,0.000000,4305.512695,4284.487305,4275.128418,6733.974121,4221.538574,4199.487305,4201.666504,4268.846191,4196.538574,4188.717773,4437.051270,4444.487305,4387.948730,4460.000000,6494.000000,0.000000,10.000000,,,,0.000000,4.000000,4.000000,4.000000,4.000000,4.000000,4.000000,4.000000,4.000000,4.000000,4.000000,4.000000,4.000000,4.000000,4.000000,100.000000,,,,,,,,,,,,,,,,,,,,,,,,,,,,,,,,,,,,,,,,,,,,,,,,,,,,,,,,,,,,,,,,,,,,,,,,,,,,,,,,,,,,,,,,,,,,,,,,,,,,,,,,,,,,,,,,,,,,,,,,,,,,,,,,,
1739356602.940515,1739356602.941852,114.000000,0.000000,4312.179688,4311.794922,4269.487305,6928.077148,4257.563965,4180.897461,4210.641113,4269.487305,4200.897461,4187.436035,4420.384766,4438.589844,4388.333496,4459.102539,4856.000000,0.000000,10.000000,,,,0.000000,4.000000,4.000000,4.000000,4.000000,4.000000,4.000000,4.000000,4.000000,4.000000,4.000000,4.000000,4.000000,4.000000,4.000000,100.000000,,,,,,,,,,,,,,,,,,,,,,,,,,,,,,,,,,,,,,,,,,,,,,,,,,,,,,,,,,,,,,,,,,,,,,,,,,,,,,,,,,,,,,,,,,,,,,,,,,,,,,,,,,,,,,,,,,,,,,,,,,,,,,,,,
1739356602.948323,1739356602.949560,115.000000,0.000000,4354.615234,4317.563965,4302.179688,7081.922852,4252.051270,4183.717773,4243.589844,4275.384766,4225.128418,4207.820313,4449.102539,4476.538574,4407.563965,4492.948730,5612.000000,0.000000,10.000000,,,,0.000000,4.000000,4.000000,4.000000,4.000000,4.000000,4.000000,4.000000,4.000000,4.000000,4.000000,4.000000,4.000000,4.000000,4.000000,100.000000,,,,,,,,,,,,,,,,,,,,,,,,,,,,,,,,,,,,,,,,,,,,,,,,,,,,,,,,,,,,,,,,,,,,,,,,,,,,,,,,,,,,,,,,,,,,,,,,,,,,,,,,,,,,,,,,,,,,,,,,,,,,,,,,,
1739356602.956132,1739356602.957368,116.000000,0.000000,4370.641113,4318.333496,4307.051270,7180.641113,4227.307617,4203.589844,4233.846191,4272.179688,4228.461426,4221.282227,4442.179688,4483.333496,4413.717773,4496.922852,5649.000000,0.000000,10.000000,,,,0.000000,4.000000,4.000000,4.000000,4.000000,4.000000,4.000000,4.000000,4.000000,4.000000,4.000000,4.000000,4.000000,4.000000,4.000000,100.000000,,,,,,,,,,,,,,,,,29.000000,0.000000,0.753234,-0.091370,-0.640991,0.115845,0.909779,-0.302771,0.103040,-34.787514,-38.180714,43.820221,,,,,,,,,,,,,,,,,,,,,,,,,,,,,,,,,,,,,,,,,,,,,,,,,,,,,,,,,,,,,,,,,,,,,,,,,,,,,,,,,,,,,,,,,,,,,,,,,,,,,
1739356602.963940,1739356602.965076,117.000000,0.000000,4371.153809,4332.051270,4287.436035,7271.410156,4242.307617,4169.871582,4231.153809,4269.358887,4219.487305,4213.589844,4405.000000,4465.769043,4407.948730,4483.846191,6494.000000,0.000000,10.000000,,,,0.000000,4.000000,4.000000,4.000000,4.000000,4.000000,4.000000,4.000000,4.000000,4.000000,4.000000,4.000000,4.000000,4.000000,4.000000,100.000000,,,,,,,,,,,,,,,,,,,,,,,,,,,,,,,,,,,,,,,,,,,,,,,,,,,,,,,,,,,,,,,,,,,,,,,,,,,,,,,,,,,,,,,,,,,,,,,,,,,,,,,,,,,,,,,,,,,,,,,,,,,,,,,,,
1739356602.971748,1739356602.972884,118.000000,0.000000,4391.922852,4357.563965,4290.256348,7330.000000,4258.333496,4167.436035,4253.589844,4274.102539,4222.051270,4198.333496,4409.871582,4474.871582,4406.410156,4492.179688,4856.000000,0.000000,10.000000,,,,0.000000,4.000000,4.000000,4.000000,4.000000,4.000000,4.000000,4.000000,4.000000,4.000000,4.000000,4.000000,4.000000,4.000000,4.000000,100.000000,,,,,,,,,,,,,,,,,,,,,,,,,,,,,,,,,,,,,,,,,,,,,,,,,,,,,,,,,,,,,,,,,,,,,,,,,,,,,,,,,,,,,,,,,,,,,,,,,,,,,,,,,,,,,,,,,,,,,,,,,,,,,,,,,
1739356602.979556,1739356602.980592,119.000000,0.000000,4383.205078,4376.794922,4278.077148,7378.589844,4234.102539,4189.230957,4218.846191,4263.846191,4216.282227,4192.692383,4386.794922,4454.615234,4403.077148,4474.487305,5612.000000,0.000000,10.000000,,,,0.000000,4.000000,4.000000,4.000000,4.000000,4.000000,4.000000,4.000000,4.000000,4.000000,4.000000,4.000000,4.000000,4.000000,4.000000,100.000000,,,,,,,,,,,,,,,,,,,,,,,,,,,,,,,,,,,,,,,,,,,,,,,,,,,,,,,,,,,,,,,,,,,,,,,,,,,,,,,,,,,,,,,,,,,,,,,,,,,,,,,,,,,,,,,,,,,,,,,,,,,,,,,,,
1739356602.987364,1739356602.988400,120.000000,0.000000,4362.436035,4397.820313,4244.102539,7487.051270,4230.897461,4152.051270,4166.538574,4248.333496,4211.153809,4202.436035,4335.512695,4409.871582,4413.205078,4438.717773,5649.000000,0.000000,10.000000,,,,0.000000,4.000000,4.000000,4.000000,4.000000,4.000000,4.000000,4.000000,4.000000,4.000000,4.000000,4.000000,4.000000,4.000000,4.000000,100.000000,,,,,,,,,,,,,,,,,30.000000,0.000000,0.751932,-0.091003,-0.642822,0.114441,1.000610,-0.266634,0.101087,-34.842098,-38.129311,43.821529,,,,,,,,,,,,,,,,,,,,,,,,,,,,,,,,56.220608,10.819683,3.483006,0.321080,0.400476,50.694523,8.337751,1.892248,0.237079,0.303140,6.678230,3.058436,1.377241,0.223102,0.427514,21.438015,4.988129,1.071433,0.432080,0.651471,0.925476,1.523061,0.704992,0.333428,0.665951,0.430669,0.431960,0.896571,0.314690,0.495412,0.616644,1.238509,1.011886,0.443322,0.846458,0.109033,0.234275,0.249329,0.044083,0.114541,1.409637,2.209003,1.688325,0.318248,0.506003,1.755249,2.416579,1.759381,0.347483,0.560387,10.460251,2.567735,1.458827,0.495980,0.438039,9.371021,4.644612,2.309484,0.333684,0.587846,12.283785,2.735065,1.634107,0.382812,0.321701,42.884159,7.236332,3.588869,0.263524,0.457754
1739356602.995172,1739356602.996108,121.000000,0.000000,4394.358887,4443.589844,4253.974121,7552.563965,4276.922852,4142.179688,4180.512695,4258.846191,4235.512695,4215.384766,4382.307617,4432.179688,4443.717773,4456.025879,6494.000000,0.000000,10.000000,,,,0.000000,4.000000,4.000000,4.000000,4.000000,4.000000,4.000000,4.000000,4.000000,4.000000,4.000000,4.000000,4.000000,4.000000,4.000000,100.000000,,,,,,,,,,,,,,,,,,,,,,,,,,,,,,,,,,,,,,,,,,,,,,,,,,,,,,,,,,,,,,,,,,,,,,,,,,,,,,,,,,,,,,,,,,,,,,,,,,,,,,,,,,,,,,,,,,,,,,,,,,,,,,,,,
1739356603.002980,1739356603.003916,122.000000,0.000000,4440.897461,4518.846191,4289.871582,7523.974121,4289.102539,4186.282227,4212.179688,4275.897461,4268.205078,4220.897461,4511.282227,4486.153809,4467.179688,4497.051270,4856.000000,0.000000,10.000000,,,,0.000000,4.000000,4.000000,4.000000,4.000000,4.000000,4.000000,4.000000,4.000000,4.000000,4.000000,4.000000,4.000000,4.000000,4.000000,100.000000,,,,,,,,,,,,,,,,,,,,,,,,,,,,,,,,,,,,,,,,,,,,,,,,,,,,,,,,,,,,,,,,,,,,,,,,,,,,,,,,,,,,,,,,,,,,,,,,,,,,,,,,,,,,,,,,,,,,,,,,,,,,,,,,,
1739356603.010788,1739356603.011624,123.000000,0.000000,4443.717773,4547.179688,4288.589844,7531.538574,4246.153809,4172.436035,4205.000000,4273.846191,4277.179688,4223.589844,4606.410156,4490.000000,4473.461426,4492.051270,5612.000000,0.000000,10.000000,,,,0.000000,4.000000,4.000000,4.000000,4.000000,4.000000,4.000000,4.000000,4.000000,4.000000,4.000000,4.000000,4.000000,4.000000,4.000000,100.000000,,,,,,,,,,,,,,,,,,,,,,,,,,,,,,,,,,,,,,,,,,,,,,,,,,,,,,,,,,,,,,,,,,,,,,,,,,,,,,,,,,,,,,,,,,,,,,,,,,,,,,,,,,,,,,,,,,,,,,,,,,,,,,,,,
1739356603.018596,1739356603.019532,124.000000,0.000000,4442.820313,4535.256348,4286.025879,7549.358887,4242.051270,4163.205078,4215.897461,4272.692383,4292.436035,4235.769043,4692.948730,4494.102539,4488.461426,4482.179688,5649.000000,0.000000,10.000000,,,,0.000000,4.000000,4.000000,4.000000,4.000000,4.000000,4.000000,4.000000,4.000000,4.000000,4.000000,4.000000,4.000000,4.000000,4.000000,100.000000,,,,,,,,,,,,,,,,,31.000000,0.000000,0.751119,-0.092407,-0.644043,0.111755,0.951776,-0.234892,0.098157,-34.774555,-38.066380,43.889378,,,,,,,,,,,,,,,,,,,,,,,,,,,,,,,,,,,,,,,,,,,,,,,,,,,,,,,,,,,,,,,,,,,,,,,,,,,,,,,,,,,,,,,,,,,,,,,,,,,,,
1739356603.026404,1739356603.027340,125.000000,0.000000,4458.077148,4559.358887,4294.102539,7518.717773,4287.692383,4208.205078,4219.871582,4273.461426,4317.179688,4241.922852,4800.641113,4514.615234,4495.512695,4489.487305,6494.000000,0.000000,10.000000,,,,0.000000,4.000000,4.000000,4.000000,4.000000,4.000000,4.000000,4.000000,4.000000,4.000000,4.000000,4.000000,4.000000,4.000000,4.000000,100.000000,,,,,,,,,,,,,,,,,,,,,,,,,,,,,,,,,,,,,,,,,,,,,,,,,,,,,,,,,,,,,,,,,,,,,,,,,,,,,,,,,,,,,,,,,,,,,,,,,,,,,,,,,,,,,,,,,,,,,,,,,,,,,,,,,
1739356603.034212,1739356603.035248,126.000000,0.000000,4466.282227,4572.436035,4284.230957,7509.102539,4276.794922,4166.666504,4202.051270,4266.538574,4315.384766,4228.077148,4885.641113,4511.282227,4484.743652,4477.820313,4856.000000,0.000000,10.000000,,,,0.000000,4.000000,4.000000,4.000000,4.000000,4.000000,4.000000,4.000000,4.000000,4.000000,4.000000,4.000000,4.000000,4.000000,4.000000,100.000000,,,,,,,,,,,,,,,,,,,,,,,,,,,,,,,,,,,,,,,,,,,,,,,,,,,,,,,,,,,,,,,,,,,,,,,,,,,,,,,,,,,,,,,,,,,,,,,,,,,,,,,,,,,,,,,,,,,,,,,,,,,,,,,,,
1739356603.042020,1739356603.043057,127.000000,0.000000,4470.384766,4587.563965,4277.948730,7539.743652,4240.512695,4111.153809,4217.692383,4268.974121,4308.717773,4222.948730,4960.641113,4510.256348,4483.077148,4471.538574,10.000000,0.000000,10.000000,,,,0.000000,4.000000,4.000000,4.000000,4.000000,4.000000,4.000000,4.000000,4.000000,4.000000,4.000000,4.000000,4.000000,4.000000,4.000000,100.000000,,,,,,,,,,,,,,,,,,,,,,,,,,,,,,,,,,,,,,,,,,,,,,,,,,,,,,,,,,,,,,,,,,,,,,,,,,,,,,,,,,,,,,,,,,,,,,,,,,,,,,,,,,,,,,,,,,,,,,,,,,,,,,,,,
1739356603.049828,1739356603.050965,0.000000,0.000000,4465.000000,4620.384766,4270.897461,7552.051270,4277.179688,4171.025879,4214.230957,4275.512695,4308.974121,4225.641113,5027.692383,4517.307617,4490.256348,4476.538574,5011.000000,0.000000,10.000000,,,,0.000000,4.000000,4.000000,4.000000,4.000000,4.000000,4.000000,4.000000,4.000000,4.000000,4.000000,4.000000,4.000000,4.000000,4.000000,100.000000,,,,,,,,,,,,,,,,,0.000000,0.000000,0.750061,-0.093079,-0.645264,0.111267,0.925894,-0.240264,0.103528,-34.830433,-38.076408,43.800442,,,,,,,,,,,,,,,,,,,,,,,,,,,,,,,,,,,,,,,,,,,,,,,,,,,,,,,,,,,,,,,,,,,,,,,,,,,,,,,,,,,,,,,,,,,,,,,,,,,,,
1739356603.057637,1739356603.058773,1.000000,0.000000,4455.512695,4630.897461,4256.153809,7544.743652,4300.000000,4211.025879,4179.230957,4274.871582,4303.974121,4218.974121,5074.358887,4514.358887,4492.051270,4470.769043,4051.000000,0.000000,10.000000,,,,0.000000,4.000000,4.000000,4.000000,4.000000,4.000000,4.000000,4.000000,4.000000,4.000000,4.000000,4.000000,4.000000,4.000000,4.000000,100.000000,,,,,,,,,,,,,,,,,,,,,,,,,,,,,,,,,,,,,,,,,,,,,,,,,,,,,,,,,,,,,,,,,,,,,,,,,,,,,,,,,,,,,,,,,,,,,,,,,,,,,,,,,,,,,,,,,,,,,,,,,,,,,,,,,
1739356603.065445,1739356603.066681,2.000000,0.000000,4458.974121,4628.461426,4263.333496,7548.333496,4266.153809,4159.358887,4193.461426,4280.897461,4310.384766,4221.922852,5115.769043,4523.974121,4496.538574,4471.666504,5589.000000,0.000000,10.000000,,,,0.000000,4.000000,4.000000,4.000000,4.000000,4.000000,4.000000,4.000000,4.000000,4.000000,4.000000,4.000000,4.000000,4.000000,4.000000,100.000000,,,,,,,,,,,,,,,,,,,,,,,,,,,,,,,,,,,,,,,,,,,,,,,,,,,,,,,,,,,,,,,,,,,,,,,,,,,,,,,,,,,,,,,,,,,,,,,,,,,,,,,,,,,,,,,,,,,,,,,,,,,,,,,,,
1739356603.073253,1739356603.074489,3.000000,0.000000,4461.538574,4649.102539,4274.743652,7544.615234,4273.846191,4139.487305,4218.846191,4287.948730,4321.153809,4233.589844,5141.025879,4538.717773,4505.000000,4481.410156,5392.000000,0.000000,10.000000,,,,0.000000,4.000000,4.000000,4.000000,4.000000,4.000000,4.000000,4.000000,4.000000,4.000000,4.000000,4.000000,4.000000,4.000000,4.000000,100.000000,,,,,,,,,,,,,,,,,,,,,,,,,,,,,,,,,,,,,,,,,,,,,,,,,,,,,,,,,,,,,,,,,,,,,,,,,,,,,,,,,,,,,,,,,,,,,,,,,,,,,,,,,,,,,,,,,,,,,,,,,,,,,,,,,
1739356603.081061,1739356603.082297,4.000000,0.000000,4459.230957,4675.512695,4264.743652,7537.307617,4300.256348,4175.512695,4193.717773,4281.538574,4313.589844,4232.051270,5133.333496,4537.563965,4504.615234,4477.948730,5512.000000,0.000000,10.000000,,,,0.000000,4.000000,4.000000,4.000000,4.000000,4.000000,4.000000,4.000000,4.000000,4.000000,4.000000,4.000000,4.000000,4.000000,4.000000,100.000000,,,,,,,,,,,,,,,,,1.000000,0.000000,0.749949,-0.091125,-0.645630,0.111511,0.952265,-0.247589,0.115248,-34.947388,-38.135433,43.587063,,,,,,,,,,,,,,,,,,,,,,,,,,,,,,,,,,,,,,,,,,,,,,,,,,,,,,,,,,,,,,,,,,,,,,,,,,,,,,,,,,,,,,,,,,,,,,,,,,,,,
1739356603.088869,1739356603.090105,5.000000,0.000000,4459.871582,4671.538574,4265.512695,7536.282227,4277.692383,4173.717773,4193.333496,4275.384766,4310.512695,4231.153809,5109.102539,4543.974121,4491.922852,4471.922852,5495.000000,0.000000,10.000000,,,,0.000000,4.000000,4.000000,4.000000,4.000000,4.000000,4.000000,4.000000,4.000000,4.000000,4.000000,4.000000,4.000000,4.000000,4.000000,100.000000,,,,,,,,,,,,,,,,,,,,,,,,,,,,,,,,,,,,,,,,,,,,,,,,,,,,,,,,,,,,,,,,,,,,,,,,,,,,,,,,,,,,,,,,,,,,,,,,,,,,,,,,,,,,,,,,,,,,,,,,,,,,,,,,,
1739356603.096677,1739356603.097813,6.000000,0.000000,4461.666504,4666.410156,4279.230957,7523.974121,4276.794922,4166.153809,4210.384766,4274.615234,4317.563965,4237.307617,5085.256348,4555.512695,4485.128418,4476.410156,5470.000000,0.000000,10.000000,,,,0.000000,4.000000,4.000000,4.000000,4.000000,4.000000,4.000000,4.000000,4.000000,4.000000,4.000000,4.000000,4.000000,4.000000,4.000000,100.000000,,,,,,,,,,,,,,,,,,,,,,,,,,,,,,,,,,,,,,,,,,,,,,,,,,,,,,,,,,,,,,,,,,,,,,,,,,,,,,,,,,,,,,,,,,,,,,,,,,,,,,,,,,,,,,,,,,,,,,,,,,,,,,,,,
1739356603.104485,1739356603.105621,7.000000,0.000000,4457.563965,4669.615234,4268.846191,7517.948730,4289.615234,4171.922852,4184.615234,4269.743652,4302.051270,4234.230957,5050.512695,4546.025879,4491.410156,4474.487305,2069.000000,0.000000,10.000000,,,,0.000000,4.000000,4.000000,4.000000,4.000000,4.000000,4.000000,4.000000,4.000000,4.000000,4.000000,4.000000,4.000000,4.000000,4.000000,100.000000,,,,,,,,,,,,,,,,,,,,,,,,,,,,,,,,,,,,,,,,,,,,,,,,,,,,,,,,,,,,,,,,,,,,,,,,,,,,,,,,,,,,,,,,,,,,,,,,,,,,,,,,,,,,,,,,,,,,,,,,,,,,,,,,,
1739356603.112293,1739356603.113329,8.000000,0.000000,4456.922852,4674.487305,4260.384766,7494.358887,4262.179688,4150.641113,4177.563965,4268.717773,4284.743652,4232.307617,5016.538574,4541.794922,4497.692383,4474.615234,5240.000000,0.000000,10.000000,,,,0.000000,4.000000,4.000000,4.000000,4.000000,4.000000,4.000000,4.000000,4.000000,4.000000,4.000000,4.000000,4.000000,4.000000,4.000000,100.000000,1.000000,8.333333,3.000000,1.000000,3.000000,0.000000,3.000000,3.000000,1.000000,3.000000,4.000000,4.000000,0.000000,3.000000,4.000000,3.000000,2.000000,0.000000,0.749615,-0.088440,-0.646179,0.112732,0.949823,-0.271029,0.114272,-35.169315,-38.005222,43.495022,,,,,,,,,,,,,,,,,,,,,,,,,,,,,,,,45.411484,9.566277,3.213199,0.277655,0.420607,40.690617,7.276406,1.719898,0.199400,0.329618,5.539017,2.995146,1.443676,0.219652,0.428635,41.856808,5.290840,1.192743,0.487392,0.697768,0.744191,1.577929,0.712859,0.338316,0.702980,0.482724,0.337222,1.010712,0.338701,0.515176,0.698113,1.036097,1.154295,0.473969,0.924186,0.135687,0.270916,0.254851,0.042578,0.119316,1.691665,2.808557,1.666128,0.300481,0.503108,2.249122,2.798981,1.761173,0.333928,0.550967,8.947206,2.421272,1.530412,0.417788,0.447063,8.592794,4.370753,2.370037,0.317211,0.616969,10.025820,2.590781,1.626741,0.325213,0.348372,34.882896,6.474323,3.458557,0.237686,0.465145
1739356603.120101,1739356603.121137,9.000000,0.000000,4452.820313,4672.307617,4261.410156,7425.769043,4261.922852,4139.358887,4176.794922,4266.794922,4281.025879,4228.846191,4977.948730,4541.282227,4484.487305,4474.358887,5539.000000,0.000000,10.000000,,,,0.000000,4.000000,4.000000,4.000000,4.000000,4.000000,4.000000,4.000000,4.000000,4.000000,4.000000,4.000000,4.000000,4.000000,4.000000,100.000000,,,,,,,,,,,,,,,,,,,,,,,,,,,,,,,,,,,,,,,,,,,,,,,,,,,,,,,,,,,,,,,,,,,,,,,,,,,,,,,,,,,,,,,,,,,,,,,,,,,,,,,,,,,,,,,,,,,,,,,,,,,,,,,,,
1739356603.127909,1739356603.128845,10.000000,0.000000,4437.436035,4657.820313,4246.666504,7396.538574,4288.589844,4152.436035,4146.666504,4259.358887,4271.794922,4220.641113,4933.846191,4527.179688,4468.461426,4459.871582,4821.000000,0.000000,10.000000,,,,0.000000,4.000000,4.000000,4.000000,4.000000,4.000000,4.000000,4.000000,4.000000,4.000000,4.000000,4.000000,4.000000,4.000000,4.000000,100.000000,,,,,,,,,,,,,,,,,,,,,,,,,,,,,,,,,,,,,,,,,,,,,,,,,,,,,,,,,,,,,,,,,,,,,,,,,,,,,,,,,,,,,,,,,,,,,,,,,,,,,,,,,,,,,,,,,,,,,,,,,,,,,,,,,
1739356603.135717,1739356603.136653,11.000000,0.000000,4446.922852,4653.846191,4254.487305,7422.948730,4278.333496,4156.025879,4166.153809,4266.922852,4281.410156,4236.153809,4919.102539,4541.410156,4478.846191,4467.563965,5597.000000,0.000000,10.000000,,,,0.000000,4.000000,4.000000,4.000000,4.000000,4.000000,4.000000,4.000000,4.000000,4.000000,4.000000,4.000000,4.000000,4.000000,4.000000,100.000000,,,,,,,,,,,,,,,,,,,,,,,,,,,,,,,,,,,,,,,,,,,,,,,,,,,,,,,,,,,,,,,,,,,,,,,,,,,,,,,,,,,,,,,,,,,,,,,,,,,,,,,,,,,,,,,,,,,,,,,,,,,,,,,,,
1739356603.143525,1739356603.144361,12.000000,0.000000,4472.948730,4658.077148,4282.820313,7415.512695,4263.205078,4158.461426,4213.205078,4274.487305,4301.282227,4257.051270,4910.256348,4573.077148,4493.589844,4488.333496,5572.000000,0.000000,10.000000,,,,0.000000,4.000000,4.000000,4.000000,4.000000,4.000000,4.000000,4.000000,4.000000,4.000000,4.000000,4.000000,4.000000,4.000000,4.000000,100.000000,,,,,,,,,,,,,,,,,3.000000,0.000000,0.748854,-0.085754,-0.646851,0.115967,0.958613,-0.272494,0.137712,-35.269051,-38.054699,43.328854,,,,,,,,,,,,,,,,,,,,,,,,,,,,,,,,,,,,,,,,,,,,,,,,,,,,,,,,,,,,,,,,,,,,,,,,,,,,,,,,,,,,,,,,,,,,,,,,,,,,,
1739356603.151333,1739356603.152169,13.000000,0.000000,4465.384766,4657.692383,4273.077148,7374.487305,4272.563965,4166.538574,4190.256348,4263.077148,4286.922852,4243.077148,4862.692383,4559.871582,4481.153809,4473.333496,6464.000000,0.000000,10.000000,,,,0.000000,4.000000,4.000000,4.000000,4.000000,4.000000,4.000000,4.000000,4.000000,4.000000,4.000000,4.000000,4.000000,4.000000,4.000000,100.000000,,,,,,,,,,,,,,,,,,,,,,,,,,,,,,,,,,,,,,,,,,,,,,,,,,,,,,,,,,,,,,,,,,,,,,,,,,,,,,,,,,,,,,,,,,,,,,,,,,,,,,,,,,,,,,,,,,,,,,,,,,,,,,,,,
1739356603.159142,1739356603.159877,14.000000,0.000000,4449.487305,4635.256348,4255.000000,7340.128418,4272.051270,4160.769043,4167.563965,4262.692383,4268.974121,4224.615234,4815.512695,4539.871582,4464.871582,4455.512695,4821.000000,0.000000,10.000000,,,,0.000000,4.000000,4.000000,4.000000,4.000000,4.000000,4.000000,4.000000,4.000000,4.000000,4.000000,4.000000,4.000000,4.000000,4.000000,100.000000,,,,,,,,,,,,,,,,,,,,,,,,,,,,,,,,,,,,,,,,,,,,,,,,,,,,,,,,,,,,,,,,,,,,,,,,,,,,,,,,,,,,,,,,,,,,,,,,,,,,,,,,,,,,,,,,,,,,,,,,,,,,,,,,,
1739356603.166950,1739356603.167785,15.000000,0.000000,4455.128418,4613.589844,4257.051270,7281.922852,4265.256348,4153.846191,4188.974121,4271.410156,4270.384766,4223.205078,4787.307617,4544.743652,4455.769043,4457.307617,5597.000000,0.000000,10.000000,,,,0.000000,4.000000,4.000000,4.000000,4.000000,4.000000,4.000000,4.000000,4.000000,4.000000,4.000000,4.000000,4.000000,4.000000,4.000000,100.000000,,,,,,,,,,,,,,,,,,,,,,,,,,,,,,,,,,,,,,,,,,,,,,,,,,,,,,,,,,,,,,,,,,,,,,,,,,,,,,,,,,,,,,,,,,,,,,,,,,,,,,,,,,,,,,,,,,,,,,,,,,,,,,,,,
1739356603.174758,1739356603.175593,16.000000,0.000000,4457.563965,4614.487305,4254.102539,7213.205078,4265.000000,4157.307617,4183.461426,4265.000000,4257.179688,4212.692383,4751.025879,4537.820313,4445.641113,4453.333496,0.000000,0.000000,10.000000,,,,0.000000,4.000000,4.000000,4.000000,4.000000,4.000000,4.000000,4.000000,4.000000,4.000000,4.000000,4.000000,4.000000,4.000000,4.000000,100.000000,,,,,,,,,,,,,,,,,4.000000,0.000000,0.748572,-0.082947,-0.646729,0.120422,0.918081,-0.270541,0.181663,-35.525478,-37.949230,43.329304,,,,,,,,,,,,,,,,,,,,,,,,,,,,,,,,,,,,,,,,,,,,,,,,,,,,,,,,,,,,,,,,,,,,,,,,,,,,,,,,,,,,,,,,,,,,,,,,,,,,,
1739356603.182566,1739356603.183501,17.000000,0.000000,4453.333496,4609.487305,4250.256348,7175.897461,4251.794922,4152.563965,4162.179688,4260.000000,4240.384766,4202.692383,4713.077148,4528.205078,4440.897461,4449.615234,0.000000,0.000000,10.000000,,,,0.000000,4.000000,4.000000,4.000000,4.000000,4.000000,4.000000,4.000000,4.000000,4.000000,4.000000,4.000000,4.000000,4.000000,4.000000,100.000000,,,,,,,,,,,,,,,,,,,,,,,,,,,,,,,,,,,,,,,,,,,,,,,,,,,,,,,,,,,,,,,,,,,,,,,,,,,,,,,,,,,,,,,,,,,,,,,,,,,,,,,,,,,,,,,,,,,,,,,,,,,,,,,,,
1739356603.190374,1739356603.191310,18.000000,0.000000,4466.794922,4600.897461,4264.102539,7143.974121,4252.307617,4152.820313,4168.205078,4267.692383,4252.820313,4213.974121,4691.410156,4541.794922,4451.025879,4466.025879,0.000000,0.000000,10.000000,,,,0.000000,4.000000,4.000000,4.000000,4.000000,4.000000,4.000000,4.000000,4.000000,4.000000,4.000000,4.000000,4.000000,4.000000,4.000000,100.000000,,,,,,,,,,,,,,,,,,,,,,,,,,,,,,,,,,,,,,,,,,,,,,,,,,,,,,,,,,,,,,,,,,,,,,,,,,,,,,,,,,,,,,,,,,,,,,,,,,,,,,,,,,,,,,,,,,,,,,,,,,,,,,,,,
1739356603.198182,1739356603.199218,19.000000,0.000000,4480.384766,4595.769043,4274.230957,7073.717773,4271.153809,4166.666504,4180.128418,4271.410156,4264.102539,4230.256348,4670.897461,4555.512695,4456.410156,4482.051270,0.000000,0.000000,10.000000,,,,0.000000,4.000000,4.000000,4.000000,4.000000,4.000000,4.000000,4.000000,4.000000,4.000000,4.000000,4.000000,4.000000,4.000000,4.000000,100.000000,,,,,,,,,,,,,,,,,,,,,,,,,,,,,,,,,,,,,,,,,,,,,,,,,,,,,,,,,,,,,,,,,,,,,,,,,,,,,,,,,,,,,,,,,,,,,,,,,,,,,,,,,,,,,,,,,,,,,,,,,,,,,,,,,
1739356603.205990,1739356603.207026,20.000000,0.000000,4469.871582,4573.974121,4265.769043,6956.794922,4265.512695,4168.333496,4174.871582,4268.461426,4250.128418,4230.256348,4635.641113,4549.230957,4443.077148,4479.230957,0.000000,0.000000,10.000000,,,,0.000000,4.000000,4.000000,4.000000,4.000000,4.000000,4.000000,4.000000,4.000000,4.000000,4.000000,4.000000,4.000000,4.000000,4.000000,100.000000,,,,,,,,,,,,,,,,,5.000000,0.000000,0.748581,-0.080750,-0.646606,0.122498,0.954218,-0.294470,0.226102,-35.489597,-37.987640,43.363037,,,,,,,,,,,,,,,,,,,,,,,,,,,,,,,,,,,,,,,,,,,,,,,,,,,,,,,,,,,,,,,,,,,,,,,,,,,,,,,,,,,,,,,,,,,,,,,,,,,,,
1739356603.213798,1739356603.214934,21.000000,0.000000,4470.256348,4551.282227,4273.461426,6855.897461,4260.897461,4172.179688,4186.538574,4274.230957,4251.922852,4233.846191,4612.179688,4555.256348,4441.666504,4484.358887,0.000000,0.000000,10.000000,,,,0.000000,4.000000,4.000000,4.000000,4.000000,4.000000,4.000000,4.000000,4.000000,4.000000,4.000000,4.000000,4.000000,4.000000,4.000000,100.000000,,,,,,,,,,,,,,,,,,,,,,,,,,,,,,,,,,,,,,,,,,,,,,,,,,,,,,,,,,,,,,,,,,,,,,,,,,,,,,,,,,,,,,,,,,,,,,,,,,,,,,,,,,,,,,,,,,,,,,,,,,,,,,,,,
1739356603.221606,1739356603.222742,22.000000,0.000000,4498.717773,4545.641113,4304.743652,6795.128418,4288.461426,4197.307617,4220.897461,4284.487305,4279.230957,4257.820313,4610.769043,4583.333496,4458.974121,4509.230957,0.000000,0.000000,10.000000,,,,0.000000,4.000000,4.000000,4.000000,4.000000,4.000000,4.000000,4.000000,4.000000,4.000000,4.000000,4.000000,4.000000,4.000000,4.000000,100.000000,,,,,,,,,,,,,,,,,,,,,,,,,,,,,,,,,,,,,,,,,,,,,,,,,,,,,,,,,,,,,,,,,,,,,,,,,,,,,,,,,,,,,,,,,,,,,,,,,,,,,,,,,,,,,,,,,,,,,,,,,,,,,,,,,
1739356603.229414,1739356603.230650,23.000000,0.000000,4511.922852,4526.922852,4318.077148,6677.051270,4298.717773,4212.307617,4234.102539,4285.384766,4284.487305,4267.948730,4592.948730,4590.641113,4459.615234,4519.743652,0.000000,0.000000,10.000000,,,,0.000000,4.000000,4.000000,4.000000,4.000000,4.000000,4.000000,4.000000,4.000000,4.000000,4.000000,4.000000,4.000000,4.000000,4.000000,100.000000,,,,,,,,,,,,,,,,,,,,,,,,,,,,,,,,,,,,,,,,,,,,,,,,,,,,,,,,,,,,,,,,,,,,,,,,,,,,,,,,,,,,,,,,,,,,,,,,,,,,,,,,,,,,,,,,,,,,,,,,,,,,,,,,,
1739356603.237222,1739356603.238458,24.000000,0.000000,4497.820313,4485.384766,4306.538574,6481.666504,4282.307617,4205.641113,4220.512695,4282.051270,4265.256348,4252.692383,4556.282227,4572.820313,4442.307617,4509.743652,0.000000,0.000000,10.000000,,,,0.000000,4.000000,4.000000,4.000000,4.000000,4.000000,4.000000,4.000000,4.000000,4.000000,4.000000,4.000000,4.000000,4.000000,4.000000,100.000000,,,,,,,,,,,,,,,,,6.000000,0.000000,0.749139,-0.075928,-0.645935,0.125671,0.944451,-0.293493,0.218777,-35.557304,-37.955544,43.410069,,,,,,,,,,,,,,,,,,,,,,,,,,,,,,,,30.789297,7.672703,2.719522,0.309658,0.474772,27.705597,5.671880,1.421012,0.219220,0.381966,4.129128,2.807401,1.541729,0.296816,0.454945,118.623695,6.212931,1.838575,0.926100,0.805435,0.591680,1.514454,0.794322,0.393591,0.733814,0.501096,0.281185,1.137021,0.347781,0.531192,0.822331,1.010851,1.600002,0.620995,1.058496,0.179826,0.344691,0.248680,0.047238,0.121737,2.027253,3.451227,1.656446,0.305113,0.514216,2.739273,3.249080,1.711071,0.363517,0.550743,11.874034,2.867617,1.693164,0.401992,0.507375,7.333607,4.011021,2.365699,0.388477,0.678591,7.123158,2.407079,1.486804,0.305540,0.391870,24.319574,5.389288,3.051297,0.275843,0.486446
1739356603.245031,1739356603.246366,25.000000,0.000000,4492.563965,4439.615234,4299.871582,6291.410156,4276.153809,4202.179688,4217.051270,4278.974121,4258.846191,4245.769043,4535.000000,4562.179688,4432.820313,4504.230957,0.000000,0.000000,10.000000,,,,0.000000,4.000000,4.000000,4.000000,4.000000,4.000000,4.000000,4.000000,4.000000,4.000000,4.000000,4.000000,4.000000,4.000000,4.000000,100.000000,,,,,,,,,,,,,,,,,,,,,,,,,,,,,,,,,,,,,,,,,,,,,,,,,,,,,,,,,,,,,,,,,,,,,,,,,,,,,,,,,,,,,,,,,,,,,,,,,,,,,,,,,,,,,,,,,,,,,,,,,,,,,,,,,
1739356603.252838,1739356603.254174,26.000000,0.000000,4499.871582,4392.948730,4301.666504,6099.230957,4275.641113,4201.794922,4224.358887,4275.769043,4261.282227,4251.282227,4532.948730,4560.897461,4433.717773,4504.871582,0.000000,0.000000,10.000000,,,,0.000000,4.000000,4.000000,4.000000,4.000000,4.000000,4.000000,4.000000,4.000000,4.000000,4.000000,4.000000,4.000000,4.000000,4.000000,100.000000,,,,,,,,,,,,,,,,,,,,,,,,,,,,,,,,,,,,,,,,,,,,,,,,,,,,,,,,,,,,,,,,,,,,,,,,,,,,,,,,,,,,,,,,,,,,,,,,,,,,,,,,,,,,,,,,,,,,,,,,,,,,,,,,,
1739356603.260647,1739356603.261882,27.000000,0.000000,4505.897461,4364.743652,4306.282227,5841.666504,4266.153809,4198.717773,4219.358887,4278.461426,4261.538574,4257.436035,4533.717773,4564.102539,4435.641113,4512.820313,0.000000,0.000000,10.000000,,,,0.000000,4.000000,4.000000,4.000000,4.000000,4.000000,4.000000,4.000000,4.000000,4.000000,4.000000,4.000000,4.000000,4.000000,4.000000,100.000000,,,,,,,,,,,,,,,,,,,,,,,,,,,,,,,,,,,,,,,,,,,,,,,,,,,,,,,,,,,,,,,,,,,,,,,,,,,,,,,,,,,,,,,,,,,,,,,,,,,,,,,,,,,,,,,,,,,,,,,,,,,,,,,,,
1739356603.268455,1739356603.269690,28.000000,0.000000,4511.794922,4353.717773,4313.077148,5544.358887,4259.743652,4200.256348,4214.358887,4284.743652,4265.128418,4266.666504,4530.256348,4571.153809,4436.666504,4527.563965,0.000000,0.000000,10.000000,,,,0.000000,4.000000,4.000000,4.000000,4.000000,4.000000,4.000000,4.000000,4.000000,4.000000,4.000000,4.000000,4.000000,4.000000,4.000000,100.000000,,,,,,,,,,,,,,,,,7.000000,0.000000,0.749008,-0.071350,-0.646057,0.128479,0.992797,-0.303260,0.226102,-35.651573,-37.743320,43.602394,,,,,,,,,,,,,,,,,,,,,,,,,,,,,,,,,,,,,,,,,,,,,,,,,,,,,,,,,,,,,,,,,,,,,,,,,,,,,,,,,,,,,,,,,,,,,,,,,,,,,
1739356603.276263,1739356603.277398,29.000000,0.000000,4509.743652,4328.205078,4315.641113,5288.717773,4263.589844,4206.410156,4216.538574,4285.384766,4267.692383,4272.948730,4524.487305,4567.307617,4433.589844,4527.692383,0.000000,0.000000,10.000000,,,,0.000000,4.000000,4.000000,4.000000,4.000000,4.000000,4.000000,4.000000,4.000000,4.000000,4.000000,4.000000,4.000000,4.000000,4.000000,100.000000,,,,,,,,,,,,,,,,,,,,,,,,,,,,,,,,,,,,,,,,,,,,,,,,,,,,,,,,,,,,,,,,,,,,,,,,,,,,,,,,,,,,,,,,,,,,,,,,,,,,,,,,,,,,,,,,,,,,,,,,,,,,,,,,,
1739356603.284071,1739356603.285206,30.000000,0.000000,4497.307617,4293.717773,4316.922852,5092.179688,4267.051270,4212.692383,4220.128418,4282.563965,4264.230957,4269.358887,4521.666504,4551.538574,4426.153809,4518.589844,0.000000,0.000000,10.000000,,,,0.000000,4.000000,4.000000,4.000000,4.000000,4.000000,4.000000,4.000000,4.000000,4.000000,4.000000,4.000000,4.000000,4.000000,4.000000,100.000000,,,,,,,,,,,,,,,,,,,,,,,,,,,,,,,,,,,,,,,,,,,,,,,,,,,,,,,,,,,,,,,,,,,,,,,,,,,,,,,,,,,,,,,,,,,,,,,,,,,,,,,,,,,,,,,,,,,,,,,,,,,,,,,,,
1739356603.291879,1739356603.292914,31.000000,0.000000,4477.051270,4263.077148,4309.615234,4897.179688,4255.512695,4209.487305,4218.974121,4279.871582,4253.333496,4255.128418,4513.717773,4531.794922,4407.436035,4509.358887,0.000000,0.000000,10.000000,,,,0.000000,4.000000,4.000000,4.000000,4.000000,4.000000,4.000000,4.000000,4.000000,4.000000,4.000000,4.000000,4.000000,4.000000,4.000000,100.000000,,,,,,,,,,,,,,,,,,,,,,,,,,,,,,,,,,,,,,,,,,,,,,,,,,,,,,,,,,,,,,,,,,,,,,,,,,,,,,,,,,,,,,,,,,,,,,,,,,,,,,,,,,,,,,,,,,,,,,,,,,,,,,,,,
1739356603.299687,1739356603.300823,32.000000,0.000000,4453.461426,4219.487305,4292.051270,4703.717773,4239.743652,4197.692383,4208.589844,4275.769043,4235.384766,4235.512695,4501.153809,4508.461426,4385.897461,4490.897461,0.000000,0.000000,10.000000,,,,0.000000,4.000000,4.000000,4.000000,4.000000,4.000000,4.000000,4.000000,4.000000,4.000000,4.000000,4.000000,4.000000,4.000000,4.000000,100.000000,,,,,,,,,,,,,,,,,8.000000,0.000000,0.749128,-0.064819,-0.646484,0.129089,0.915151,-0.257844,0.255891,-35.819752,-37.502323,43.525490,,,,,,,,,,,,,,,,,,,,,,,,,,,,,,,,,,,,,,,,,,,,,,,,,,,,,,,,,,,,,,,,,,,,,,,,,,,,,,,,,,,,,,,,,,,,,,,,,,,,,
1739356603.307495,1739356603.308631,33.000000,0.000000,4440.769043,4177.948730,4288.205078,4558.589844,4234.487305,4194.230957,4202.948730,4273.589844,4222.307617,4229.358887,4504.230957,4496.922852,4377.179688,4481.538574,0.000000,0.000000,10.000000,,,,0.000000,4.000000,4.000000,4.000000,4.000000,4.000000,4.000000,4.000000,4.000000,4.000000,4.000000,4.000000,4.000000,4.000000,4.000000,100.000000,,,,,,,,,,,,,,,,,,,,,,,,,,,,,,,,,,,,,,,,,,,,,,,,,,,,,,,,,,,,,,,,,,,,,,,,,,,,,,,,,,,,,,,,,,,,,,,,,,,,,,,,,,,,,,,,,,,,,,,,,,,,,,,,,
1739356603.315303,1739356603.316539,34.000000,0.000000,4432.948730,4155.897461,4291.538574,4402.692383,4224.615234,4192.563965,4204.358887,4272.179688,4219.230957,4230.769043,4513.205078,4491.666504,4375.512695,4484.487305,0.000000,0.000000,10.000000,,,,0.000000,4.000000,4.000000,4.000000,4.000000,4.000000,4.000000,4.000000,4.000000,4.000000,4.000000,4.000000,4.000000,4.000000,4.000000,100.000000,,,,,,,,,,,,,,,,,,,,,,,,,,,,,,,,,,,,,,,,,,,,,,,,,,,,,,,,,,,,,,,,,,,,,,,,,,,,,,,,,,,,,,,,,,,,,,,,,,,,,,,,,,,,,,,,,,,,,,,,,,,,,,,,,
1739356603.323111,1739356603.324347,35.000000,0.000000,4420.769043,4133.846191,4286.282227,4176.410156,4212.563965,4184.102539,4203.461426,4270.000000,4217.051270,4222.051270,4511.282227,4482.051270,4371.922852,4482.820313,0.000000,0.000000,10.000000,,,,0.000000,4.000000,4.000000,4.000000,4.000000,4.000000,4.000000,4.000000,4.000000,4.000000,4.000000,4.000000,4.000000,4.000000,4.000000,100.000000,,,,,,,,,,,,,,,,,,,,,,,,,,,,,,,,,,,,,,,,,,,,,,,,,,,,,,,,,,,,,,,,,,,,,,,,,,,,,,,,,,,,,,,,,,,,,,,,,,,,,,,,,,,,,,,,,,,,,,,,,,,,,,,,,
1739356603.330919,1739356603.332155,36.000000,0.000000,4410.384766,4107.179688,4281.282227,3928.076904,4216.282227,4182.820313,4201.025879,4271.538574,4211.794922,4218.205078,4512.179688,4476.794922,4365.641113,4480.384766,0.000000,0.000000,10.000000,,,,0.000000,4.000000,4.000000,4.000000,4.000000,4.000000,4.000000,4.000000,4.000000,4.000000,4.000000,4.000000,4.000000,4.000000,4.000000,100.000000,,,,,,,,,,,,,,,,,9.000000,0.000000,0.749219,-0.057495,-0.647278,0.128052,0.968380,-0.221707,0.235380,-35.771111,-37.268757,43.522938,,,,,,,,,,,,,,,,,,,,,,,,,,,,,,,,,,,,,,,,,,,,,,,,,,,,,,,,,,,,,,,,,,,,,,,,,,,,,,,,,,,,,,,,,,,,,,,,,,,,,
1739356603.338727,1739356603.339863,37.000000,0.000000,4398.333496,4083.076904,4275.128418,3718.974365,4208.333496,4178.461426,4192.563965,4270.769043,4201.282227,4218.974121,4510.000000,4464.615234,4357.051270,4471.922852,0.000000,0.000000,10.000000,,,,0.000000,4.000000,4.000000,4.000000,4.000000,4.000000,4.000000,4.000000,4.000000,4.000000,4.000000,4.000000,4.000000,4.000000,4.000000,100.000000,,,,,,,,,,,,,,,,,,,,,,,,,,,,,,,,,,,,,,,,,,,,,,,,,,,,,,,,,,,,,,,,,,,,,,,,,,,,,,,,,,,,,,,,,,,,,,,,,,,,,,,,,,,,,,,,,,,,,,,,,,,,,,,,,
1739356603.346536,1739356603.347671,38.000000,0.000000,4376.922852,4051.538574,4255.897461,3548.974365,4179.487305,4154.102539,4169.743652,4261.538574,4182.948730,4202.436035,4487.820313,4436.410156,4342.948730,4448.077148,0.000000,0.000000,10.000000,,,,0.000000,4.000000,4.000000,4.000000,4.000000,4.000000,4.000000,4.000000,4.000000,4.000000,4.000000,4.000000,4.000000,4.000000,4.000000,100.000000,,,,,,,,,,,,,,,,,,,,,,,,,,,,,,,,,,,,,,,,,,,,,,,,,,,,,,,,,,,,,,,,,,,,,,,,,,,,,,,,,,,,,,,,,,,,,,,,,,,,,,,,,,,,,,,,,,,,,,,,,,,,,,,,,
1739356603.354344,1739356603.355379,39.000000,0.000000,4353.717773,4015.512939,4236.153809,3386.923096,4159.871582,4131.538574,4146.153809,4252.820313,4164.358887,4181.282227,4464.487305,4416.794922,4326.666504,4428.589844,0.000000,0.000000,10.000000,,,,0.000000,4.000000,4.000000,4.000000,4.000000,4.000000,4.000000,4.000000,4.000000,4.000000,4.000000,4.000000,4.000000,4.000000,4.000000,100.000000,,,,,,,,,,,,,,,,,,,,,,,,,,,,,,,,,,,,,,,,,,,,,,,,,,,,,,,,,,,,,,,,,,,,,,,,,,,,,,,,,,,,,,,,,,,,,,,,,,,,,,,,,,,,,,,,,,,,,,,,,,,,,,,,,
1739356603.362152,1739356603.363187,40.000000,0.000000,4336.666504,3989.487061,4227.948730,3239.230713,4149.615234,4123.077148,4133.846191,4247.051270,4152.179688,4171.922852,4453.589844,4408.461426,4317.692383,4421.922852,0.000000,0.000000,10.000000,,,,0.000000,4.000000,4.000000,4.000000,4.000000,4.000000,4.000000,4.000000,4.000000,4.000000,4.000000,4.000000,4.000000,4.000000,4.000000,100.000000,,,,,,,,,,,,,,,,,10.000000,0.000000,0.747730,-0.049805,-0.649536,0.128540,0.960566,-0.190941,0.223660,-35.993999,-36.841881,43.603977,,,,,,,,,,,,,,,,,,,,,,,,,,,,,,,,18.101612,5.635871,2.254783,0.454151,0.585886,17.869967,3.968240,1.145944,0.300856,0.474416,3.032741,2.543953,1.784236,0.495034,0.538598,334.004120,8.112433,3.627027,1.977087,1.042266,0.520108,1.351492,1.001615,0.533298,0.819144,0.524232,0.267533,1.268246,0.365993,0.602781,1.059912,1.232995,2.463157,0.969710,1.292095,0.251404,0.422646,0.236162,0.062088,0.125578,2.571054,3.886554,1.695511,0.357074,0.563876,3.148714,3.518098,1.626147,0.464061,0.586431,34.593323,5.394105,2.119783,0.539564,0.654902,6.266279,3.614166,2.464571,0.607936,0.808692,4.832345,2.141190,1.325595,0.340906,0.463262,14.800143,4.195434,2.583067,0.398976,0.552270
1739356603.369960,1739356603.370895,41.000000,0.000000,4319.743652,3976.666748,4221.538574,3136.794922,4141.025879,4114.871582,4124.871582,4240.128418,4141.282227,4162.436035,4444.230957,4390.641113,4313.205078,4410.512695,0.000000,0.000000,10.000000,,,,0.000000,4.000000,4.000000,4.000000,4.000000,4.000000,4.000000,4.000000,4.000000,4.000000,4.000000,4.000000,4.000000,4.000000,4.000000,100.000000,,,,,,,,,,,,,,,,,,,,,,,,,,,,,,,,,,,,,,,,,,,,,,,,,,,,,,,,,,,,,,,,,,,,,,,,,,,,,,,,,,,,,,,,,,,,,,,,,,,,,,,,,,,,,,,,,,,,,,,,,,,,,,,,,
1739356603.377768,1739356603.378703,42.000000,0.000000,4306.282227,3971.538574,4212.563965,3063.974365,4135.641113,4106.025879,4120.128418,4239.487305,4132.820313,4152.692383,4437.307617,4377.820313,4309.615234,4399.743652,0.000000,0.000000,10.000000,,,,0.000000,4.000000,4.000000,4.000000,4.000000,4.000000,4.000000,4.000000,4.000000,4.000000,4.000000,4.000000,4.000000,4.000000,4.000000,100.000000,,,,,,,,,,,,,,,,,,,,,,,,,,,,,,,,,,,,,,,,,,,,,,,,,,,,,,,,,,,,,,,,,,,,,,,,,,,,,,,,,,,,,,,,,,,,,,,,,,,,,,,,,,,,,,,,,,,,,,,,,,,,,,,,,
1739356603.385576,1739356603.386411,43.000000,0.000000,4294.230957,3962.692383,4208.461426,2975.641113,4125.641113,4105.384766,4121.410156,4241.922852,4128.846191,4148.461426,4438.205078,4374.358887,4306.794922,4397.051270,0.000000,0.000000,10.000000,,,,0.000000,4.000000,4.000000,4.000000,4.000000,4.000000,4.000000,4.000000,4.000000,4.000000,4.000000,4.000000,4.000000,4.000000,4.000000,100.000000,,,,,,,,,,,,,,,,,,,,,,,,,,,,,,,,,,,,,,,,,,,,,,,,,,,,,,,,,,,,,,,,,,,,,,,,,,,,,,,,,,,,,,,,,,,,,,,,,,,,,,,,,,,,,,,,,,,,,,,,,,,,,,,,,
1739356603.393384,1739356603.394219,44.000000,0.000000,4271.282227,3943.589844,4202.948730,2875.384521,4114.358887,4107.436035,4117.692383,4238.205078,4119.230957,4138.717773,4431.025879,4361.025879,4296.025879,4385.769043,0.000000,0.000000,10.000000,,,,0.000000,4.000000,4.000000,4.000000,4.000000,4.000000,4.000000,4.000000,4.000000,4.000000,4.000000,4.000000,4.000000,4.000000,4.000000,100.000000,,,,,,,,,,,,,,,,,11.000000,0.000000,0.745714,-0.040894,-0.652649,0.127625,0.970822,-0.143572,0.196313,-35.927933,-36.624359,43.710247,,,,,,,,,,,,,,,,,,,,,,,,,,,,,,,,,,,,,,,,,,,,,,,,,,,,,,,,,,,,,,,,,,,,,,,,,,,,,,,,,,,,,,,,,,,,,,,,,,,,,
1739356603.401192,1739356603.401928,45.000000,0.000000,4248.461426,3926.025635,4191.922852,2793.846191,4110.384766,4102.051270,4111.410156,4236.666504,4107.692383,4125.384766,4415.000000,4346.922852,4278.846191,4369.358887,0.000000,0.000000,10.000000,,,,0.000000,4.000000,4.000000,4.000000,4.000000,4.000000,4.000000,4.000000,4.000000,4.000000,4.000000,4.000000,4.000000,4.000000,4.000000,100.000000,,,,,,,,,,,,,,,,,,,,,,,,,,,,,,,,,,,,,,,,,,,,,,,,,,,,,,,,,,,,,,,,,,,,,,,,,,,,,,,,,,,,,,,,,,,,,,,,,,,,,,,,,,,,,,,,,,,,,,,,,,,,,,,,,
1739356603.409000,1739356603.409836,46.000000,0.000000,4231.922852,3912.307617,4178.333496,2735.256348,4099.358887,4087.051270,4102.179688,4237.563965,4096.666504,4110.641113,4400.000000,4334.871582,4263.461426,4353.077148,0.000000,0.000000,10.000000,,,,0.000000,4.000000,4.000000,4.000000,4.000000,4.000000,4.000000,4.000000,4.000000,4.000000,4.000000,4.000000,4.000000,4.000000,4.000000,100.000000,,,,,,,,,,,,,,,,,,,,,,,,,,,,,,,,,,,,,,,,,,,,,,,,,,,,,,,,,,,,,,,,,,,,,,,,,,,,,,,,,,,,,,,,,,,,,,,,,,,,,,,,,,,,,,,,,,,,,,,,,,,,,,,,,
1739356603.416808,1739356603.417644,47.000000,0.000000,4207.820313,3888.461426,4158.717773,2687.820557,4073.718018,4069.102539,4083.333252,4232.948730,4074.615479,4088.974365,4382.563965,4312.692383,4247.692383,4331.025879,0.000000,0.000000,10.000000,,,,0.000000,4.000000,4.000000,4.000000,4.000000,4.000000,4.000000,4.000000,4.000000,4.000000,4.000000,4.000000,4.000000,4.000000,4.000000,100.000000,,,,,,,,,,,,,,,,,,,,,,,,,,,,,,,,,,,,,,,,,,,,,,,,,,,,,,,,,,,,,,,,,,,,,,,,,,,,,,,,,,,,,,,,,,,,,,,,,,,,,,,,,,,,,,,,,,,,,,,,,,,,,,,,,
1739356603.424616,1739356603.425552,48.000000,0.000000,4182.692383,3865.384521,4137.948730,2647.948730,4058.846191,4054.487061,4059.615479,4230.384766,4054.743652,4071.794922,4367.179688,4293.717773,4236.153809,4313.846191,0.000000,0.000000,10.000000,,,,0.000000,4.000000,4.000000,4.000000,4.000000,4.000000,4.000000,4.000000,4.000000,4.000000,4.000000,4.000000,4.000000,4.000000,4.000000,100.000000,,,,,,,,,,,,,,,,,12.000000,0.000000,0.744409,-0.036987,-0.654358,0.127686,0.988402,-0.149432,0.150897,-35.985138,-36.411926,43.839222,,,,,,,,,,,,,,,,,,,,,,,,,,,,,,,,,,,,,,,,,,,,,,,,,,,,,,,,,,,,,,,,,,,,,,,,,,,,,,,,,,,,,,,,,,,,,,,,,,,,,
1739356603.432424,1739356603.433360,49.000000,0.000000,4170.256348,3855.512939,4129.487305,2611.538574,4049.487061,4034.871826,4039.358887,4229.487305,4045.384521,4065.128174,4358.589844,4288.589844,4230.384766,4306.538574,0.000000,0.000000,10.000000,,,,0.000000,4.000000,4.000000,4.000000,4.000000,4.000000,4.000000,4.000000,4.000000,4.000000,4.000000,4.000000,4.000000,4.000000,4.000000,100.000000,,,,,,,,,,,,,,,,,,,,,,,,,,,,,,,,,,,,,,,,,,,,,,,,,,,,,,,,,,,,,,,,,,,,,,,,,,,,,,,,,,,,,,,,,,,,,,,,,,,,,,,,,,,,,,,,,,,,,,,,,,,,,,,,,
1739356603.440232,1739356603.441268,50.000000,0.000000,4159.871582,3845.512939,4129.230957,2564.871826,4028.076904,4018.076904,4027.820557,4224.615234,4040.384521,4059.230713,4353.846191,4286.922852,4225.897461,4297.948730,0.000000,0.000000,10.000000,,,,0.000000,4.000000,4.000000,4.000000,4.000000,4.000000,4.000000,4.000000,4.000000,4.000000,4.000000,4.000000,4.000000,4.000000,4.000000,100.000000,,,,,,,,,,,,,,,,,,,,,,,,,,,,,,,,,,,,,,,,,,,,,,,,,,,,,,,,,,,,,,,,,,,,,,,,,,,,,,,,,,,,,,,,,,,,,,,,,,,,,,,,,,,,,,,,,,,,,,,,,,,,,,,,,
1739356603.448041,1739356603.449076,51.000000,0.000000,4145.256348,3837.435791,4126.922852,2524.871826,4016.281982,4019.358887,4022.948730,4221.025879,4040.384521,4055.128174,4343.461426,4281.794922,4222.051270,4289.615234,0.000000,0.000000,10.000000,,,,0.000000,4.000000,4.000000,4.000000,4.000000,4.000000,4.000000,4.000000,4.000000,4.000000,4.000000,4.000000,4.000000,4.000000,4.000000,100.000000,,,,,,,,,,,,,,,,,,,,,,,,,,,,,,,,,,,,,,,,,,,,,,,,,,,,,,,,,,,,,,,,,,,,,,,,,,,,,,,,,,,,,,,,,,,,,,,,,,,,,,,,,,,,,,,,,,,,,,,,,,,,,,,,,
1739356603.455849,1739356603.456984,52.000000,0.000000,4135.512695,3842.948730,4120.000000,2517.692383,4026.666748,4025.641113,4019.743652,4221.794922,4035.128174,4055.128174,4326.538574,4275.128418,4216.922852,4288.205078,0.000000,0.000000,10.000000,,,,0.000000,4.000000,4.000000,4.000000,4.000000,4.000000,4.000000,4.000000,4.000000,4.000000,4.000000,4.000000,4.000000,4.000000,4.000000,100.000000,,,,,,,,,,,,,,,,,13.000000,0.000000,0.741826,-0.029175,-0.657654,0.127808,0.928824,-0.128434,0.119155,-36.253292,-36.054066,43.871967,,,,,,,,,,,,,,,,,,,,,,,,,,,,,,,,,,,,,,,,,,,,,,,,,,,,,,,,,,,,,,,,,,,,,,,,,,,,,,,,,,,,,,,,,,,,,,,,,,,,,
1739356603.463657,1739356603.464792,53.000000,0.000000,4133.974121,3846.923096,4122.179688,2536.923096,4037.948730,4031.923096,4028.589844,4222.948730,4030.512939,4061.538574,4320.641113,4282.179688,4215.769043,4292.563965,0.000000,0.000000,10.000000,,,,0.000000,4.000000,4.000000,4.000000,4.000000,4.000000,4.000000,4.000000,4.000000,4.000000,4.000000,4.000000,4.000000,4.000000,4.000000,100.000000,,,,,,,,,,,,,,,,,,,,,,,,,,,,,,,,,,,,,,,,,,,,,,,,,,,,,,,,,,,,,,,,,,,,,,,,,,,,,,,,,,,,,,,,,,,,,,,,,,,,,,,,,,,,,,,,,,,,,,,,,,,,,,,,,
1739356603.471465,1739356603.472600,54.000000,0.000000,4139.487305,3844.871826,4133.717773,2552.435791,4042.051270,4043.718018,4044.102539,4219.871582,4038.205078,4066.794922,4324.871582,4302.692383,4220.000000,4300.256348,0.000000,0.000000,10.000000,,,,0.000000,4.000000,4.000000,4.000000,4.000000,4.000000,4.000000,4.000000,4.000000,4.000000,4.000000,4.000000,4.000000,4.000000,4.000000,100.000000,,,,,,,,,,,,,,,,,,,,,,,,,,,,,,,,,,,,,,,,,,,,,,,,,,,,,,,,,,,,,,,,,,,,,,,,,,,,,,,,,,,,,,,,,,,,,,,,,,,,,,,,,,,,,,,,,,,,,,,,,,,,,,,,,
1739356603.479273,1739356603.480408,55.000000,0.000000,4141.666504,3855.000000,4136.025879,2550.769287,4046.281982,4047.948730,4043.589844,4216.922852,4040.769287,4059.871826,4324.615234,4307.820313,4219.615234,4304.358887,0.000000,0.000000,10.000000,,,,0.000000,4.000000,4.000000,4.000000,4.000000,4.000000,4.000000,4.000000,4.000000,4.000000,4.000000,4.000000,4.000000,4.000000,4.000000,100.000000,,,,,,,,,,,,,,,,,,,,,,,,,,,,,,,,,,,,,,,,,,,,,,,,,,,,,,,,,,,,,,,,,,,,,,,,,,,,,,,,,,,,,,,,,,,,,,,,,,,,,,,,,,,,,,,,,,,,,,,,,,,,,,,,,
1739356603.487081,1739356603.488116,56.000000,0.000000,4137.948730,3865.256348,4129.743652,2543.974365,4045.384521,4039.615479,4039.358887,4218.717773,4034.615479,4058.205078,4323.589844,4299.871582,4214.743652,4302.051270,0.000000,0.000000,10.000000,,,,0.000000,4.000000,4.000000,4.000000,4.000000,4.000000,4.000000,4.000000,4.000000,4.000000,4.000000,4.000000,4.000000,4.000000,4.000000,100.000000,,,,,,,,,,,,,,,,,14.000000,0.000000,0.739737,-0.020630,-0.660583,0.126465,1.004029,-0.116713,0.125992,-36.561295,-35.881992,43.918102,,,,,,,,,,,,,,,,,,,,,,,,,,,,,,,,10.927176,3.975304,2.011513,0.717054,0.752312,14.300175,2.654962,1.020967,0.440884,0.607056,2.687302,2.314244,2.224749,0.818386,0.686592,722.911926,11.177547,7.212492,3.656890,1.452928,0.748723,1.138250,1.339176,0.762291,1.013115,0.665838,0.299834,1.404364,0.422541,0.788874,1.581052,1.741179,3.702761,1.521315,1.629254,0.372771,0.477352,0.230841,0.089058,0.134085,3.708142,3.986263,1.824202,0.464945,0.655928,3.500787,3.495269,1.550722,0.633988,0.664469,93.315750,11.327942,2.934112,0.887272,0.891622,5.684896,3.335906,2.781121,0.992442,1.010383,3.903953,1.848124,1.256091,0.431660,0.559236,8.793828,3.198820,2.250869,0.610902,0.672334
1739356603.494889,1739356603.495924,57.000000,0.000000,4140.641113,3862.435791,4133.333496,2537.948730,4045.512939,4046.666748,4051.025635,4222.179688,4041.538574,4070.512939,4331.538574,4305.897461,4221.922852,4306.922852,0.000000,0.000000,10.000000,,,,0.000000,4.000000,4.000000,4.000000,4.000000,4.000000,4.000000,4.000000,4.000000,4.000000,4.000000,4.000000,4.000000,4.000000,4.000000,100.000000,,,,,,,,,,,,,,,,,,,,,,,,,,,,,,,,,,,,,,,,,,,,,,,,,,,,,,,,,,,,,,,,,,,,,,,,,,,,,,,,,,,,,,,,,,,,,,,,,,,,,,,,,,,,,,,,,,,,,,,,,,,,,,,,,
1739356603.502697,1739356603.503632,58.000000,0.000000,4141.282227,3862.051270,4136.025879,2528.076904,4045.256348,4059.743652,4056.410156,4220.769043,4044.743652,4071.153809,4330.256348,4312.820313,4229.871582,4309.102539,0.000000,0.000000,10.000000,,,,0.000000,4.000000,4.000000,4.000000,4.000000,4.000000,4.000000,4.000000,4.000000,4.000000,4.000000,4.000000,4.000000,4.000000,4.000000,100.000000,,,,,,,,,,,,,,,,,,,,,,,,,,,,,,,,,,,,,,,,,,,,,,,,,,,,,,,,,,,,,,,,,,,,,,,,,,,,,,,,,,,,,,,,,,,,,,,,,,,,,,,,,,,,,,,,,,,,,,,,,,,,,,,,,
1739356603.510505,1739356603.511540,59.000000,0.000000,4131.025879,3861.153809,4127.820313,2526.794922,4038.076904,4055.128174,4046.923096,4217.563965,4030.256348,4058.076904,4314.615234,4306.538574,4225.128418,4298.077148,0.000000,0.000000,10.000000,,,,0.000000,4.000000,4.000000,4.000000,4.000000,4.000000,4.000000,4.000000,4.000000,4.000000,4.000000,4.000000,4.000000,4.000000,4.000000,100.000000,,,,,,,,,,,,,,,,,,,,,,,,,,,,,,,,,,,,,,,,,,,,,,,,,,,,,,,,,,,,,,,,,,,,,,,,,,,,,,,,,,,,,,,,,,,,,,,,,,,,,,,,,,,,,,,,,,,,,,,,,,,,,,,,,
1739356603.518313,1739356603.519349,60.000000,0.000000,4121.794922,3857.179443,4127.948730,2537.692383,4037.948730,4050.512939,4040.769287,4218.717773,4024.743652,4056.281982,4311.538574,4307.948730,4221.410156,4295.512695,0.000000,0.000000,10.000000,,,,0.000000,4.000000,4.000000,4.000000,4.000000,4.000000,4.000000,4.000000,4.000000,4.000000,4.000000,4.000000,4.000000,4.000000,4.000000,100.000000,,,,,,,,,,,,,,,,,15.000000,0.000000,0.737244,-0.012451,-0.663696,0.125793,0.935173,-0.125015,0.119155,-36.905167,-35.527126,44.059628,,,,,,,,,,,,,,,,,,,,,,,,,,,,,,,,,,,,,,,,,,,,,,,,,,,,,,,,,,,,,,,,,,,,,,,,,,,,,,,,,,,,,,,,,,,,,,,,,,,,,
1739356603.526122,1739356603.527157,61.000000,0.000000,4123.333496,3857.820557,4138.589844,2546.923096,4045.128174,4056.153809,4044.487061,4221.282227,4035.000000,4065.512939,4321.410156,4323.077148,4224.487305,4303.717773,0.000000,0.000000,10.000000,,,,0.000000,4.000000,4.000000,4.000000,4.000000,4.000000,4.000000,4.000000,4.000000,4.000000,4.000000,4.000000,4.000000,4.000000,4.000000,100.000000,,,,,,,,,,,,,,,,,,,,,,,,,,,,,,,,,,,,,,,,,,,,,,,,,,,,,,,,,,,,,,,,,,,,,,,,,,,,,,,,,,,,,,,,,,,,,,,,,,,,,,,,,,,,,,,,,,,,,,,,,,,,,,,,,
1739356603.533929,1739356603.534865,62.000000,0.000000,4129.358887,3860.769287,4146.922852,2562.435791,4045.512939,4060.512939,4046.923096,4222.820313,4043.461426,4077.179443,4323.589844,4339.230957,4228.589844,4306.666504,0.000000,0.000000,10.000000,,,,0.000000,4.000000,4.000000,4.000000,4.000000,4.000000,4.000000,4.000000,4.000000,4.000000,4.000000,4.000000,4.000000,4.000000,4.000000,100.000000,,,,,,,,,,,,,,,,,,,,,,,,,,,,,,,,,,,,,,,,,,,,,,,,,,,,,,,,,,,,,,,,,,,,,,,,,,,,,,,,,,,,,,,,,,,,,,,,,,,,,,,,,,,,,,,,,,,,,,,,,,,,,,,,,
1739356603.541738,1739356603.542673,63.000000,0.000000,4133.974121,3866.410156,4148.461426,2587.564209,4041.666748,4058.461426,4042.435791,4223.461426,4046.923096,4089.487061,4323.205078,4350.000000,4235.000000,4307.563965,0.000000,0.000000,10.000000,,,,0.000000,4.000000,4.000000,4.000000,4.000000,4.000000,4.000000,4.000000,4.000000,4.000000,4.000000,4.000000,4.000000,4.000000,4.000000,100.000000,,,,,,,,,,,,,,,,,,,,,,,,,,,,,,,,,,,,,,,,,,,,,,,,,,,,,,,,,,,,,,,,,,,,,,,,,,,,,,,,,,,,,,,,,,,,,,,,,,,,,,,,,,,,,,,,,,,,,,,,,,,,,,,,,
1739356603.549546,1739356603.550381,64.000000,0.000000,4136.153809,3877.307617,4146.025879,2602.307617,4047.307617,4060.512939,4044.871826,4223.846191,4057.051270,4096.153809,4329.615234,4356.666504,4245.384766,4314.230957,4983.000000,0.000000,10.000000,,,,0.000000,4.000000,4.000000,4.000000,4.000000,4.000000,4.000000,4.000000,4.000000,4.000000,4.000000,4.000000,4.000000,4.000000,4.000000,100.000000,,,,,,,,,,,,,,,,,16.000000,0.000000,0.735333,-0.005249,-0.665955,0.125549,0.937614,-0.123550,0.119155,-37.314648,-35.024414,44.170330,,,,,,,,,,,,,,,,,,,,,,,,,,,,,,,,,,,,,,,,,,,,,,,,,,,,,,,,,,,,,,,,,,,,,,,,,,,,,,,,,,,,,,,,,,,,,,,,,,,,,
1739356603.557354,1739356603.558189,65.000000,0.000000,4130.512695,3880.128174,4143.205078,2605.641113,4053.461426,4070.000000,4059.102539,4223.974121,4061.153809,4094.358887,4325.256348,4355.256348,4249.615234,4310.256348,4993.000000,0.000000,10.000000,,,,0.000000,4.000000,4.000000,4.000000,4.000000,4.000000,4.000000,4.000000,4.000000,4.000000,4.000000,4.000000,4.000000,4.000000,4.000000,100.000000,,,,,,,,,,,,,,,,,,,,,,,,,,,,,,,,,,,,,,,,,,,,,,,,,,,,,,,,,,,,,,,,,,,,,,,,,,,,,,,,,,,,,,,,,,,,,,,,,,,,,,,,,,,,,,,,,,,,,,,,,,,,,,,,,
1739356603.565162,1739356603.565897,66.000000,0.000000,4121.794922,3881.538574,4143.461426,2614.871826,4055.256348,4081.410156,4067.692383,4222.051270,4051.666748,4091.025635,4310.384766,4352.436035,4245.512695,4298.717773,5611.000000,0.000000,10.000000,,,,0.000000,4.000000,4.000000,4.000000,4.000000,4.000000,4.000000,4.000000,4.000000,4.000000,4.000000,4.000000,4.000000,4.000000,4.000000,100.000000,,,,,,,,,,,,,,,,,,,,,,,,,,,,,,,,,,,,,,,,,,,,,,,,,,,,,,,,,,,,,,,,,,,,,,,,,,,,,,,,,,,,,,,,,,,,,,,,,,,,,,,,,,,,,,,,,,,,,,,,,,,,,,,,,
1739356603.572970,1739356603.573805,67.000000,0.000000,4121.025879,3891.281982,4148.461426,2631.923096,4059.615479,4087.820557,4069.487061,4222.051270,4053.846191,4093.461426,4305.256348,4360.128418,4245.128418,4304.615234,5544.000000,0.000000,10.000000,,,,0.000000,4.000000,4.000000,4.000000,4.000000,4.000000,4.000000,4.000000,4.000000,4.000000,4.000000,4.000000,4.000000,4.000000,4.000000,100.000000,,,,,,,,,,,,,,,,,,,,,,,,,,,,,,,,,,,,,,,,,,,,,,,,,,,,,,,,,,,,,,,,,,,,,,,,,,,,,,,,,,,,,,,,,,,,,,,,,,,,,,,,,,,,,,,,,,,,,,,,,,,,,,,,,
1739356603.580778,1739356603.581613,68.000000,0.000000,4120.128418,3896.281982,4151.410156,2643.461426,4060.256348,4088.589844,4074.487061,4223.461426,4060.897461,4092.435791,4303.333496,4369.487305,4242.692383,4313.333496,5524.000000,0.000000,10.000000,,,,0.000000,4.000000,4.000000,4.000000,4.000000,4.000000,4.000000,4.000000,4.000000,4.000000,4.000000,4.000000,4.000000,4.000000,4.000000,100.000000,,,,,,,,,,,,,,,,,17.000000,0.000000,0.734087,0.000854,-0.667542,0.124512,0.994750,-0.110853,0.113783,-37.816517,-34.438641,44.303299,,,,,,,,,,,,,,,,,,,,,,,,,,,,,,,,,,,,,,,,,,,,,,,,,,,,,,,,,,,,,,,,,,,,,,,,,,,,,,,,,,,,,,,,,,,,,,,,,,,,,
1739356603.588586,1739356603.589422,69.000000,0.000000,4122.436035,3898.846191,4152.436035,2659.358887,4062.692383,4092.435791,4078.846191,4224.487305,4058.974365,4093.333252,4306.410156,4377.179688,4242.436035,4315.897461,5504.000000,0.000000,10.000000,,,,0.000000,4.000000,4.000000,4.000000,4.000000,4.000000,4.000000,4.000000,4.000000,4.000000,4.000000,4.000000,4.000000,4.000000,4.000000,100.000000,,,,,,,,,,,,,,,,,,,,,,,,,,,,,,,,,,,,,,,,,,,,,,,,,,,,,,,,,,,,,,,,,,,,,,,,,,,,,,,,,,,,,,,,,,,,,,,,,,,,,,,,,,,,,,,,,,,,,,,,,,,,,,,,,
1739356603.596394,1739356603.597130,70.000000,0.000000,4136.666504,3910.641113,4161.794922,2686.666748,4073.846191,4096.794922,4079.615479,4224.615234,4067.692383,4105.769043,4324.615234,4393.846191,4254.358887,4329.230957,5482.000000,0.000000,10.000000,,,,0.000000,4.000000,4.000000,4.000000,4.000000,4.000000,4.000000,4.000000,4.000000,4.000000,4.000000,4.000000,4.000000,4.000000,4.000000,100.000000,,,,,,,,,,,,,,,,,,,,,,,,,,,,,,,,,,,,,,,,,,,,,,,,,,,,,,,,,,,,,,,,,,,,,,,,,,,,,,,,,,,,,,,,,,,,,,,,,,,,,,,,,,,,,,,,,,,,,,,,,,,,,,,,,
1739356603.604202,1739356603.605038,71.000000,0.000000,4146.538574,3924.743652,4171.153809,2706.666748,4080.641113,4095.256348,4075.256348,4220.384766,4076.923096,4114.743652,4332.692383,4405.897461,4262.307617,4341.794922,2084.000000,0.000000,10.000000,,,,0.000000,4.000000,4.000000,4.000000,4.000000,4.000000,4.000000,4.000000,4.000000,4.000000,4.000000,4.000000,4.000000,4.000000,4.000000,100.000000,,,,,,,,,,,,,,,,,,,,,,,,,,,,,,,,,,,,,,,,,,,,,,,,,,,,,,,,,,,,,,,,,,,,,,,,,,,,,,,,,,,,,,,,,,,,,,,,,,,,,,,,,,,,,,,,,,,,,,,,,,,,,,,,,
1739356603.612010,1739356603.612846,72.000000,0.000000,4135.641113,3926.666748,4160.769043,2712.564209,4071.410156,4090.641113,4064.615479,4215.000000,4065.512939,4110.128418,4316.666504,4398.589844,4253.333496,4331.794922,5283.000000,0.000000,10.000000,,,,0.000000,4.000000,4.000000,4.000000,4.000000,4.000000,4.000000,4.000000,4.000000,4.000000,4.000000,4.000000,4.000000,4.000000,4.000000,100.000000,1.000000,8.333333,1.000000,1.000000,3.000000,0.000000,1.000000,3.000000,1.000000,4.000000,3.000000,3.000000,0.000000,3.000000,3.000000,3.000000,18.000000,0.000000,0.732880,0.005737,-0.668945,0.123962,1.020144,-0.125992,0.115248,-38.201534,-34.028107,44.156300,,,,,,,,,,,,,,,,,,,,,,,,,,,,,,,,10.303872,2.926391,2.026982,1.055375,0.940356,17.111361,1.988077,1.095109,0.628558,0.758208,3.227000,2.180154,2.799578,1.215539,0.868886,1251.973267,15.537310,13.102387,5.745231,2.025695,1.433768,0.936554,1.758438,1.041517,1.316574,1.141957,0.369162,1.558312,0.535941,1.098680,2.475399,2.470859,5.105989,2.171521,2.013117,0.570404,0.496689,0.246021,0.125590,0.147301,5.828965,3.753582,2.061824,0.614966,0.767112,3.973382,3.208433,1.536205,0.841995,0.763532,193.627029,20.674210,4.065465,1.418512,1.171523,5.897016,3.268356,3.307171,1.489588,1.241346,4.482399,1.599552,1.330663,0.559299,0.659349,6.923267,2.559863,2.126551,0.886155,0.823121
1739356603.619818,1739356603.620754,73.000000,0.000000,4121.666504,3915.897461,4148.333496,2724.487061,4069.102539,4094.230713,4062.307617,4215.897461,4058.589844,4103.974121,4304.487305,4391.153809,4244.358887,4319.615234,5607.000000,0.000000,10.000000,,,,0.000000,4.000000,4.000000,4.000000,4.000000,4.000000,4.000000,4.000000,4.000000,4.000000,4.000000,4.000000,4.000000,4.000000,4.000000,100.000000,,,,,,,,,,,,,,,,,,,,,,,,,,,,,,,,,,,,,,,,,,,,,,,,,,,,,,,,,,,,,,,,,,,,,,,,,,,,,,,,,,,,,,,,,,,,,,,,,,,,,,,,,,,,,,,,,,,,,,,,,,,,,,,,,
1739356603.627627,1739356603.628562,74.000000,0.000000,4122.179688,3908.076904,4152.820313,2745.384521,4078.718018,4104.230957,4073.461426,4219.358887,4071.410156,4110.000000,4313.205078,4398.461426,4251.025879,4324.871582,4871.000000,0.000000,10.000000,,,,0.000000,4.000000,4.000000,4.000000,4.000000,4.000000,4.000000,4.000000,4.000000,4.000000,4.000000,4.000000,4.000000,4.000000,4.000000,100.000000,,,,,,,,,,,,,,,,,,,,,,,,,,,,,,,,,,,,,,,,,,,,,,,,,,,,,,,,,,,,,,,,,,,,,,,,,,,,,,,,,,,,,,,,,,,,,,,,,,,,,,,,,,,,,,,,,,,,,,,,,,,,,,,,,
1739356603.635435,1739356603.636470,75.000000,0.000000,4121.410156,3910.641113,4156.025879,2759.743652,4077.051270,4108.205078,4087.435791,4222.179688,4079.871826,4119.743652,4325.000000,4409.230957,4256.282227,4329.615234,5634.000000,0.000000,10.000000,,,,0.000000,4.000000,4.000000,4.000000,4.000000,4.000000,4.000000,4.000000,4.000000,4.000000,4.000000,4.000000,4.000000,4.000000,4.000000,100.000000,,,,,,,,,,,,,,,,,,,,,,,,,,,,,,,,,,,,,,,,,,,,,,,,,,,,,,,,,,,,,,,,,,,,,,,,,,,,,,,,,,,,,,,,,,,,,,,,,,,,,,,,,,,,,,,,,,,,,,,,,,,,,,,,,
1739356603.643243,1739356603.644279,76.000000,0.000000,4114.871582,3912.307617,4149.871582,2768.461426,4070.512939,4107.820313,4094.230713,4224.358887,4078.846191,4122.436035,4322.948730,4413.205078,4251.538574,4323.589844,5654.000000,0.000000,10.000000,,,,0.000000,4.000000,4.000000,4.000000,4.000000,4.000000,4.000000,4.000000,4.000000,4.000000,4.000000,4.000000,4.000000,4.000000,4.000000,100.000000,,,,,,,,,,,,,,,,,19.000000,0.000000,0.732257,0.007629,-0.669495,0.124573,1.013307,-0.153339,0.119155,-38.514713,-33.575298,44.074005,,,,,,,,,,,,,,,,,,,,,,,,,,,,,,,,,,,,,,,,,,,,,,,,,,,,,,,,,,,,,,,,,,,,,,,,,,,,,,,,,,,,,,,,,,,,,,,,,,,,,
1739356603.651051,1739356603.652186,77.000000,0.000000,4109.358887,3909.102539,4147.563965,2772.051270,4071.153809,4106.410156,4088.205078,4218.205078,4080.512939,4120.512695,4312.436035,4409.743652,4247.051270,4317.307617,6496.000000,0.000000,10.000000,,,,0.000000,4.000000,4.000000,4.000000,4.000000,4.000000,4.000000,4.000000,4.000000,4.000000,4.000000,4.000000,4.000000,4.000000,4.000000,100.000000,,,,,,,,,,,,,,,,,,,,,,,,,,,,,,,,,,,,,,,,,,,,,,,,,,,,,,,,,,,,,,,,,,,,,,,,,,,,,,,,,,,,,,,,,,,,,,,,,,,,,,,,,,,,,,,,,,,,,,,,,,,,,,,,,
1739356603.658859,1739356603.659994,78.000000,0.000000,4107.051270,3907.692383,4148.846191,2767.820557,4068.974365,4103.461426,4081.153809,4209.871582,4080.128174,4117.948730,4303.846191,4405.128418,4243.846191,4316.025879,4871.000000,0.000000,10.000000,,,,0.000000,4.000000,4.000000,4.000000,4.000000,4.000000,4.000000,4.000000,4.000000,4.000000,4.000000,4.000000,4.000000,4.000000,4.000000,100.000000,,,,,,,,,,,,,,,,,,,,,,,,,,,,,,,,,,,,,,,,,,,,,,,,,,,,,,,,,,,,,,,,,,,,,,,,,,,,,,,,,,,,,,,,,,,,,,,,,,,,,,,,,,,,,,,,,,,,,,,,,,,,,,,,,
1739356603.666667,1739356603.667702,79.000000,0.000000,4110.384766,3914.743652,4150.384766,2766.281982,4064.871826,4101.153809,4084.487061,4215.256348,4077.307617,4118.205078,4306.666504,4411.666504,4249.230957,4321.666504,5634.000000,0.000000,10.000000,,,,0.000000,4.000000,4.000000,4.000000,4.000000,4.000000,4.000000,4.000000,4.000000,4.000000,4.000000,4.000000,4.000000,4.000000,4.000000,100.000000,,,,,,,,,,,,,,,,,,,,,,,,,,,,,,,,,,,,,,,,,,,,,,,,,,,,,,,,,,,,,,,,,,,,,,,,,,,,,,,,,,,,,,,,,,,,,,,,,,,,,,,,,,,,,,,,,,,,,,,,,,,,,,,,,
1739356603.674475,1739356603.675510,80.000000,0.000000,4119.743652,3932.820557,4157.692383,2775.256348,4071.538574,4102.820313,4082.820557,4227.307617,4073.718018,4117.692383,4316.025879,4428.974121,4258.461426,4333.333496,5654.000000,0.000000,10.000000,,,,0.000000,4.000000,4.000000,4.000000,4.000000,4.000000,4.000000,4.000000,4.000000,4.000000,4.000000,4.000000,4.000000,4.000000,4.000000,100.000000,,,,,,,,,,,,,,,,,20.000000,0.000000,0.731273,0.009888,-0.670105,0.126892,1.040166,-0.188500,0.150897,-38.763241,-33.217770,43.933270,,,,,,,,,,,,,,,,,,,,,,,,,,,,,,,,,,,,,,,,,,,,,,,,,,,,,,,,,,,,,,,,,,,,,,,,,,,,,,,,,,,,,,,,,,,,,,,,,,,,,
1739356603.682283,1739356603.683219,81.000000,0.000000,4127.820313,3944.743652,4168.717773,2782.948730,4082.051270,4110.256348,4076.923096,4232.692383,4071.923096,4118.333496,4321.922852,4443.974121,4262.179688,4341.922852,6496.000000,0.000000,10.000000,,,,0.000000,4.000000,4.000000,4.000000,4.000000,4.000000,4.000000,4.000000,4.000000,4.000000,4.000000,4.000000,4.000000,4.000000,4.000000,100.000000,,,,,,,,,,,,,,,,,,,,,,,,,,,,,,,,,,,,,,,,,,,,,,,,,,,,,,,,,,,,,,,,,,,,,,,,,,,,,,,,,,,,,,,,,,,,,,,,,,,,,,,,,,,,,,,,,,,,,,,,,,,,,,,,,
1739356603.690091,1739356603.691026,82.000000,0.000000,4133.974121,3947.692383,4178.077148,2778.589844,4087.435791,4116.666504,4084.358887,4236.282227,4079.102539,4126.282227,4332.051270,4459.102539,4270.512695,4352.051270,4871.000000,0.000000,10.000000,,,,0.000000,4.000000,4.000000,4.000000,4.000000,4.000000,4.000000,4.000000,4.000000,4.000000,4.000000,4.000000,4.000000,4.000000,4.000000,100.000000,,,,,,,,,,,,,,,,,,,,,,,,,,,,,,,,,,,,,,,,,,,,,,,,,,,,,,,,,,,,,,,,,,,,,,,,,,,,,,,,,,,,,,,,,,,,,,,,,,,,,,,,,,,,,,,,,,,,,,,,,,,,,,,,,
1739356603.697899,1739356603.698735,83.000000,0.000000,4142.563965,3955.384521,4181.282227,2766.025635,4092.435791,4116.538574,4092.435791,4240.384766,4090.000000,4134.615234,4344.102539,4471.025879,4284.358887,4366.153809,5634.000000,0.000000,10.000000,,,,0.000000,4.000000,4.000000,4.000000,4.000000,4.000000,4.000000,4.000000,4.000000,4.000000,4.000000,4.000000,4.000000,4.000000,4.000000,100.000000,,,,,,,,,,,,,,,,,,,,,,,,,,,,,,,,,,,,,,,,,,,,,,,,,,,,,,,,,,,,,,,,,,,,,,,,,,,,,,,,,,,,,,,,,,,,,,,,,,,,,,,,,,,,,,,,,,,,,,,,,,,,,,,,,
1739356603.705707,1739356603.706543,84.000000,0.000000,4147.692383,3966.794922,4183.461426,2761.666748,4098.205078,4122.948730,4095.769287,4239.358887,4100.512695,4141.410156,4352.692383,4476.153809,4293.077148,4372.692383,5654.000000,0.000000,10.000000,,,,0.000000,4.000000,4.000000,4.000000,4.000000,4.000000,4.000000,4.000000,4.000000,4.000000,4.000000,4.000000,4.000000,4.000000,4.000000,100.000000,,,,,,,,,,,,,,,,,21.000000,0.000000,0.730281,0.011414,-0.670471,0.130493,0.996215,-0.182639,0.145526,-38.770252,-32.812656,43.839943,,,,,,,,,,,,,,,,,,,,,,,,,,,,,,,,,,,,,,,,,,,,,,,,,,,,,,,,,,,,,,,,,,,,,,,,,,,,,,,,,,,,,,,,,,,,,,,,,,,,,
1739356603.713515,1739356603.714251,85.000000,0.000000,4157.692383,3977.435791,4199.230957,2776.794922,4111.153809,4143.717773,4122.692383,4241.922852,4121.025879,4158.974121,4372.692383,4488.077148,4298.333496,4378.717773,6496.000000,0.000000,10.000000,,,,0.000000,4.000000,4.000000,4.000000,4.000000,4.000000,4.000000,4.000000,4.000000,4.000000,4.000000,4.000000,4.000000,4.000000,4.000000,100.000000,,,,,,,,,,,,,,,,,,,,,,,,,,,,,,,,,,,,,,,,,,,,,,,,,,,,,,,,,,,,,,,,,,,,,,,,,,,,,,,,,,,,,,,,,,,,,,,,,,,,,,,,,,,,,,,,,,,,,,,,,,,,,,,,,
1739356603.721323,1739356603.722059,86.000000,0.000000,4170.256348,3985.512939,4215.512695,2788.205078,4129.230957,4161.666504,4152.820313,4246.922852,4140.128418,4182.051270,4394.102539,4498.589844,4305.000000,4392.179688,4871.000000,0.000000,10.000000,,,,0.000000,4.000000,4.000000,4.000000,4.000000,4.000000,4.000000,4.000000,4.000000,4.000000,4.000000,4.000000,4.000000,4.000000,4.000000,100.000000,,,,,,,,,,,,,,,,,,,,,,,,,,,,,,,,,,,,,,,,,,,,,,,,,,,,,,,,,,,,,,,,,,,,,,,,,,,,,,,,,,,,,,,,,,,,,,,,,,,,,,,,,,,,,,,,,,,,,,,,,,,,,,,,,
1739356603.729132,1739356603.729767,87.000000,0.000000,4170.641113,3994.615479,4214.871582,2791.538574,4142.179688,4173.974121,4155.000000,4246.922852,4143.589844,4191.025879,4396.538574,4497.820313,4309.615234,4398.717773,5634.000000,0.000000,10.000000,,,,0.000000,4.000000,4.000000,4.000000,4.000000,4.000000,4.000000,4.000000,4.000000,4.000000,4.000000,4.000000,4.000000,4.000000,4.000000,100.000000,,,,,,,,,,,,,,,,,,,,,,,,,,,,,,,,,,,,,,,,,,,,,,,,,,,,,,,,,,,,,,,,,,,,,,,,,,,,,,,,,,,,,,,,,,,,,,,,,,,,,,,,,,,,,,,,,,,,,,,,,,,,,,,,,
1739356603.736940,1739356603.737675,88.000000,0.000000,4175.256348,4013.205078,4220.000000,2814.871826,4158.846191,4186.410156,4158.333496,4248.333496,4144.871582,4193.846191,4403.589844,4503.974121,4315.128418,4401.025879,5654.000000,0.000000,10.000000,,,,0.000000,4.000000,4.000000,4.000000,4.000000,4.000000,4.000000,4.000000,4.000000,4.000000,4.000000,4.000000,4.000000,4.000000,4.000000,100.000000,,,,,,,,,,,,,,,,,22.000000,0.000000,0.729088,0.014587,-0.671082,0.133667,1.014772,-0.248077,0.125015,-38.976559,-32.481392,43.822617,,,,,,,,,,,,,,,,,,,,,,,,,,,,,,,,14.406809,2.407253,2.189679,1.385094,1.094021,23.449451,1.952374,1.322731,0.840909,0.888347,4.387629,2.129912,3.362909,1.588700,1.027066,1808.882813,20.991343,21.131544,7.833240,2.666029,2.465056,0.821847,2.168811,1.295323,1.659021,1.915950,0.493549,1.746098,0.695907,1.468267,3.538901,3.289169,6.342586,2.736803,2.336344,0.836481,0.482470,0.287597,0.164692,0.161161,8.789713,3.296187,2.384779,0.775731,0.856382,4.716290,2.782177,1.626680,1.037468,0.842486,319.483612,31.524323,5.262254,2.017679,1.413792,6.976068,3.359505,3.920696,1.981649,1.427614,6.022804,1.437599,1.520395,0.698468,0.732980,8.083706,2.243168,2.177279,1.169187,0.954570
1739356603.744748,1739356603.745483,89.000000,0.000000,4191.153809,4033.076904,4240.897461,2848.846191,4172.051270,4190.641113,4172.692383,4253.974121,4155.641113,4205.512695,4435.769043,4522.051270,4320.128418,4416.410156,6496.000000,0.000000,10.000000,,,,0.000000,4.000000,4.000000,4.000000,4.000000,4.000000,4.000000,4.000000,4.000000,4.000000,4.000000,4.000000,4.000000,4.000000,4.000000,100.000000,,,,,,,,,,,,,,,,,,,,,,,,,,,,,,,,,,,,,,,,,,,,,,,,,,,,,,,,,,,,,,,,,,,,,,,,,,,,,,,,,,,,,,,,,,,,,,,,,,,,,,,,,,,,,,,,,,,,,,,,,,,,,,,,,
1739356603.752556,1739356603.753391,90.000000,0.000000,4202.948730,4040.256348,4252.179688,2866.410156,4171.538574,4192.820313,4175.512695,4257.436035,4165.384766,4217.051270,4465.897461,4532.820313,4324.871582,4434.743652,4871.000000,0.000000,10.000000,,,,0.000000,4.000000,4.000000,4.000000,4.000000,4.000000,4.000000,4.000000,4.000000,4.000000,4.000000,4.000000,4.000000,4.000000,4.000000,100.000000,,,,,,,,,,,,,,,,,,,,,,,,,,,,,,,,,,,,,,,,,,,,,,,,,,,,,,,,,,,,,,,,,,,,,,,,,,,,,,,,,,,,,,,,,,,,,,,,,,,,,,,,,,,,,,,,,,,,,,,,,,,,,,,,,
1739356603.760364,1739356603.761199,91.000000,0.000000,4210.000000,4050.897461,4256.538574,2878.974365,4174.743652,4200.000000,4174.487305,4257.051270,4170.897461,4220.256348,4480.512695,4539.487305,4333.461426,4444.358887,5634.000000,0.000000,10.000000,,,,0.000000,4.000000,4.000000,4.000000,4.000000,4.000000,4.000000,4.000000,4.000000,4.000000,4.000000,4.000000,4.000000,4.000000,4.000000,100.000000,,,,,,,,,,,,,,,,,,,,,,,,,,,,,,,,,,,,,,,,,,,,,,,,,,,,,,,,,,,,,,,,,,,,,,,,,,,,,,,,,,,,,,,,,,,,,,,,,,,,,,,,,,,,,,,,,,,,,,,,,,,,,,,,,
1739356603.768172,1739356603.769107,92.000000,0.000000,4216.922852,4063.846191,4265.769043,2895.128174,4186.538574,4204.230957,4183.846191,4256.025879,4171.538574,4216.025879,4487.051270,4544.358887,4335.512695,4444.487305,5654.000000,0.000000,10.000000,,,,0.000000,4.000000,4.000000,4.000000,4.000000,4.000000,4.000000,4.000000,4.000000,4.000000,4.000000,4.000000,4.000000,4.000000,4.000000,100.000000,,,,,,,,,,,,,,,,,23.000000,0.000000,0.727138,0.017639,-0.672607,0.136230,0.937126,-0.260774,0.124527,-39.028904,-32.299919,43.723686,,,,,,,,,,,,,,,,,,,,,,,,,,,,,,,,,,,,,,,,,,,,,,,,,,,,,,,,,,,,,,,,,,,,,,,,,,,,,,,,,,,,,,,,,,,,,,,,,,,,,
1739356603.775980,1739356603.776916,93.000000,0.000000,4215.384766,4060.128174,4265.769043,2901.794922,4188.589844,4201.025879,4188.589844,4254.871582,4169.487305,4215.641113,4492.948730,4537.692383,4334.102539,4441.153809,6496.000000,0.000000,10.000000,,,,0.000000,4.000000,4.000000,4.000000,4.000000,4.000000,4.000000,4.000000,4.000000,4.000000,4.000000,4.000000,4.000000,4.000000,4.000000,100.000000,,,,,,,,,,,,,,,,,,,,,,,,,,,,,,,,,,,,,,,,,,,,,,,,,,,,,,,,,,,,,,,,,,,,,,,,,,,,,,,,,,,,,,,,,,,,,,,,,,,,,,,,,,,,,,,,,,,,,,,,,,,,,,,,,
1739356603.783788,1739356603.784824,94.000000,0.000000,4212.820313,4055.641113,4262.436035,2905.641113,4182.820313,4203.974121,4185.384766,4255.000000,4176.153809,4223.974121,4505.000000,4536.666504,4341.410156,4445.512695,4871.000000,0.000000,10.000000,,,,0.000000,4.000000,4.000000,4.000000,4.000000,4.000000,4.000000,4.000000,4.000000,4.000000,4.000000,4.000000,4.000000,4.000000,4.000000,100.000000,,,,,,,,,,,,,,,,,,,,,,,,,,,,,,,,,,,,,,,,,,,,,,,,,,,,,,,,,,,,,,,,,,,,,,,,,,,,,,,,,,,,,,,,,,,,,,,,,,,,,,,,,,,,,,,,,,,,,,,,,,,,,,,,,
1739356603.791596,1739356603.792632,95.000000,0.000000,4213.205078,4065.000000,4265.769043,2914.743652,4183.717773,4209.871582,4187.436035,4256.153809,4184.743652,4231.666504,4511.025879,4541.666504,4347.307617,4448.461426,5634.000000,0.000000,10.000000,,,,0.000000,4.000000,4.000000,4.000000,4.000000,4.000000,4.000000,4.000000,4.000000,4.000000,4.000000,4.000000,4.000000,4.000000,4.000000,100.000000,,,,,,,,,,,,,,,,,,,,,,,,,,,,,,,,,,,,,,,,,,,,,,,,,,,,,,,,,,,,,,,,,,,,,,,,,,,,,,,,,,,,,,,,,,,,,,,,,,,,,,,,,,,,,,,,,,,,,,,,,,,,,,,,,
1739356603.799404,1739356603.800540,96.000000,0.000000,4206.025879,4068.974365,4262.948730,2916.666748,4184.230957,4207.051270,4190.128418,4256.282227,4183.077148,4232.948730,4507.692383,4532.692383,4346.282227,4445.256348,5654.000000,0.000000,10.000000,,,,0.000000,4.000000,4.000000,4.000000,4.000000,4.000000,4.000000,4.000000,4.000000,4.000000,4.000000,4.000000,4.000000,4.000000,4.000000,100.000000,,,,,,,,,,,,,,,,,24.000000,0.000000,0.725387,0.019897,-0.674072,0.138000,0.954706,-0.234404,0.119155,-39.092678,-31.869928,43.817986,,,,,,,,,,,,,,,,,,,,,,,,,,,,,,,,,,,,,,,,,,,,,,,,,,,,,,,,,,,,,,,,,,,,,,,,,,,,,,,,,,,,,,,,,,,,,,,,,,,,,
1739356603.807212,1739356603.808348,97.000000,0.000000,4198.589844,4060.256348,4254.102539,2908.205078,4183.589844,4206.538574,4187.436035,4255.256348,4180.512695,4231.282227,4508.333496,4519.615234,4345.000000,4443.461426,6496.000000,0.000000,10.000000,,,,0.000000,4.000000,4.000000,4.000000,4.000000,4.000000,4.000000,4.000000,4.000000,4.000000,4.000000,4.000000,4.000000,4.000000,4.000000,100.000000,,,,,,,,,,,,,,,,,,,,,,,,,,,,,,,,,,,,,,,,,,,,,,,,,,,,,,,,,,,,,,,,,,,,,,,,,,,,,,,,,,,,,,,,,,,,,,,,,,,,,,,,,,,,,,,,,,,,,,,,,,,,,,,,,
1739356603.815020,1739356603.816256,98.000000,0.000000,4196.922852,4056.153809,4253.205078,2905.512939,4184.230957,4213.974121,4184.743652,4252.820313,4180.128418,4230.000000,4510.641113,4521.410156,4340.256348,4442.179688,4871.000000,0.000000,10.000000,,,,0.000000,4.000000,4.000000,4.000000,4.000000,4.000000,4.000000,4.000000,4.000000,4.000000,4.000000,4.000000,4.000000,4.000000,4.000000,100.000000,,,,,,,,,,,,,,,,,,,,,,,,,,,,,,,,,,,,,,,,,,,,,,,,,,,,,,,,,,,,,,,,,,,,,,,,,,,,,,,,,,,,,,,,,,,,,,,,,,,,,,,,,,,,,,,,,,,,,,,,,,,,,,,,,
1739356603.822828,1739356603.824065,99.000000,0.000000,4199.615234,4063.846191,4262.436035,2916.410156,4186.025879,4217.436035,4191.538574,4253.974121,4182.692383,4230.641113,4515.384766,4532.563965,4337.436035,4445.000000,5634.000000,0.000000,10.000000,,,,0.000000,4.000000,4.000000,4.000000,4.000000,4.000000,4.000000,4.000000,4.000000,4.000000,4.000000,4.000000,4.000000,4.000000,4.000000,100.000000,,,,,,,,,,,,,,,,,,,,,,,,,,,,,,,,,,,,,,,,,,,,,,,,,,,,,,,,,,,,,,,,,,,,,,,,,,,,,,,,,,,,,,,,,,,,,,,,,,,,,,,,,,,,,,,,,,,,,,,,,,,,,,,,,
1739356603.830637,1739356603.831972,100.000000,0.000000,4209.358887,4079.102539,4276.538574,2934.743652,4191.922852,4216.794922,4202.179688,4258.461426,4192.563965,4238.974121,4530.641113,4544.230957,4348.717773,4457.307617,5654.000000,0.000000,10.000000,,,,0.000000,4.000000,4.000000,4.000000,4.000000,4.000000,4.000000,4.000000,4.000000,4.000000,4.000000,4.000000,4.000000,4.000000,4.000000,100.000000,,,,,,,,,,,,,,,,,25.000000,0.000000,0.723742,0.021606,-0.675598,0.138916,0.934196,-0.242217,0.107435,-39.266747,-31.549601,43.802853,,,,,,,,,,,,,,,,,,,,,,,,,,,,,,,,,,,,,,,,,,,,,,,,,,,,,,,,,,,,,,,,,,,,,,,,,,,,,,,,,,,,,,,,,,,,,,,,,,,,,
1739356603.838445,1739356603.839780,101.000000,0.000000,4220.256348,4090.000000,4285.000000,2947.692383,4200.769043,4224.871582,4204.230957,4257.948730,4198.717773,4246.025879,4536.922852,4548.974121,4359.871582,4463.974121,6496.000000,0.000000,10.000000,,,,0.000000,4.000000,4.000000,4.000000,4.000000,4.000000,4.000000,4.000000,4.000000,4.000000,4.000000,4.000000,4.000000,4.000000,4.000000,100.000000,,,,,,,,,,,,,,,,,,,,,,,,,,,,,,,,,,,,,,,,,,,,,,,,,,,,,,,,,,,,,,,,,,,,,,,,,,,,,,,,,,,,,,,,,,,,,,,,,,,,,,,,,,,,,,,,,,,,,,,,,,,,,,,,,
1739356603.846253,1739356603.847488,102.000000,0.000000,4219.102539,4091.281982,4281.282227,2946.538574,4209.487305,4230.000000,4200.769043,4254.487305,4191.282227,4243.077148,4526.025879,4541.666504,4353.974121,4459.871582,4871.000000,0.000000,10.000000,,,,0.000000,4.000000,4.000000,4.000000,4.000000,4.000000,4.000000,4.000000,4.000000,4.000000,4.000000,4.000000,4.000000,4.000000,4.000000,100.000000,,,,,,,,,,,,,,,,,,,,,,,,,,,,,,,,,,,,,,,,,,,,,,,,,,,,,,,,,,,,,,,,,,,,,,,,,,,,,,,,,,,,,,,,,,,,,,,,,,,,,,,,,,,,,,,,,,,,,,,,,,,,,,,,,
1739356603.854061,1739356603.855296,103.000000,0.000000,4210.769043,4092.820557,4277.948730,2948.589844,4210.769043,4222.051270,4196.025879,4253.974121,4188.333496,4243.461426,4525.128418,4535.128418,4351.410156,4456.538574,5634.000000,0.000000,10.000000,,,,0.000000,4.000000,4.000000,4.000000,4.000000,4.000000,4.000000,4.000000,4.000000,4.000000,4.000000,4.000000,4.000000,4.000000,4.000000,100.000000,,,,,,,,,,,,,,,,,,,,,,,,,,,,,,,,,,,,,,,,,,,,,,,,,,,,,,,,,,,,,,,,,,,,,,,,,,,,,,,,,,,,,,,,,,,,,,,,,,,,,,,,,,,,,,,,,,,,,,,,,,,,,,,,,
1739356603.861869,1739356603.863004,104.000000,0.000000,4204.487305,4094.358887,4276.922852,2956.538574,4198.974121,4215.000000,4190.897461,4251.282227,4190.128418,4243.846191,4526.153809,4532.179688,4356.025879,4448.461426,5654.000000,0.000000,10.000000,,,,0.000000,4.000000,4.000000,4.000000,4.000000,4.000000,4.000000,4.000000,4.000000,4.000000,4.000000,4.000000,4.000000,4.000000,4.000000,100.000000,,,,,,,,,,,,,,,,,26.000000,0.000000,0.722031,0.022522,-0.677246,0.139648,0.959590,-0.213893,0.080576,-39.606735,-31.177975,43.755901,,,,,,,,,,,,,,,,,,,,,,,,,,,,,,,,20.152683,2.202148,2.332105,1.611562,1.158049,29.696371,2.363194,1.600519,1.040162,0.954571,6.164936,2.101943,3.737937,1.832464,1.101408,2229.605713,26.825686,30.100933,9.433072,3.212818,4.135019,0.871714,2.478051,1.442359,1.923842,3.412511,0.714397,1.965575,0.868154,1.780546,5.074284,4.031077,7.099732,3.038442,2.484627,1.181498,0.440153,0.345119,0.198620,0.169237,12.411689,2.771037,2.713460,0.911776,0.884823,6.077389,2.383394,1.817123,1.173631,0.861941,438.807587,40.486229,6.151741,2.528565,1.537601,8.751884,3.451735,4.430270,2.333211,1.496915,7.900878,1.375236,1.730164,0.823925,0.751662,10.629608,2.103898,2.290924,1.390393,1.013612
1739356603.869677,1739356603.870812,105.000000,0.000000,4195.512695,4088.589844,4267.436035,2950.897461,4188.461426,4216.922852,4189.358887,4247.692383,4185.384766,4232.692383,4519.358887,4522.563965,4347.820313,4436.922852,6496.000000,0.000000,10.000000,,,,0.000000,4.000000,4.000000,4.000000,4.000000,4.000000,4.000000,4.000000,4.000000,4.000000,4.000000,4.000000,4.000000,4.000000,4.000000,100.000000,,,,,,,,,,,,,,,,,,,,,,,,,,,,,,,,,,,,,,,,,,,,,,,,,,,,,,,,,,,,,,,,,,,,,,,,,,,,,,,,,,,,,,,,,,,,,,,,,,,,,,,,,,,,,,,,,,,,,,,,,,,,,,,,,
1739356603.877485,1739356603.878521,106.000000,0.000000,4191.922852,4083.333252,4259.871582,2941.666748,4188.461426,4217.436035,4197.179688,4252.563965,4190.384766,4230.512695,4521.794922,4516.794922,4344.230957,4437.563965,4871.000000,0.000000,10.000000,,,,0.000000,4.000000,4.000000,4.000000,4.000000,4.000000,4.000000,4.000000,4.000000,4.000000,4.000000,4.000000,4.000000,4.000000,4.000000,100.000000,,,,,,,,,,,,,,,,,,,,,,,,,,,,,,,,,,,,,,,,,,,,,,,,,,,,,,,,,,,,,,,,,,,,,,,,,,,,,,,,,,,,,,,,,,,,,,,,,,,,,,,,,,,,,,,,,,,,,,,,,,,,,,,,,
1739356603.885293,1739356603.886429,107.000000,0.000000,4196.282227,4085.897461,4266.794922,2947.179443,4187.051270,4216.538574,4208.333496,4258.077148,4202.820313,4244.102539,4530.512695,4524.743652,4356.922852,4446.282227,5634.000000,0.000000,10.000000,,,,0.000000,4.000000,4.000000,4.000000,4.000000,4.000000,4.000000,4.000000,4.000000,4.000000,4.000000,4.000000,4.000000,4.000000,4.000000,100.000000,,,,,,,,,,,,,,,,,,,,,,,,,,,,,,,,,,,,,,,,,,,,,,,,,,,,,,,,,,,,,,,,,,,,,,,,,,,,,,,,,,,,,,,,,,,,,,,,,,,,,,,,,,,,,,,,,,,,,,,,,,,,,,,,,
1739356603.893101,1739356603.894237,108.000000,0.000000,4196.538574,4090.769287,4275.769043,2957.051270,4186.153809,4226.538574,4210.897461,4255.897461,4201.666504,4247.051270,4532.820313,4532.948730,4362.307617,4452.179688,5654.000000,0.000000,10.000000,,,,0.000000,4.000000,4.000000,4.000000,4.000000,4.000000,4.000000,4.000000,4.000000,4.000000,4.000000,4.000000,4.000000,4.000000,4.000000,100.000000,,,,,,,,,,,,,,,,,27.000000,0.000000,0.720920,0.023132,-0.678345,0.139954,0.924918,-0.263216,0.076670,-39.646065,-30.926844,43.663647,,,,,,,,,,,,,,,,,,,,,,,,,,,,,,,,,,,,,,,,,,,,,,,,,,,,,,,,,,,,,,,,,,,,,,,,,,,,,,,,,,,,,,,,,,,,,,,,,,,,,
1739356603.900909,1739356603.902045,109.000000,0.000000,4195.641113,4093.333252,4279.102539,2963.461426,4196.666504,4231.666504,4205.000000,4254.871582,4197.948730,4241.410156,4530.769043,4534.743652,4356.282227,4454.102539,6496.000000,0.000000,10.000000,,,,0.000000,4.000000,4.000000,4.000000,4.000000,4.000000,4.000000,4.000000,4.000000,4.000000,4.000000,4.000000,4.000000,4.000000,4.000000,100.000000,,,,,,,,,,,,,,,,,,,,,,,,,,,,,,,,,,,,,,,,,,,,,,,,,,,,,,,,,,,,,,,,,,,,,,,,,,,,,,,,,,,,,,,,,,,,,,,,,,,,,,,,,,,,,,,,,,,,,,,,,,,,,,,,,
1739356603.908717,1739356603.909753,110.000000,0.000000,4200.641113,4096.410156,4286.025879,2974.358887,4205.769043,4221.025879,4203.205078,4255.128418,4200.256348,4242.051270,4529.871582,4539.743652,4358.333496,4455.256348,4871.000000,0.000000,10.000000,,,,0.000000,4.000000,4.000000,4.000000,4.000000,4.000000,4.000000,4.000000,4.000000,4.000000,4.000000,4.000000,4.000000,4.000000,4.000000,100.000000,,,,,,,,,,,,,,,,,,,,,,,,,,,,,,,,,,,,,,,,,,,,,,,,,,,,,,,,,,,,,,,,,,,,,,,,,,,,,,,,,,,,,,,,,,,,,,,,,,,,,,,,,,,,,,,,,,,,,,,,,,,,,,,,,
1739356603.916525,1739356603.917561,111.000000,0.000000,4202.179688,4099.230957,4294.358887,2985.769287,4199.871582,4215.769043,4202.179688,4254.487305,4194.230957,4239.102539,4527.436035,4547.307617,4362.051270,4458.846191,5634.000000,0.000000,10.000000,,,,0.000000,4.000000,4.000000,4.000000,4.000000,4.000000,4.000000,4.000000,4.000000,4.000000,4.000000,4.000000,4.000000,4.000000,4.000000,100.000000,,,,,,,,,,,,,,,,,,,,,,,,,,,,,,,,,,,,,,,,,,,,,,,,,,,,,,,,,,,,,,,,,,,,,,,,,,,,,,,,,,,,,,,,,,,,,,,,,,,,,,,,,,,,,,,,,,,,,,,,,,,,,,,,,
1739356603.924333,1739356603.925269,112.000000,0.000000,4197.948730,4095.641113,4290.256348,2992.692383,4188.333496,4217.436035,4191.666504,4254.615234,4185.000000,4232.820313,4519.358887,4545.128418,4354.487305,4458.974121,5654.000000,0.000000,10.000000,,,,0.000000,4.000000,4.000000,4.000000,4.000000,4.000000,4.000000,4.000000,4.000000,4.000000,4.000000,4.000000,4.000000,4.000000,4.000000,100.000000,,,,,,,,,,,,,,,,,28.000000,0.000000,0.718811,0.023987,-0.680298,0.141174,0.944940,-0.251007,0.087901,-39.831455,-30.750826,43.563946,,,,,,,,,,,,,,,,,,,,,,,,,,,,,,,,,,,,,,,,,,,,,,,,,,,,,,,,,,,,,,,,,,,,,,,,,,,,,,,,,,,,,,,,,,,,,,,,,,,,,
1739356603.932142,1739356603.933077,113.000000,0.000000,4196.666504,4090.384521,4280.769043,3000.897461,4185.128418,4208.461426,4182.179688,4255.384766,4190.256348,4231.922852,4513.333496,4535.897461,4349.230957,4453.589844,6496.000000,0.000000,10.000000,,,,0.000000,4.000000,4.000000,4.000000,4.000000,4.000000,4.000000,4.000000,4.000000,4.000000,4.000000,4.000000,4.000000,4.000000,4.000000,100.000000,,,,,,,,,,,,,,,,,,,,,,,,,,,,,,,,,,,,,,,,,,,,,,,,,,,,,,,,,,,,,,,,,,,,,,,,,,,,,,,,,,,,,,,,,,,,,,,,,,,,,,,,,,,,,,,,,,,,,,,,,,,,,,,,,
1739356603.939950,1739356603.940785,114.000000,0.000000,4192.436035,4089.871826,4280.256348,3007.435791,4186.666504,4197.563965,4183.077148,4255.769043,4198.589844,4233.077148,4513.461426,4535.641113,4351.794922,4456.025879,4871.000000,0.000000,10.000000,,,,0.000000,4.000000,4.000000,4.000000,4.000000,4.000000,4.000000,4.000000,4.000000,4.000000,4.000000,4.000000,4.000000,4.000000,4.000000,100.000000,,,,,,,,,,,,,,,,,,,,,,,,,,,,,,,,,,,,,,,,,,,,,,,,,,,,,,,,,,,,,,,,,,,,,,,,,,,,,,,,,,,,,,,,,,,,,,,,,,,,,,,,,,,,,,,,,,,,,,,,,,,,,,,,,
1739356603.947758,1739356603.948593,115.000000,0.000000,4189.230957,4094.871826,4282.820313,3015.897461,4184.487305,4203.589844,4187.563965,4255.897461,4199.487305,4237.051270,4515.000000,4539.102539,4353.077148,4463.333496,5634.000000,0.000000,10.000000,,,,0.000000,4.000000,4.000000,4.000000,4.000000,4.000000,4.000000,4.000000,4.000000,4.000000,4.000000,4.000000,4.000000,4.000000,4.000000,100.000000,,,,,,,,,,,,,,,,,,,,,,,,,,,,,,,,,,,,,,,,,,,,,,,,,,,,,,,,,,,,,,,,,,,,,,,,,,,,,,,,,,,,,,,,,,,,,,,,,,,,,,,,,,,,,,,,,,,,,,,,,,,,,,,,,
1739356603.955566,1739356603.956301,116.000000,0.000000,4195.128418,4101.666504,4283.461426,3032.692383,4183.717773,4212.179688,4193.974121,4255.256348,4199.743652,4245.000000,4515.000000,4541.666504,4350.769043,4465.769043,5654.000000,0.000000,10.000000,,,,0.000000,4.000000,4.000000,4.000000,4.000000,4.000000,4.000000,4.000000,4.000000,4.000000,4.000000,4.000000,4.000000,4.000000,4.000000,100.000000,,,,,,,,,,,,,,,,,29.000000,0.000000,0.717513,0.024353,-0.681641,0.141235,0.922964,-0.259797,0.061043,-39.998310,-30.425743,43.590885,,,,,,,,,,,,,,,,,,,,,,,,,,,,,,,,,,,,,,,,,,,,,,,,,,,,,,,,,,,,,,,,,,,,,,,,,,,,,,,,,,,,,,,,,,,,,,,,,,,,,
1739356603.963374,1739356603.964109,117.000000,0.000000,4201.538574,4107.692383,4290.128418,3057.051270,4193.461426,4216.538574,4206.153809,4255.384766,4203.461426,4247.948730,4523.205078,4547.820313,4352.051270,4470.769043,6496.000000,0.000000,10.000000,,,,0.000000,4.000000,4.000000,4.000000,4.000000,4.000000,4.000000,4.000000,4.000000,4.000000,4.000000,4.000000,4.000000,4.000000,4.000000,100.000000,,,,,,,,,,,,,,,,,,,,,,,,,,,,,,,,,,,,,,,,,,,,,,,,,,,,,,,,,,,,,,,,,,,,,,,,,,,,,,,,,,,,,,,,,,,,,,,,,,,,,,,,,,,,,,,,,,,,,,,,,,,,,,,,,
1739356603.971182,1739356603.971817,118.000000,0.000000,4202.307617,4110.256348,4301.153809,3074.230713,4201.538574,4223.333496,4217.051270,4259.871582,4209.871582,4249.487305,4531.666504,4556.153809,4361.153809,4484.487305,4871.000000,0.000000,10.000000,,,,0.000000,4.000000,4.000000,4.000000,4.000000,4.000000,4.000000,4.000000,4.000000,4.000000,4.000000,4.000000,4.000000,4.000000,4.000000,100.000000,,,,,,,,,,,,,,,,,,,,,,,,,,,,,,,,,,,,,,,,,,,,,,,,,,,,,,,,,,,,,,,,,,,,,,,,,,,,,,,,,,,,,,,,,,,,,,,,,,,,,,,,,,,,,,,,,,,,,,,,,,,,,,,,,
1739356603.978990,1739356603.979725,119.000000,0.000000,4201.666504,4108.077148,4303.974121,3075.512939,4200.641113,4226.922852,4215.769043,4262.051270,4214.743652,4250.512695,4530.000000,4561.538574,4366.538574,4489.615234,5634.000000,0.000000,10.000000,,,,0.000000,4.000000,4.000000,4.000000,4.000000,4.000000,4.000000,4.000000,4.000000,4.000000,4.000000,4.000000,4.000000,4.000000,4.000000,100.000000,,,,,,,,,,,,,,,,,,,,,,,,,,,,,,,,,,,,,,,,,,,,,,,,,,,,,,,,,,,,,,,,,,,,,,,,,,,,,,,,,,,,,,,,,,,,,,,,,,,,,,,,,,,,,,,,,,,,,,,,,,,,,,,,,
1739356603.986798,1739356603.987534,120.000000,0.000000,4207.179688,4113.077148,4303.717773,3084.743652,4201.410156,4225.000000,4208.974121,4258.205078,4213.974121,4248.717773,4525.000000,4565.000000,4365.512695,4483.333496,5654.000000,0.000000,10.000000,,,,0.000000,4.000000,4.000000,4.000000,4.000000,4.000000,4.000000,4.000000,4.000000,4.000000,4.000000,4.000000,4.000000,4.000000,4.000000,100.000000,,,,,,,,,,,,,,,,,30.000000,0.000000,0.716669,0.025024,-0.682617,0.140686,0.956171,-0.228055,0.058113,-40.415146,-30.216503,43.365131,,,,,,,,,,,,,,,,,,,,,,,,,,,,,,,,24.506672,2.120294,2.331095,1.671040,1.104269,32.436958,2.953686,1.821787,1.180782,0.930668,8.115652,2.022089,3.798983,1.878479,1.061338,2391.546143,31.889618,37.903286,10.160106,3.501107,6.153530,1.122055,2.608180,1.432593,2.002540,5.417890,1.081768,2.184926,1.002618,1.918063,6.860681,4.587923,7.232220,2.980516,2.389574,1.546372,0.381279,0.396198,0.222134,0.166104,15.821512,2.330285,2.942287,0.995423,0.834757,8.048620,2.145031,2.042601,1.221664,0.804438,514.960144,44.492085,6.427231,2.810855,1.498452,11.062150,3.365908,4.654039,2.452112,1.415053,9.446353,1.377849,1.844150,0.910413,0.703106,12.923084,2.020082,2.352539,1.494218,0.970896
1739356603.994606,1739356603.995442,121.000000,0.000000,4215.128418,4124.358887,4307.692383,3109.615479,4203.717773,4223.846191,4205.000000,4255.000000,4215.384766,4253.717773,4523.461426,4568.077148,4372.307617,4485.000000,6496.000000,0.000000,10.000000,,,,0.000000,4.000000,4.000000,4.000000,4.000000,4.000000,4.000000,4.000000,4.000000,4.000000,4.000000,4.000000,4.000000,4.000000,4.000000,100.000000,,,,,,,,,,,,,,,,,,,,,,,,,,,,,,,,,,,,,,,,,,,,,,,,,,,,,,,,,,,,,,,,,,,,,,,,,,,,,,,,,,,,,,,,,,,,,,,,,,,,,,,,,,,,,,,,,,,,,,,,,,,,,,,,,
1739356604.002414,1739356604.003250,122.000000,0.000000,4218.461426,4128.077148,4310.769043,3124.615479,4205.769043,4218.846191,4202.820313,4255.897461,4217.436035,4262.948730,4521.410156,4567.692383,4382.563965,4488.974121,4871.000000,0.000000,10.000000,,,,0.000000,4.000000,4.000000,4.000000,4.000000,4.000000,4.000000,4.000000,4.000000,4.000000,4.000000,4.000000,4.000000,4.000000,4.000000,100.000000,,,,,,,,,,,,,,,,,,,,,,,,,,,,,,,,,,,,,,,,,,,,,,,,,,,,,,,,,,,,,,,,,,,,,,,,,,,,,,,,,,,,,,,,,,,,,,,,,,,,,,,,,,,,,,,,,,,,,,,,,,,,,,,,,
1739356604.010222,1739356604.011158,123.000000,0.000000,4213.333496,4123.974121,4309.358887,3124.358887,4203.974121,4212.307617,4197.820313,4256.153809,4206.922852,4257.436035,4509.615234,4563.461426,4378.077148,4483.974121,5634.000000,0.000000,10.000000,,,,0.000000,4.000000,4.000000,4.000000,4.000000,4.000000,4.000000,4.000000,4.000000,4.000000,4.000000,4.000000,4.000000,4.000000,4.000000,100.000000,,,,,,,,,,,,,,,,,,,,,,,,,,,,,,,,,,,,,,,,,,,,,,,,,,,,,,,,,,,,,,,,,,,,,,,,,,,,,,,,,,,,,,,,,,,,,,,,,,,,,,,,,,,,,,,,,,,,,,,,,,,,,,,,,
1739356604.018031,1739356604.019066,124.000000,0.000000,4207.948730,4123.077148,4309.871582,3140.000000,4201.282227,4214.358887,4197.051270,4256.153809,4202.436035,4252.563965,4501.282227,4563.974121,4372.307617,4482.179688,5654.000000,0.000000,10.000000,,,,0.000000,4.000000,4.000000,4.000000,4.000000,4.000000,4.000000,4.000000,4.000000,4.000000,4.000000,4.000000,4.000000,4.000000,4.000000,100.000000,,,,,,,,,,,,,,,,,31.000000,0.000000,0.715327,0.026001,-0.683899,0.141113,0.992309,-0.212917,0.037114,-40.523632,-30.161518,43.161949,,,,,,,,,,,,,,,,,,,,,,,,,,,,,,,,,,,,,,,,,,,,,,,,,,,,,,,,,,,,,,,,,,,,,,,,,,,,,,,,,,,,,,,,,,,,,,,,,,,,,
1739356604.025839,1739356604.026874,125.000000,0.000000,4207.051270,4126.794922,4312.051270,3160.000000,4206.922852,4219.102539,4208.461426,4258.589844,4214.743652,4263.205078,4506.282227,4572.436035,4378.077148,4486.282227,6496.000000,0.000000,10.000000,,,,0.000000,4.000000,4.000000,4.000000,4.000000,4.000000,4.000000,4.000000,4.000000,4.000000,4.000000,4.000000,4.000000,4.000000,4.000000,100.000000,,,,,,,,,,,,,,,,,,,,,,,,,,,,,,,,,,,,,,,,,,,,,,,,,,,,,,,,,,,,,,,,,,,,,,,,,,,,,,,,,,,,,,,,,,,,,,,,,,,,,,,,,,,,,,,,,,,,,,,,,,,,,,,,,
1739356604.033647,1739356604.034683,126.000000,0.000000,4206.538574,4128.077148,4310.897461,3159.230713,4212.179688,4218.589844,4216.922852,4260.512695,4217.948730,4267.436035,4508.974121,4573.461426,4378.717773,4481.794922,4871.000000,0.000000,10.000000,,,,0.000000,4.000000,4.000000,4.000000,4.000000,4.000000,4.000000,4.000000,4.000000,4.000000,4.000000,4.000000,4.000000,4.000000,4.000000,100.000000,,,,,,,,,,,,,,,,,,,,,,,,,,,,,,,,,,,,,,,,,,,,,,,,,,,,,,,,,,,,,,,,,,,,,,,,,,,,,,,,,,,,,,,,,,,,,,,,,,,,,,,,,,,,,,,,,,,,,,,,,,,,,,,,,
1739356604.041455,1739356604.042391,127.000000,0.000000,4203.205078,4127.948730,4307.179688,3161.410156,4205.769043,4217.820313,4208.717773,4260.256348,4211.282227,4260.384766,4500.897461,4566.922852,4374.358887,4473.205078,10.000000,0.000000,10.000000,,,,0.000000,4.000000,4.000000,4.000000,4.000000,4.000000,4.000000,4.000000,4.000000,4.000000,4.000000,4.000000,4.000000,4.000000,4.000000,100.000000,,,,,,,,,,,,,,,,,,,,,,,,,,,,,,,,,,,,,,,,,,,,,,,,,,,,,,,,,,,,,,,,,,,,,,,,,,,,,,,,,,,,,,,,,,,,,,,,,,,,,,,,,,,,,,,,,,,,,,,,,,,,,,,,,
1739356604.049263,1739356604.050199,0.000000,0.000000,4200.769043,4125.641113,4300.769043,3179.615479,4200.769043,4218.205078,4201.538574,4260.000000,4212.436035,4259.230957,4493.077148,4566.794922,4376.153809,4471.410156,4969.000000,0.000000,10.000000,,,,0.000000,4.000000,4.000000,4.000000,4.000000,4.000000,4.000000,4.000000,4.000000,4.000000,4.000000,4.000000,4.000000,4.000000,4.000000,100.000000,,,,,,,,,,,,,,,,,0.000000,0.000000,0.714106,0.026855,-0.684875,0.142395,0.965938,-0.215847,0.044927,-40.754601,-29.978701,43.112423,,,,,,,,,,,,,,,,,,,,,,,,,,,,,,,,,,,,,,,,,,,,,,,,,,,,,,,,,,,,,,,,,,,,,,,,,,,,,,,,,,,,,,,,,,,,,,,,,,,,,
1739356604.057071,1739356604.057907,1.000000,0.000000,4198.205078,4125.512695,4296.538574,3191.794922,4202.179688,4215.897461,4202.179688,4259.487305,4214.743652,4259.615234,4497.692383,4569.230957,4380.641113,4472.051270,5634.000000,0.000000,10.000000,,,,0.000000,4.000000,4.000000,4.000000,4.000000,4.000000,4.000000,4.000000,4.000000,4.000000,4.000000,4.000000,4.000000,4.000000,4.000000,100.000000,,,,,,,,,,,,,,,,,,,,,,,,,,,,,,,,,,,,,,,,,,,,,,,,,,,,,,,,,,,,,,,,,,,,,,,,,,,,,,,,,,,,,,,,,,,,,,,,,,,,,,,,,,,,,,,,,,,,,,,,,,,,,,,,,
1739356604.064879,1739356604.065715,2.000000,0.000000,4189.230957,4125.128418,4296.153809,3187.948730,4194.615234,4205.641113,4193.846191,4256.153809,4206.666504,4252.563965,4500.256348,4560.641113,4379.615234,4465.000000,5611.000000,0.000000,10.000000,,,,0.000000,4.000000,4.000000,4.000000,4.000000,4.000000,4.000000,4.000000,4.000000,4.000000,4.000000,4.000000,4.000000,4.000000,4.000000,100.000000,,,,,,,,,,,,,,,,,,,,,,,,,,,,,,,,,,,,,,,,,,,,,,,,,,,,,,,,,,,,,,,,,,,,,,,,,,,,,,,,,,,,,,,,,,,,,,,,,,,,,,,,,,,,,,,,,,,,,,,,,,,,,,,,,
1739356604.072687,1739356604.073423,3.000000,0.000000,4181.153809,4119.743652,4291.025879,3188.974365,4184.487305,4196.282227,4182.051270,4254.102539,4196.025879,4244.358887,4487.948730,4548.589844,4375.512695,4454.615234,5556.000000,0.000000,10.000000,,,,0.000000,4.000000,4.000000,4.000000,4.000000,4.000000,4.000000,4.000000,4.000000,4.000000,4.000000,4.000000,4.000000,4.000000,4.000000,100.000000,,,,,,,,,,,,,,,,,,,,,,,,,,,,,,,,,,,,,,,,,,,,,,,,,,,,,,,,,,,,,,,,,,,,,,,,,,,,,,,,,,,,,,,,,,,,,,,,,,,,,,,,,,,,,,,,,,,,,,,,,,,,,,,,,
1739356604.080495,1739356604.081231,4.000000,0.000000,4183.974121,4122.179688,4290.000000,3206.666748,4187.051270,4197.436035,4185.256348,4257.179688,4198.846191,4244.615234,4485.512695,4554.743652,4376.538574,4456.794922,5524.000000,0.000000,10.000000,,,,0.000000,4.000000,4.000000,4.000000,4.000000,4.000000,4.000000,4.000000,4.000000,4.000000,4.000000,4.000000,4.000000,4.000000,4.000000,100.000000,,,,,,,,,,,,,,,,,1.000000,0.000000,0.713594,0.027649,-0.685059,0.143921,0.971310,-0.238799,0.038579,-40.879143,-29.647497,43.017845,,,,,,,,,,,,,,,,,,,,,,,,,,,,,,,,,,,,,,,,,,,,,,,,,,,,,,,,,,,,,,,,,,,,,,,,,,,,,,,,,,,,,,,,,,,,,,,,,,,,,
1739356604.088303,1739356604.088939,5.000000,0.000000,4187.179688,4131.282227,4294.615234,3227.307617,4192.563965,4203.077148,4190.769043,4259.743652,4207.563965,4248.205078,4501.282227,4567.307617,4378.205078,4464.358887,5494.000000,0.000000,10.000000,,,,0.000000,4.000000,4.000000,4.000000,4.000000,4.000000,4.000000,4.000000,4.000000,4.000000,4.000000,4.000000,4.000000,4.000000,4.000000,100.000000,,,,,,,,,,,,,,,,,,,,,,,,,,,,,,,,,,,,,,,,,,,,,,,,,,,,,,,,,,,,,,,,,,,,,,,,,,,,,,,,,,,,,,,,,,,,,,,,,,,,,,,,,,,,,,,,,,,,,,,,,,,,,,,,,
1739356604.096111,1739356604.096747,6.000000,0.000000,4186.282227,4133.589844,4295.128418,3238.333252,4196.538574,4201.538574,4190.512695,4259.615234,4206.025879,4248.717773,4508.717773,4569.230957,4377.179688,4465.000000,5469.000000,0.000000,10.000000,,,,0.000000,4.000000,4.000000,4.000000,4.000000,4.000000,4.000000,4.000000,4.000000,4.000000,4.000000,4.000000,4.000000,4.000000,4.000000,100.000000,,,,,,,,,,,,,,,,,,,,,,,,,,,,,,,,,,,,,,,,,,,,,,,,,,,,,,,,,,,,,,,,,,,,,,,,,,,,,,,,,,,,,,,,,,,,,,,,,,,,,,,,,,,,,,,,,,,,,,,,,,,,,,,,,
1739356604.103919,1739356604.104455,7.000000,0.000000,4184.743652,4128.333496,4293.333496,3242.820557,4198.717773,4199.358887,4195.769043,4259.102539,4204.487305,4245.641113,4501.794922,4563.846191,4373.333496,4462.307617,2084.000000,0.000000,10.000000,,,,0.000000,4.000000,4.000000,4.000000,4.000000,4.000000,4.000000,4.000000,4.000000,4.000000,4.000000,4.000000,4.000000,4.000000,4.000000,100.000000,,,,,,,,,,,,,,,,,,,,,,,,,,,,,,,,,,,,,,,,,,,,,,,,,,,,,,,,,,,,,,,,,,,,,,,,,,,,,,,,,,,,,,,,,,,,,,,,,,,,,,,,,,,,,,,,,,,,,,,,,,,,,,,,,
1739356604.111728,1739356604.112263,8.000000,0.000000,4182.692383,4125.000000,4293.077148,3250.641113,4196.922852,4207.179688,4200.512695,4261.794922,4213.461426,4248.077148,4499.871582,4565.384766,4369.358887,4461.410156,5280.000000,0.000000,10.000000,,,,0.000000,4.000000,4.000000,4.000000,4.000000,4.000000,4.000000,4.000000,4.000000,4.000000,4.000000,4.000000,4.000000,4.000000,4.000000,100.000000,1.000000,8.333333,1.000000,1.000000,1.000000,0.000000,1.000000,1.000000,1.000000,4.000000,3.000000,1.000000,0.000000,1.000000,3.000000,3.000000,2.000000,0.000000,0.713618,0.028076,-0.684875,0.144592,0.972287,-0.237822,0.041997,-40.791229,-29.666080,42.999397,,,,,,,,,,,,,,,,,,,,,,,,,,,,,,,,27.614132,2.145477,2.183310,1.557575,0.945150,31.362221,3.524115,1.921911,1.224714,0.820238,10.370313,1.882796,3.541772,1.721370,0.918413,2250.412354,35.074173,42.311264,9.874705,3.432910,8.630501,1.557530,2.537003,1.273027,1.849120,7.883035,1.605101,2.357781,1.055292,1.820305,9.004166,4.924203,6.824891,2.596328,2.062413,1.898091,0.317695,0.417400,0.233078,0.150261,18.379526,2.047748,2.977457,1.016509,0.718042,10.445940,2.106409,2.207007,1.178947,0.682647,522.814453,42.028053,5.974748,2.792661,1.309118,13.454961,3.045697,4.535120,2.319942,1.202839,10.642921,1.392357,1.792226,0.937160,0.598417,15.178068,2.028679,2.318835,1.457772,0.834882
1739356604.119536,1739356604.119971,9.000000,0.000000,4183.461426,4132.563965,4295.897461,3265.512939,4202.179688,4217.179688,4201.922852,4266.410156,4220.000000,4257.563965,4505.897461,4571.922852,4371.538574,4468.589844,5599.000000,0.000000,10.000000,,,,0.000000,4.000000,4.000000,4.000000,4.000000,4.000000,4.000000,4.000000,4.000000,4.000000,4.000000,4.000000,4.000000,4.000000,4.000000,100.000000,,,,,,,,,,,,,,,,,,,,,,,,,,,,,,,,,,,,,,,,,,,,,,,,,,,,,,,,,,,,,,,,,,,,,,,,,,,,,,,,,,,,,,,,,,,,,,,,,,,,,,,,,,,,,,,,,,,,,,,,,,,,,,,,,
1739356604.127344,1739356604.127779,10.000000,0.000000,4189.487305,4144.102539,4306.410156,3281.666748,4212.692383,4219.102539,4211.794922,4269.743652,4219.743652,4263.205078,4508.461426,4576.410156,4377.692383,4478.461426,4856.000000,0.000000,10.000000,,,,0.000000,4.000000,4.000000,4.000000,4.000000,4.000000,4.000000,4.000000,4.000000,4.000000,4.000000,4.000000,4.000000,4.000000,4.000000,100.000000,,,,,,,,,,,,,,,,,,,,,,,,,,,,,,,,,,,,,,,,,,,,,,,,,,,,,,,,,,,,,,,,,,,,,,,,,,,,,,,,,,,,,,,,,,,,,,,,,,,,,,,,,,,,,,,,,,,,,,,,,,,,,,,,,
1739356604.135152,1739356604.135487,11.000000,0.000000,4189.871582,4143.717773,4309.743652,3284.487061,4208.974121,4214.871582,4214.102539,4268.717773,4218.205078,4258.205078,4505.000000,4578.846191,4378.589844,4476.025879,5617.000000,0.000000,10.000000,,,,0.000000,4.000000,4.000000,4.000000,4.000000,4.000000,4.000000,4.000000,4.000000,4.000000,4.000000,4.000000,4.000000,4.000000,4.000000,100.000000,,,,,,,,,,,,,,,,,,,,,,,,,,,,,,,,,,,,,,,,,,,,,,,,,,,,,,,,,,,,,,,,,,,,,,,,,,,,,,,,,,,,,,,,,,,,,,,,,,,,,,,,,,,,,,,,,,,,,,,,,,,,,,,,,
1739356604.142960,1739356604.143295,12.000000,0.000000,4184.102539,4137.179688,4299.102539,3283.718018,4200.000000,4214.487305,4203.589844,4263.974121,4215.256348,4248.333496,4500.128418,4574.871582,4376.666504,4468.846191,5646.000000,0.000000,10.000000,,,,0.000000,4.000000,4.000000,4.000000,4.000000,4.000000,4.000000,4.000000,4.000000,4.000000,4.000000,4.000000,4.000000,4.000000,4.000000,100.000000,,,,,,,,,,,,,,,,,3.000000,0.000000,0.714350,0.028931,-0.683960,0.145142,0.984495,-0.229032,0.060554,-40.862106,-29.582806,43.082790,,,,,,,,,,,,,,,,,,,,,,,,,,,,,,,,,,,,,,,,,,,,,,,,,,,,,,,,,,,,,,,,,,,,,,,,,,,,,,,,,,,,,,,,,,,,,,,,,,,,,
1739356604.150768,1739356604.151003,13.000000,0.000000,4182.436035,4136.153809,4294.102539,3291.923096,4200.384766,4215.897461,4204.230957,4262.948730,4212.820313,4247.820313,4497.948730,4570.000000,4377.563965,4469.615234,6466.000000,0.000000,10.000000,,,,0.000000,4.000000,4.000000,4.000000,4.000000,4.000000,4.000000,4.000000,4.000000,4.000000,4.000000,4.000000,4.000000,4.000000,4.000000,100.000000,,,,,,,,,,,,,,,,,,,,,,,,,,,,,,,,,,,,,,,,,,,,,,,,,,,,,,,,,,,,,,,,,,,,,,,,,,,,,,,,,,,,,,,,,,,,,,,,,,,,,,,,,,,,,,,,,,,,,,,,,,,,,,,,,
1739356604.158576,1739356604.158911,14.000000,0.000000,4182.051270,4135.384766,4296.410156,3298.589844,4202.948730,4214.487305,4210.512695,4264.487305,4216.538574,4254.615234,4496.666504,4571.153809,4374.230957,4468.205078,4856.000000,0.000000,10.000000,,,,0.000000,4.000000,4.000000,4.000000,4.000000,4.000000,4.000000,4.000000,4.000000,4.000000,4.000000,4.000000,4.000000,4.000000,4.000000,100.000000,,,,,,,,,,,,,,,,,,,,,,,,,,,,,,,,,,,,,,,,,,,,,,,,,,,,,,,,,,,,,,,,,,,,,,,,,,,,,,,,,,,,,,,,,,,,,,,,,,,,,,,,,,,,,,,,,,,,,,,,,,,,,,,,,
1739356604.166384,1739356604.166719,15.000000,0.000000,4191.666504,4142.692383,4305.128418,3311.410156,4208.077148,4221.410156,4212.948730,4267.563965,4224.743652,4262.051270,4503.846191,4581.666504,4378.077148,4476.666504,5617.000000,0.000000,10.000000,,,,0.000000,4.000000,4.000000,4.000000,4.000000,4.000000,4.000000,4.000000,4.000000,4.000000,4.000000,4.000000,4.000000,4.000000,4.000000,100.000000,,,,,,,,,,,,,,,,,,,,,,,,,,,,,,,,,,,,,,,,,,,,,,,,,,,,,,,,,,,,,,,,,,,,,,,,,,,,,,,,,,,,,,,,,,,,,,,,,,,,,,,,,,,,,,,,,,,,,,,,,,,,,,,,,
1739356604.174192,1739356604.174627,16.000000,0.000000,4211.153809,4156.666504,4321.025879,3334.615479,4217.307617,4231.025879,4220.897461,4271.282227,4234.358887,4275.000000,4521.025879,4596.282227,4394.871582,4496.025879,0.000000,0.000000,10.000000,,,,0.000000,4.000000,4.000000,4.000000,4.000000,4.000000,4.000000,4.000000,4.000000,4.000000,4.000000,4.000000,4.000000,4.000000,4.000000,100.000000,,,,,,,,,,,,,,,,,4.000000,0.000000,0.715652,0.029297,-0.682556,0.145264,0.990844,-0.226102,0.062508,-40.942562,-29.407858,43.274509,,,,,,,,,,,,,,,,,,,,,,,,,,,,,,,,,,,,,,,,,,,,,,,,,,,,,,,,,,,,,,,,,,,,,,,,,,,,,,,,,,,,,,,,,,,,,,,,,,,,,
1739356604.182000,1739356604.182436,17.000000,0.000000,4217.179688,4161.282227,4326.538574,3343.846191,4223.205078,4231.025879,4227.307617,4269.871582,4236.282227,4282.436035,4523.077148,4602.179688,4401.153809,4498.333496,0.000000,0.000000,10.000000,,,,0.000000,4.000000,4.000000,4.000000,4.000000,4.000000,4.000000,4.000000,4.000000,4.000000,4.000000,4.000000,4.000000,4.000000,4.000000,100.000000,,,,,,,,,,,,,,,,,,,,,,,,,,,,,,,,,,,,,,,,,,,,,,,,,,,,,,,,,,,,,,,,,,,,,,,,,,,,,,,,,,,,,,,,,,,,,,,,,,,,,,,,,,,,,,,,,,,,,,,,,,,,,,,,,
1739356604.189808,1739356604.190343,18.000000,0.000000,4211.410156,4163.333496,4320.384766,3345.000000,4227.051270,4232.948730,4225.641113,4263.974121,4229.871582,4274.487305,4507.179688,4597.948730,4392.820313,4491.922852,0.000000,0.000000,10.000000,,,,0.000000,4.000000,4.000000,4.000000,4.000000,4.000000,4.000000,4.000000,4.000000,4.000000,4.000000,4.000000,4.000000,4.000000,4.000000,100.000000,,,,,,,,,,,,,,,,,,,,,,,,,,,,,,,,,,,,,,,,,,,,,,,,,,,,,,,,,,,,,,,,,,,,,,,,,,,,,,,,,,,,,,,,,,,,,,,,,,,,,,,,,,,,,,,,,,,,,,,,,,,,,,,,,
1739356604.197616,1739356604.198151,19.000000,0.000000,4216.666504,4171.666504,4322.948730,3361.410156,4236.666504,4246.025879,4233.461426,4266.153809,4229.102539,4271.282227,4503.846191,4599.102539,4394.358887,4500.000000,0.000000,0.000000,10.000000,,,,0.000000,4.000000,4.000000,4.000000,4.000000,4.000000,4.000000,4.000000,4.000000,4.000000,4.000000,4.000000,4.000000,4.000000,4.000000,100.000000,,,,,,,,,,,,,,,,,,,,,,,,,,,,,,,,,,,,,,,,,,,,,,,,,,,,,,,,,,,,,,,,,,,,,,,,,,,,,,,,,,,,,,,,,,,,,,,,,,,,,,,,,,,,,,,,,,,,,,,,,,,,,,,,,
1739356604.205424,1739356604.206059,20.000000,0.000000,4220.000000,4172.948730,4329.615234,3377.692383,4245.769043,4253.077148,4245.128418,4272.692383,4236.025879,4281.282227,4513.717773,4607.948730,4404.230957,4503.717773,0.000000,0.000000,10.000000,,,,0.000000,4.000000,4.000000,4.000000,4.000000,4.000000,4.000000,4.000000,4.000000,4.000000,4.000000,4.000000,4.000000,4.000000,4.000000,100.000000,,,,,,,,,,,,,,,,,5.000000,0.000000,0.717169,0.029419,-0.680969,0.145203,0.933708,-0.195336,0.088390,-40.931637,-29.333740,43.313725,,,,,,,,,,,,,,,,,,,,,,,,,,,,,,,,,,,,,,,,,,,,,,,,,,,,,,,,,,,,,,,,,,,,,,,,,,,,,,,,,,,,,,,,,,,,,,,,,,,,,
