title:Yousef Rihani1739355830351, start timestamp:1739355831.822466, stop timestamp:1739355906.561437, headset type:EPOCX, headset serial:E50208A5, headset firmware:720, channels:168, sampling rate:eeg_128;mot_32;pm_0.1;pow_8, samples:9573      , version:2.2, 
Timestamp,OriginalTimestamp,EEG.Counter,EEG.Interpolated,EEG.AF3,EEG.F7,EEG.F3,EEG.FC5,EEG.T7,EEG.P7,EEG.O1,EEG.O2,EEG.P8,EEG.T8,EEG.FC6,EEG.F4,EEG.F8,EEG.AF4,EEG.RawCq,EEG.Battery,EEG.BatteryPercent,MarkerIndex,MarkerType,MarkerValueInt,EEG.MarkerHardware,CQ.AF3,CQ.F7,CQ.F3,CQ.FC5,CQ.T7,CQ.P7,CQ.O1,CQ.O2,CQ.P8,CQ.T8,CQ.FC6,CQ.F4,CQ.F8,CQ.AF4,CQ.Overall,EQ.SampleRateQuality,EQ.OVERALL,EQ.AF3,EQ.F7,EQ.F3,EQ.FC5,EQ.T7,EQ.P7,EQ.O1,EQ.O2,EQ.P8,EQ.T8,EQ.FC6,EQ.F4,EQ.F8,EQ.AF4,MOT.CounterMems,MOT.InterpolatedMems,MOT.Q0,MOT.Q1,MOT.Q2,MOT.Q3,MOT.AccX,MOT.AccY,MOT.AccZ,MOT.MagX,MOT.MagY,MOT.MagZ,PM.Attention.IsActive,PM.Attention.Scaled,PM.Attention.Raw,PM.Attention.Min,PM.Attention.Max,PM.Engagement.IsActive,PM.Engagement.Scaled,PM.Engagement.Raw,PM.Engagement.Min,PM.Engagement.Max,PM.Excitement.IsActive,PM.Excitement.Scaled,PM.Excitement.Raw,PM.Excitement.Min,PM.Excitement.Max,PM.LongTermExcitement,PM.Stress.IsActive,PM.Stress.Scaled,PM.Stress.Raw,PM.Stress.Min,PM.Stress.Max,PM.Relaxation.IsActive,PM.Relaxation.Scaled,PM.Relaxation.Raw,PM.Relaxation.Min,PM.Relaxation.Max,PM.Interest.IsActive,PM.Interest.Scaled,PM.Interest.Raw,PM.Interest.Min,PM.Interest.Max,POW.AF3.Theta,POW.AF3.Alpha,POW.AF3.BetaL,POW.AF3.BetaH,POW.AF3.Gamma,POW.F7.Theta,POW.F7.Alpha,POW.F7.BetaL,POW.F7.BetaH,POW.F7.Gamma,POW.F3.Theta,POW.F3.Alpha,POW.F3.BetaL,POW.F3.BetaH,POW.F3.Gamma,POW.FC5.Theta,POW.FC5.Alpha,POW.FC5.BetaL,POW.FC5.BetaH,POW.FC5.Gamma,POW.T7.Theta,POW.T7.Alpha,POW.T7.BetaL,POW.T7.BetaH,POW.T7.Gamma,POW.P7.Theta,POW.P7.Alpha,POW.P7.BetaL,POW.P7.BetaH,POW.P7.Gamma,POW.O1.Theta,POW.O1.Alpha,POW.O1.BetaL,POW.O1.BetaH,POW.O1.Gamma,POW.O2.Theta,POW.O2.Alpha,POW.O2.BetaL,POW.O2.BetaH,POW.O2.Gamma,POW.P8.Theta,POW.P8.Alpha,POW.P8.BetaL,POW.P8.BetaH,POW.P8.Gamma,POW.T8.Theta,POW.T8.Alpha,POW.T8.BetaL,POW.T8.BetaH,POW.T8.Gamma,POW.FC6.Theta,POW.FC6.Alpha,POW.FC6.BetaL,POW.FC6.BetaH,POW.FC6.Gamma,POW.F4.Theta,POW.F4.Alpha,POW.F4.BetaL,POW.F4.BetaH,POW.F4.Gamma,POW.F8.Theta,POW.F8.Alpha,POW.F8.BetaL,POW.F8.BetaH,POW.F8.Gamma,POW.AF4.Theta,POW.AF4.Alpha,POW.AF4.BetaL,POW.AF4.BetaH,POW.AF4.Gamma
1739355831.822466,1739355831.823106,43.000000,0.000000,4266.538574,4245.384766,4300.128418,4299.230957,4244.871582,4216.794922,4240.769043,4255.384766,4234.615234,4232.179688,4538.461426,4490.512695,4377.692383,4477.436035,0.000000,0.000000,13.000000,,,,0.000000,4.000000,4.000000,4.000000,4.000000,4.000000,4.000000,4.000000,4.000000,4.000000,4.000000,4.000000,4.000000,4.000000,4.000000,100.000000,,,,,,,,,,,,,,,,,,,,,,,,,,,,,,,,,,,,,,,,,,,,,,,,,,,,,,,,,,,,,,,,,,,,,,,,,,,,,,,,,,,,,,,,,,,,,,,,,,,,,,,,,,,,,,,,,,,,,,,,,,,,,,,,,
1739355831.830274,1739355831.830814,44.000000,0.000000,4265.128418,4246.282227,4293.846191,4293.077148,4241.666504,4217.051270,4241.282227,4256.922852,4234.358887,4239.487305,4540.769043,4489.871582,4379.358887,4473.205078,0.000000,0.000000,13.000000,,,,0.000000,4.000000,4.000000,4.000000,4.000000,4.000000,4.000000,4.000000,4.000000,4.000000,4.000000,4.000000,4.000000,4.000000,4.000000,100.000000,,,,,,,,,,,,,,,,,11.000000,0.000000,0.712196,0.021973,-0.681580,0.166565,0.974728,-0.198755,0.067879,-41.199158,-30.018465,44.730167,,,,,,,,,,,,,,,,,,,,,,,,,,,,,,,,,,,,,,,,,,,,,,,,,,,,,,,,,,,,,,,,,,,,,,,,,,,,,,,,,,,,,,,,,,,,,,,,,,,,,
1739355831.838082,1739355831.838722,45.000000,0.000000,4282.563965,4270.384766,4306.666504,4311.410156,4252.307617,4226.410156,4250.256348,4264.230957,4242.307617,4250.256348,4553.333496,4508.333496,4398.846191,4486.282227,0.000000,0.000000,13.000000,,,,0.000000,4.000000,4.000000,4.000000,4.000000,4.000000,4.000000,4.000000,4.000000,4.000000,4.000000,4.000000,4.000000,4.000000,4.000000,100.000000,,,,,,,,,,,,,,,,,,,,,,,,,,,,,,,,,,,,,,,,,,,,,,,,,,,,,,,,,,,,,,,,,,,,,,,,,,,,,,,,,,,,,,,,,,,,,,,,,,,,,,,,,,,,,,,,,,,,,,,,,,,,,,,,,
1739355831.845890,1739355831.846530,46.000000,0.000000,4286.410156,4279.487305,4313.333496,4315.897461,4251.794922,4221.666504,4240.384766,4257.563965,4234.743652,4238.333496,4545.897461,4507.948730,4392.692383,4490.384766,0.000000,0.000000,13.000000,,,,0.000000,4.000000,4.000000,4.000000,4.000000,4.000000,4.000000,4.000000,4.000000,4.000000,4.000000,4.000000,4.000000,4.000000,4.000000,100.000000,,,,,,,,,,,,,,,,,,,,,,,,,,,,,,,,,,,,,,,,,,,,,,,,,,,,,,,,,,,,,,,,,,,,,,,,,,,,,,,,,,,,,,,,,,,,,,,,,,,,,,,,,,,,,,,,,,,,,,,,,,,,,,,,,
1739355831.853698,1739355831.854438,47.000000,0.000000,4289.615234,4280.641113,4315.384766,4318.333496,4250.512695,4219.871582,4232.179688,4250.128418,4224.230957,4226.922852,4537.051270,4503.589844,4382.051270,4492.179688,0.000000,0.000000,13.000000,,,,0.000000,4.000000,4.000000,4.000000,4.000000,4.000000,4.000000,4.000000,4.000000,4.000000,4.000000,4.000000,4.000000,4.000000,4.000000,100.000000,,,,,,,,,,,,,,,,,,,,,,,,,,,,,,,,,,,,,,,,,,,,,,,,,,,,,,,,,,,,,,,,,,,,,,,,,,,,,,,,,,,,,,,,,,,,,,,,,,,,,,,,,,,,,,,,,,,,,,,,,,,,,,,,,
1739355831.861507,1739355831.862246,48.000000,0.000000,4284.871582,4272.179688,4307.051270,4315.128418,4245.897461,4213.461426,4222.692383,4247.692383,4206.794922,4210.256348,4525.384766,4489.102539,4378.205078,4483.333496,0.000000,0.000000,13.000000,,,,0.000000,4.000000,4.000000,4.000000,4.000000,4.000000,4.000000,4.000000,4.000000,4.000000,4.000000,4.000000,4.000000,4.000000,4.000000,100.000000,,,,,,,,,,,,,,,,,12.000000,0.000000,0.711972,0.022095,-0.681824,0.166504,0.967892,-0.202661,0.070809,-41.212574,-30.133286,44.707153,,,,,,,,,,,,,,,,,,,,,,,,,,,,,,,,,,,,,,,,,,,,,,,,,,,,,,,,,,,,,,,,,,,,,,,,,,,,,,,,,,,,,,,,,,,,,,,,,,,,,
1739355831.869315,1739355831.870154,49.000000,0.000000,4280.000000,4267.820313,4303.077148,4311.153809,4239.871582,4206.794922,4216.410156,4251.153809,4204.487305,4203.589844,4522.820313,4481.922852,4381.794922,4478.846191,0.000000,0.000000,13.000000,,,,0.000000,4.000000,4.000000,4.000000,4.000000,4.000000,4.000000,4.000000,4.000000,4.000000,4.000000,4.000000,4.000000,4.000000,4.000000,100.000000,,,,,,,,,,,,,,,,,,,,,,,,,,,,,,,,,,,,,,,,,,,,,,,,,,,,,,,,,,,,,,,,,,,,,,,,,,,,,,,,,,,,,,,,,,,,,,,,,,,,,,,,,,,,,,,,,,,,,,,,,,,,,,,,,
1739355831.877123,1739355831.877963,50.000000,0.000000,4298.333496,4286.538574,4321.922852,4329.871582,4249.487305,4219.487305,4231.666504,4259.743652,4233.333496,4231.410156,4543.717773,4504.615234,4399.230957,4497.820313,0.000000,0.000000,13.000000,,,,0.000000,4.000000,4.000000,4.000000,4.000000,4.000000,4.000000,4.000000,4.000000,4.000000,4.000000,4.000000,4.000000,4.000000,4.000000,100.000000,,,,,,,,,,,,,,,,,,,,,,,,,,,,,,,,,,,,,,,,,,,,,,,,,,,,,,,,,,,,,,,,,,,,,,,,,,,,,,,,,,,,,,,,,,,,,,,,,,,,,,,,,,,,,,,,,,,,,,,,,,,,,,,,,
1739355831.884931,1739355831.885871,51.000000,0.000000,4301.153809,4287.692383,4318.974121,4330.000000,4251.666504,4219.230957,4234.102539,4257.179688,4240.512695,4245.641113,4545.641113,4502.692383,4398.974121,4499.743652,0.000000,0.000000,13.000000,,,,0.000000,4.000000,4.000000,4.000000,4.000000,4.000000,4.000000,4.000000,4.000000,4.000000,4.000000,4.000000,4.000000,4.000000,4.000000,100.000000,,,,,,,,,,,,,,,,,,,,,,,,,,,,,,,,,,,,,,,,,,,,,,,,,,,,,,,,,,,,,,,,,,,,,,,,,,,,,,,,,,,,,,,,,,,,,,,,,,,,,,,,,,,,,,,,,,,,,,,,,,,,,,,,,
1739355831.892739,1739355831.893679,52.000000,0.000000,4282.051270,4273.205078,4295.769043,4311.153809,4245.128418,4212.051270,4228.461426,4252.436035,4229.615234,4238.717773,4533.589844,4482.179688,4390.897461,4484.743652,0.000000,0.000000,13.000000,,,,0.000000,4.000000,4.000000,4.000000,4.000000,4.000000,4.000000,4.000000,4.000000,4.000000,4.000000,4.000000,4.000000,4.000000,4.000000,100.000000,,,,,,,,,,,,,,,,,13.000000,0.000000,0.711816,0.022400,-0.682007,0.166382,0.974240,-0.190941,0.063973,-41.224651,-30.103291,44.736439,,,,,,,,,,,,,,,,,,,,,,,,,,,,,,,,,,,,,,,,,,,,,,,,,,,,,,,,,,,,,,,,,,,,,,,,,,,,,,,,,,,,,,,,,,,,,,,,,,,,,
1739355831.900547,1739355831.901587,53.000000,0.000000,4284.743652,4279.871582,4299.358887,4321.410156,4252.307617,4228.077148,4244.871582,4257.948730,4240.641113,4248.205078,4543.846191,4492.948730,4402.948730,4485.897461,0.000000,0.000000,13.000000,,,,0.000000,4.000000,4.000000,4.000000,4.000000,4.000000,4.000000,4.000000,4.000000,4.000000,4.000000,4.000000,4.000000,4.000000,4.000000,100.000000,,,,,,,,,,,,,,,,,,,,,,,,,,,,,,,,,,,,,,,,,,,,,,,,,,,,,,,,,,,,,,,,,,,,,,,,,,,,,,,,,,,,,,,,,,,,,,,,,,,,,,,,,,,,,,,,,,,,,,,,,,,,,,,,,
1739355831.908355,1739355831.909395,54.000000,0.000000,4277.563965,4270.000000,4301.538574,4321.282227,4247.179688,4224.230957,4243.205078,4251.922852,4232.179688,4235.512695,4538.077148,4486.538574,4390.641113,4472.948730,0.000000,0.000000,13.000000,,,,0.000000,4.000000,4.000000,4.000000,4.000000,4.000000,4.000000,4.000000,4.000000,4.000000,4.000000,4.000000,4.000000,4.000000,4.000000,100.000000,,,,,,,,,,,,,,,,,,,,,,,,,,,,,,,,,,,,,,,,,,,,,,,,,,,,,,,,,,,,,,,,,,,,,,,,,,,,,,,,,,,,,,,,,,,,,,,,,,,,,,,,,,,,,,,,,,,,,,,,,,,,,,,,,
1739355831.916163,1739355831.917103,55.000000,0.000000,4263.333496,4251.282227,4294.615234,4303.974121,4235.000000,4209.230957,4229.743652,4246.410156,4215.897461,4214.358887,4525.128418,4471.666504,4370.384766,4461.922852,0.000000,0.000000,13.000000,,,,0.000000,4.000000,4.000000,4.000000,4.000000,4.000000,4.000000,4.000000,4.000000,4.000000,4.000000,4.000000,4.000000,4.000000,4.000000,100.000000,,,,,,,,,,,,,,,,,,,,,,,,,,,,,,,,,,,,,,,,,,,,,,,,,,,,,,,,,,,,,,,,,,,,,,,,,,,,,,,,,,,,,,,,,,,,,,,,,,,,,,,,,,,,,,,,,,,,,,,,,,,,,,,,,
1739355831.923971,1739355831.924911,56.000000,0.000000,4282.948730,4264.230957,4308.333496,4317.179688,4245.512695,4226.410156,4248.717773,4256.025879,4238.077148,4237.436035,4545.384766,4499.487305,4386.153809,4483.974121,0.000000,0.000000,13.000000,,,,0.000000,4.000000,4.000000,4.000000,4.000000,4.000000,4.000000,4.000000,4.000000,4.000000,4.000000,4.000000,4.000000,4.000000,4.000000,100.000000,,,,,,,,,,,,,,,,,14.000000,0.000000,0.711764,0.022644,-0.682068,0.166321,0.978635,-0.181174,0.067391,-41.252186,-30.092960,44.729462,,,,,,,,,,,,,,,,,,,,,,,,,,,,,,,,2.751357,1.648677,1.452801,1.797588,1.927043,1.647769,1.270972,1.168680,1.674354,1.513196,1.775183,1.377824,1.134484,1.308632,1.396025,0.949583,1.426968,0.855964,1.404225,1.732131,0.717276,0.759686,1.172303,1.299606,1.433488,0.494414,0.515275,1.348350,1.303189,1.324830,0.799216,1.857165,1.526179,1.515615,1.447325,0.149352,0.270777,0.136480,0.210533,0.306314,1.176571,1.321778,1.392835,1.738188,1.657199,3.003626,0.917554,1.337969,1.897623,1.850975,1.946729,1.107071,1.323520,1.794490,1.538968,3.420274,2.195838,1.752340,2.236043,2.360333,3.637217,1.368548,1.338658,1.357730,1.433248,2.600426,1.345663,1.367356,1.754455,1.659049
1739355831.931779,1739355831.932619,57.000000,0.000000,4291.410156,4267.692383,4311.666504,4323.077148,4247.563965,4232.307617,4257.307617,4253.333496,4249.871582,4252.307617,4551.666504,4508.461426,4390.000000,4489.871582,0.000000,0.000000,13.000000,,,,0.000000,4.000000,4.000000,4.000000,4.000000,4.000000,4.000000,4.000000,4.000000,4.000000,4.000000,4.000000,4.000000,4.000000,4.000000,100.000000,,,,,,,,,,,,,,,,,,,,,,,,,,,,,,,,,,,,,,,,,,,,,,,,,,,,,,,,,,,,,,,,,,,,,,,,,,,,,,,,,,,,,,,,,,,,,,,,,,,,,,,,,,,,,,,,,,,,,,,,,,,,,,,,,
1739355831.939587,1739355831.940427,58.000000,0.000000,4262.307617,4243.717773,4290.128418,4293.461426,4225.512695,4208.974121,4232.179688,4242.307617,4228.846191,4228.205078,4524.487305,4476.410156,4367.179688,4468.205078,0.000000,0.000000,13.000000,,,,0.000000,4.000000,4.000000,4.000000,4.000000,4.000000,4.000000,4.000000,4.000000,4.000000,4.000000,4.000000,4.000000,4.000000,4.000000,100.000000,,,,,,,,,,,,,,,,,,,,,,,,,,,,,,,,,,,,,,,,,,,,,,,,,,,,,,,,,,,,,,,,,,,,,,,,,,,,,,,,,,,,,,,,,,,,,,,,,,,,,,,,,,,,,,,,,,,,,,,,,,,,,,,,,
1739355831.947395,1739355831.948135,59.000000,0.000000,4256.922852,4242.692383,4287.436035,4287.307617,4221.538574,4207.948730,4226.410156,4238.717773,4228.717773,4224.743652,4519.743652,4470.384766,4369.230957,4470.512695,0.000000,0.000000,13.000000,,,,0.000000,4.000000,4.000000,4.000000,4.000000,4.000000,4.000000,4.000000,4.000000,4.000000,4.000000,4.000000,4.000000,4.000000,4.000000,100.000000,,,,,,,,,,,,,,,,,,,,,,,,,,,,,,,,,,,,,,,,,,,,,,,,,,,,,,,,,,,,,,,,,,,,,,,,,,,,,,,,,,,,,,,,,,,,,,,,,,,,,,,,,,,,,,,,,,,,,,,,,,,,,,,,,
1739355831.955204,1739355831.955943,60.000000,0.000000,4281.153809,4261.282227,4300.000000,4311.153809,4236.538574,4217.948730,4235.128418,4218.333496,4239.358887,4245.000000,4528.333496,4484.230957,4380.512695,4481.153809,0.000000,0.000000,13.000000,,,,0.000000,4.000000,4.000000,4.000000,4.000000,4.000000,4.000000,4.000000,4.000000,4.000000,4.000000,4.000000,4.000000,4.000000,4.000000,100.000000,,,,,,,,,,,,,,,,,15.000000,0.000000,0.711674,0.022766,-0.682068,0.166687,0.972775,-0.197290,0.065438,-41.226967,-30.050331,44.773182,,,,,,,,,,,,,,,,,,,,,,,,,,,,,,,,,,,,,,,,,,,,,,,,,,,,,,,,,,,,,,,,,,,,,,,,,,,,,,,,,,,,,,,,,,,,,,,,,,,,,
1739355831.963012,1739355831.963651,61.000000,0.000000,4271.153809,4250.897461,4291.410156,4304.230957,4228.461426,4195.512695,4208.846191,4198.333496,4214.743652,4227.692383,4509.487305,4469.358887,4363.846191,4463.589844,0.000000,0.000000,13.000000,,,,0.000000,4.000000,4.000000,4.000000,4.000000,4.000000,4.000000,4.000000,4.000000,4.000000,4.000000,4.000000,4.000000,4.000000,4.000000,100.000000,,,,,,,,,,,,,,,,,,,,,,,,,,,,,,,,,,,,,,,,,,,,,,,,,,,,,,,,,,,,,,,,,,,,,,,,,,,,,,,,,,,,,,,,,,,,,,,,,,,,,,,,,,,,,,,,,,,,,,,,,,,,,,,,,
1739355831.970820,1739355831.971459,62.000000,0.000000,4268.974121,4250.128418,4297.563965,4306.282227,4226.410156,4188.589844,4198.333496,4225.384766,4204.487305,4212.436035,4519.615234,4477.948730,4370.256348,4473.077148,0.000000,0.000000,13.000000,,,,0.000000,4.000000,4.000000,4.000000,4.000000,4.000000,4.000000,4.000000,4.000000,4.000000,4.000000,4.000000,4.000000,4.000000,4.000000,100.000000,,,,,,,,,,,,,,,,,,,,,,,,,,,,,,,,,,,,,,,,,,,,,,,,,,,,,,,,,,,,,,,,,,,,,,,,,,,,,,,,,,,,,,,,,,,,,,,,,,,,,,,,,,,,,,,,,,,,,,,,,,,,,,,,,
1739355831.978628,1739355831.979168,63.000000,0.000000,4300.384766,4277.436035,4325.769043,4334.871582,4247.820313,4213.589844,4223.077148,4261.025879,4227.051270,4231.410156,4558.205078,4516.282227,4399.487305,4512.692383,0.000000,0.000000,13.000000,,,,0.000000,4.000000,4.000000,4.000000,4.000000,4.000000,4.000000,4.000000,4.000000,4.000000,4.000000,4.000000,4.000000,4.000000,4.000000,100.000000,,,,,,,,,,,,,,,,,,,,,,,,,,,,,,,,,,,,,,,,,,,,,,,,,,,,,,,,,,,,,,,,,,,,,,,,,,,,,,,,,,,,,,,,,,,,,,,,,,,,,,,,,,,,,,,,,,,,,,,,,,,,,,,,,
1739355831.986436,1739355831.986975,64.000000,0.000000,4299.615234,4276.666504,4324.743652,4332.692383,4248.077148,4224.615234,4228.589844,4256.666504,4227.563965,4233.333496,4555.512695,4516.666504,4397.436035,4509.871582,5050.000000,0.000000,13.000000,,,,0.000000,4.000000,4.000000,4.000000,4.000000,4.000000,4.000000,4.000000,4.000000,4.000000,4.000000,4.000000,4.000000,4.000000,4.000000,100.000000,,,,,,,,,,,,,,,,,16.000000,0.000000,0.711560,0.023132,-0.682190,0.166626,0.972775,-0.193383,0.072763,-41.120937,-29.961966,44.595863,,,,,,,,,,,,,,,,,,,,,,,,,,,,,,,,,,,,,,,,,,,,,,,,,,,,,,,,,,,,,,,,,,,,,,,,,,,,,,,,,,,,,,,,,,,,,,,,,,,,,
1739355831.994244,1739355831.994684,65.000000,0.000000,4271.025879,4248.077148,4298.974121,4304.615234,4229.230957,4213.589844,4221.538574,4243.717773,4207.563965,4210.641113,4529.615234,4484.358887,4376.282227,4474.871582,5594.000000,0.000000,13.000000,,,,0.000000,4.000000,4.000000,4.000000,4.000000,4.000000,4.000000,4.000000,4.000000,4.000000,4.000000,4.000000,4.000000,4.000000,4.000000,100.000000,,,,,,,,,,,,,,,,,,,,,,,,,,,,,,,,,,,,,,,,,,,,,,,,,,,,,,,,,,,,,,,,,,,,,,,,,,,,,,,,,,,,,,,,,,,,,,,,,,,,,,,,,,,,,,,,,,,,,,,,,,,,,,,,,
1739355832.002052,1739355832.002492,66.000000,0.000000,4265.641113,4239.871582,4295.512695,4300.512695,4233.205078,4211.794922,4237.692383,4245.000000,4209.615234,4207.179688,4529.871582,4475.128418,4370.769043,4467.948730,5607.000000,0.000000,13.000000,,,,0.000000,4.000000,4.000000,4.000000,4.000000,4.000000,4.000000,4.000000,4.000000,4.000000,4.000000,4.000000,4.000000,4.000000,4.000000,100.000000,,,,,,,,,,,,,,,,,,,,,,,,,,,,,,,,,,,,,,,,,,,,,,,,,,,,,,,,,,,,,,,,,,,,,,,,,,,,,,,,,,,,,,,,,,,,,,,,,,,,,,,,,,,,,,,,,,,,,,,,,,,,,,,,,
1739355832.009860,1739355832.010200,67.000000,0.000000,4278.077148,4253.717773,4310.769043,4315.769043,4250.897461,4230.897461,4260.256348,4247.948730,4234.230957,4231.666504,4544.487305,4496.410156,4379.743652,4485.641113,5542.000000,0.000000,13.000000,,,,0.000000,4.000000,4.000000,4.000000,4.000000,4.000000,4.000000,4.000000,4.000000,4.000000,4.000000,4.000000,4.000000,4.000000,4.000000,100.000000,,,,,,,,,,,,,,,,,,,,,,,,,,,,,,,,,,,,,,,,,,,,,,,,,,,,,,,,,,,,,,,,,,,,,,,,,,,,,,,,,,,,,,,,,,,,,,,,,,,,,,,,,,,,,,,,,,,,,,,,,,,,,,,,,
1739355832.017668,1739355832.018008,68.000000,0.000000,4262.820313,4241.666504,4297.436035,4300.128418,4237.179688,4231.025879,4247.948730,4245.000000,4231.794922,4231.794922,4532.948730,4484.487305,4369.102539,4468.974121,5511.000000,0.000000,13.000000,,,,0.000000,4.000000,4.000000,4.000000,4.000000,4.000000,4.000000,4.000000,4.000000,4.000000,4.000000,4.000000,4.000000,4.000000,4.000000,100.000000,,,,,,,,,,,,,,,,,17.000000,0.000000,0.711641,0.023315,-0.682129,0.166504,0.977170,-0.177268,0.073739,-41.342178,-29.965769,44.686275,,,,,,,,,,,,,,,,,,,,,,,,,,,,,,,,,,,,,,,,,,,,,,,,,,,,,,,,,,,,,,,,,,,,,,,,,,,,,,,,,,,,,,,,,,,,,,,,,,,,,
1739355832.025476,1739355832.025716,69.000000,0.000000,4242.820313,4223.589844,4276.153809,4280.128418,4220.384766,4211.922852,4229.871582,4240.769043,4215.512695,4212.436035,4516.153809,4455.128418,4356.922852,4446.666504,5500.000000,0.000000,13.000000,,,,0.000000,4.000000,4.000000,4.000000,4.000000,4.000000,4.000000,4.000000,4.000000,4.000000,4.000000,4.000000,4.000000,4.000000,4.000000,100.000000,,,,,,,,,,,,,,,,,,,,,,,,,,,,,,,,,,,,,,,,,,,,,,,,,,,,,,,,,,,,,,,,,,,,,,,,,,,,,,,,,,,,,,,,,,,,,,,,,,,,,,,,,,,,,,,,,,,,,,,,,,,,,,,,,
1739355832.033284,1739355832.033524,70.000000,0.000000,4256.794922,4242.436035,4287.948730,4297.563965,4238.589844,4217.436035,4242.307617,4242.563965,4226.025879,4222.307617,4526.538574,4468.717773,4376.922852,4466.025879,5460.000000,0.000000,13.000000,,,,0.000000,4.000000,4.000000,4.000000,4.000000,4.000000,4.000000,4.000000,4.000000,4.000000,4.000000,4.000000,4.000000,4.000000,4.000000,100.000000,,,,,,,,,,,,,,,,,,,,,,,,,,,,,,,,,,,,,,,,,,,,,,,,,,,,,,,,,,,,,,,,,,,,,,,,,,,,,,,,,,,,,,,,,,,,,,,,,,,,,,,,,,,,,,,,,,,,,,,,,,,,,,,,,
1739355832.041093,1739355832.041232,71.000000,0.000000,4283.205078,4267.179688,4304.871582,4322.692383,4253.717773,4234.743652,4253.205078,4250.000000,4245.897461,4249.230957,4546.282227,4493.589844,4401.410156,4489.230957,2112.000000,0.000000,13.000000,,,,0.000000,4.000000,4.000000,4.000000,4.000000,4.000000,4.000000,4.000000,4.000000,4.000000,4.000000,4.000000,4.000000,4.000000,4.000000,100.000000,,,,,,,,,,,,,,,,,,,,,,,,,,,,,,,,,,,,,,,,,,,,,,,,,,,,,,,,,,,,,,,,,,,,,,,,,,,,,,,,,,,,,,,,,,,,,,,,,,,,,,,,,,,,,,,,,,,,,,,,,,,,,,,,,
1739355832.048900,1739355832.049140,72.000000,0.000000,4281.025879,4260.641113,4297.179688,4316.410156,4238.077148,4220.128418,4229.230957,4248.846191,4235.128418,4240.128418,4543.333496,4480.769043,4392.563965,4483.974121,5253.000000,0.000000,13.000000,,,,0.000000,4.000000,4.000000,4.000000,4.000000,4.000000,4.000000,4.000000,4.000000,4.000000,4.000000,4.000000,4.000000,4.000000,4.000000,100.000000,1.000000,41.666668,3.000000,3.000000,1.000000,3.000000,3.000000,3.000000,3.000000,4.000000,4.000000,3.000000,4.000000,1.000000,4.000000,3.000000,18.000000,0.000000,0.711644,0.023621,-0.682190,0.166199,0.980588,-0.181663,0.070321,-41.574627,-29.935858,44.600983,,,,,,,,,,,,,,,,,,,,,,,,,,,,,,,,2.256542,2.003530,1.369872,1.704161,1.819170,1.556529,1.777133,1.109883,1.590183,1.483315,1.440213,1.576403,1.004239,1.203523,1.335399,0.734081,1.942940,0.761255,1.296607,1.620579,0.544637,0.848709,1.047942,1.279715,1.335835,0.376108,0.541207,1.252837,1.302915,1.281313,0.619211,1.807371,1.482835,1.449345,1.424508,0.152406,0.263222,0.118247,0.217139,0.306425,1.098998,1.232683,1.351831,1.798966,1.565469,2.441039,0.897993,1.281769,2.028581,1.714012,1.573396,1.088227,1.178200,1.835485,1.467393,2.861937,2.435148,1.556605,2.150263,2.262916,3.139925,1.480653,1.195393,1.356752,1.321312,2.113994,1.519192,1.196471,1.699971,1.541458
1739355832.056709,1739355832.056948,73.000000,0.000000,4269.230957,4253.205078,4294.230957,4305.897461,4225.000000,4195.897461,4206.410156,4244.358887,4216.538574,4213.717773,4534.615234,4470.641113,4380.000000,4481.538574,5611.000000,0.000000,13.000000,,,,0.000000,4.000000,4.000000,4.000000,4.000000,4.000000,4.000000,4.000000,4.000000,4.000000,4.000000,4.000000,4.000000,4.000000,4.000000,100.000000,,,,,,,,,,,,,,,,,,,,,,,,,,,,,,,,,,,,,,,,,,,,,,,,,,,,,,,,,,,,,,,,,,,,,,,,,,,,,,,,,,,,,,,,,,,,,,,,,,,,,,,,,,,,,,,,,,,,,,,,,,,,,,,,,
1739355832.064517,1739355832.064856,74.000000,0.000000,4275.897461,4263.461426,4304.871582,4313.846191,4229.487305,4196.666504,4209.615234,4251.282227,4221.922852,4216.922852,4542.948730,4486.153809,4387.820313,4489.615234,4886.000000,0.000000,13.000000,,,,0.000000,4.000000,4.000000,4.000000,4.000000,4.000000,4.000000,4.000000,4.000000,4.000000,4.000000,4.000000,4.000000,4.000000,4.000000,100.000000,,,,,,,,,,,,,,,,,,,,,,,,,,,,,,,,,,,,,,,,,,,,,,,,,,,,,,,,,,,,,,,,,,,,,,,,,,,,,,,,,,,,,,,,,,,,,,,,,,,,,,,,,,,,,,,,,,,,,,,,,,,,,,,,,
1739355832.072325,1739355832.072664,75.000000,0.000000,4285.641113,4269.487305,4312.436035,4323.333496,4241.282227,4210.769043,4219.230957,4261.794922,4235.769043,4233.077148,4557.820313,4496.922852,4397.692383,4492.948730,5514.000000,0.000000,13.000000,,,,0.000000,4.000000,4.000000,4.000000,4.000000,4.000000,4.000000,4.000000,4.000000,4.000000,4.000000,4.000000,4.000000,4.000000,4.000000,100.000000,,,,,,,,,,,,,,,,,,,,,,,,,,,,,,,,,,,,,,,,,,,,,,,,,,,,,,,,,,,,,,,,,,,,,,,,,,,,,,,,,,,,,,,,,,,,,,,,,,,,,,,,,,,,,,,,,,,,,,,,,,,,,,,,,
1739355832.080133,1739355832.080572,76.000000,0.000000,4286.025879,4267.051270,4313.974121,4326.922852,4249.230957,4219.871582,4225.897461,4257.692383,4237.948730,4236.153809,4562.692383,4498.846191,4400.897461,4493.461426,5472.000000,0.000000,13.000000,,,,0.000000,4.000000,4.000000,4.000000,4.000000,4.000000,4.000000,4.000000,4.000000,4.000000,4.000000,4.000000,4.000000,4.000000,4.000000,100.000000,,,,,,,,,,,,,,,,,19.000000,0.000000,0.711489,0.023865,-0.682373,0.166077,0.977170,-0.186546,0.066903,-41.583832,-30.142273,44.757549,,,,,,,,,,,,,,,,,,,,,,,,,,,,,,,,,,,,,,,,,,,,,,,,,,,,,,,,,,,,,,,,,,,,,,,,,,,,,,,,,,,,,,,,,,,,,,,,,,,,,
1739355832.087941,1739355832.088381,77.000000,0.000000,4268.589844,4250.256348,4300.897461,4308.846191,4238.205078,4210.769043,4219.615234,4242.563965,4220.641113,4220.897461,4542.692383,4481.025879,4381.922852,4473.077148,6476.000000,0.000000,13.000000,,,,0.000000,4.000000,4.000000,4.000000,4.000000,4.000000,4.000000,4.000000,4.000000,4.000000,4.000000,4.000000,4.000000,4.000000,4.000000,100.000000,,,,,,,,,,,,,,,,,,,,,,,,,,,,,,,,,,,,,,,,,,,,,,,,,,,,,,,,,,,,,,,,,,,,,,,,,,,,,,,,,,,,,,,,,,,,,,,,,,,,,,,,,,,,,,,,,,,,,,,,,,,,,,,,,
1739355832.095749,1739355832.096289,78.000000,0.000000,4261.922852,4244.615234,4294.743652,4301.922852,4237.179688,4211.666504,4221.922852,4248.333496,4224.230957,4223.846191,4535.256348,4472.820313,4370.384766,4462.820313,4886.000000,0.000000,13.000000,,,,0.000000,4.000000,4.000000,4.000000,4.000000,4.000000,4.000000,4.000000,4.000000,4.000000,4.000000,4.000000,4.000000,4.000000,4.000000,100.000000,,,,,,,,,,,,,,,,,,,,,,,,,,,,,,,,,,,,,,,,,,,,,,,,,,,,,,,,,,,,,,,,,,,,,,,,,,,,,,,,,,,,,,,,,,,,,,,,,,,,,,,,,,,,,,,,,,,,,,,,,,,,,,,,,
1739355832.103557,1739355832.104097,79.000000,0.000000,4281.025879,4265.641113,4311.153809,4326.666504,4256.538574,4231.282227,4245.897461,4267.948730,4250.641113,4247.051270,4562.563965,4500.384766,4396.282227,4486.922852,5514.000000,0.000000,13.000000,,,,0.000000,4.000000,4.000000,4.000000,4.000000,4.000000,4.000000,4.000000,4.000000,4.000000,4.000000,4.000000,4.000000,4.000000,4.000000,100.000000,,,,,,,,,,,,,,,,,,,,,,,,,,,,,,,,,,,,,,,,,,,,,,,,,,,,,,,,,,,,,,,,,,,,,,,,,,,,,,,,,,,,,,,,,,,,,,,,,,,,,,,,,,,,,,,,,,,,,,,,,,,,,,,,,
1739355832.111365,1739355832.112005,80.000000,0.000000,4278.205078,4260.512695,4310.769043,4323.846191,4249.615234,4228.333496,4251.538574,4267.948730,4245.256348,4245.512695,4565.128418,4502.948730,4401.153809,4490.000000,5472.000000,0.000000,13.000000,,,,0.000000,4.000000,4.000000,4.000000,4.000000,4.000000,4.000000,4.000000,4.000000,4.000000,4.000000,4.000000,4.000000,4.000000,4.000000,100.000000,,,,,,,,,,,,,,,,,20.000000,0.000000,0.711408,0.024109,-0.682434,0.166138,0.974728,-0.171896,0.074228,-41.442112,-30.094711,44.831795,,,,,,,,,,,,,,,,,,,,,,,,,,,,,,,,,,,,,,,,,,,,,,,,,,,,,,,,,,,,,,,,,,,,,,,,,,,,,,,,,,,,,,,,,,,,,,,,,,,,,
1739355832.119173,1739355832.119813,81.000000,0.000000,4255.384766,4229.871582,4291.666504,4294.230957,4227.436035,4212.307617,4240.128418,4262.307617,4225.641113,4227.051270,4538.974121,4475.897461,4373.333496,4468.461426,6476.000000,0.000000,13.000000,,,,0.000000,4.000000,4.000000,4.000000,4.000000,4.000000,4.000000,4.000000,4.000000,4.000000,4.000000,4.000000,4.000000,4.000000,4.000000,100.000000,,,,,,,,,,,,,,,,,,,,,,,,,,,,,,,,,,,,,,,,,,,,,,,,,,,,,,,,,,,,,,,,,,,,,,,,,,,,,,,,,,,,,,,,,,,,,,,,,,,,,,,,,,,,,,,,,,,,,,,,,,,,,,,,,
1739355832.126981,1739355832.127521,82.000000,0.000000,4254.743652,4230.641113,4291.282227,4292.820313,4230.000000,4215.384766,4240.128418,4267.179688,4231.025879,4223.077148,4539.230957,4478.333496,4376.025879,4468.461426,4886.000000,0.000000,13.000000,,,,0.000000,4.000000,4.000000,4.000000,4.000000,4.000000,4.000000,4.000000,4.000000,4.000000,4.000000,4.000000,4.000000,4.000000,4.000000,100.000000,,,,,,,,,,,,,,,,,,,,,,,,,,,,,,,,,,,,,,,,,,,,,,,,,,,,,,,,,,,,,,,,,,,,,,,,,,,,,,,,,,,,,,,,,,,,,,,,,,,,,,,,,,,,,,,,,,,,,,,,,,,,,,,,,
1739355832.134789,1739355832.135329,83.000000,0.000000,4267.563965,4251.538574,4301.282227,4306.538574,4235.512695,4216.666504,4239.358887,4267.563965,4234.358887,4224.102539,4552.820313,4492.692383,4395.256348,4479.358887,5514.000000,0.000000,13.000000,,,,0.000000,4.000000,4.000000,4.000000,4.000000,4.000000,4.000000,4.000000,4.000000,4.000000,4.000000,4.000000,4.000000,4.000000,4.000000,100.000000,,,,,,,,,,,,,,,,,,,,,,,,,,,,,,,,,,,,,,,,,,,,,,,,,,,,,,,,,,,,,,,,,,,,,,,,,,,,,,,,,,,,,,,,,,,,,,,,,,,,,,,,,,,,,,,,,,,,,,,,,,,,,,,,,
1739355832.142598,1739355832.143037,84.000000,0.000000,4273.717773,4257.307617,4304.615234,4312.820313,4234.615234,4215.512695,4233.589844,4263.461426,4228.846191,4228.846191,4555.000000,4494.102539,4391.410156,4481.025879,5472.000000,0.000000,13.000000,,,,0.000000,4.000000,4.000000,4.000000,4.000000,4.000000,4.000000,4.000000,4.000000,4.000000,4.000000,4.000000,4.000000,4.000000,4.000000,100.000000,,,,,,,,,,,,,,,,,21.000000,0.000000,0.711318,0.024597,-0.682495,0.166199,0.975217,-0.195336,0.062508,-41.431236,-30.035240,44.798615,,,,,,,,,,,,,,,,,,,,,,,,,,,,,,,,,,,,,,,,,,,,,,,,,,,,,,,,,,,,,,,,,,,,,,,,,,,,,,,,,,,,,,,,,,,,,,,,,,,,,
1739355832.150406,1739355832.150845,85.000000,0.000000,4268.333496,4249.487305,4299.358887,4310.000000,4231.666504,4212.820313,4222.563965,4262.948730,4229.871582,4230.897461,4553.205078,4488.846191,4381.794922,4477.820313,6476.000000,0.000000,13.000000,,,,0.000000,4.000000,4.000000,4.000000,4.000000,4.000000,4.000000,4.000000,4.000000,4.000000,4.000000,4.000000,4.000000,4.000000,4.000000,100.000000,,,,,,,,,,,,,,,,,,,,,,,,,,,,,,,,,,,,,,,,,,,,,,,,,,,,,,,,,,,,,,,,,,,,,,,,,,,,,,,,,,,,,,,,,,,,,,,,,,,,,,,,,,,,,,,,,,,,,,,,,,,,,,,,,
1739355832.158214,1739355832.158553,86.000000,0.000000,4255.897461,4241.153809,4289.615234,4297.563965,4226.025879,4197.692383,4201.538574,4260.769043,4223.077148,4218.077148,4547.051270,4473.846191,4378.717773,4470.384766,4886.000000,0.000000,13.000000,,,,0.000000,4.000000,4.000000,4.000000,4.000000,4.000000,4.000000,4.000000,4.000000,4.000000,4.000000,4.000000,4.000000,4.000000,4.000000,100.000000,,,,,,,,,,,,,,,,,,,,,,,,,,,,,,,,,,,,,,,,,,,,,,,,,,,,,,,,,,,,,,,,,,,,,,,,,,,,,,,,,,,,,,,,,,,,,,,,,,,,,,,,,,,,,,,,,,,,,,,,,,,,,,,,,
1739355832.166022,1739355832.166361,87.000000,0.000000,4268.974121,4248.717773,4299.358887,4305.128418,4236.666504,4201.794922,4203.461426,4261.410156,4226.666504,4226.025879,4557.307617,4481.153809,4388.333496,4481.410156,5514.000000,0.000000,13.000000,,,,0.000000,4.000000,4.000000,4.000000,4.000000,4.000000,4.000000,4.000000,4.000000,4.000000,4.000000,4.000000,4.000000,4.000000,4.000000,100.000000,,,,,,,,,,,,,,,,,,,,,,,,,,,,,,,,,,,,,,,,,,,,,,,,,,,,,,,,,,,,,,,,,,,,,,,,,,,,,,,,,,,,,,,,,,,,,,,,,,,,,,,,,,,,,,,,,,,,,,,,,,,,,,,,,
1739355832.173830,1739355832.174069,88.000000,0.000000,4285.000000,4255.897461,4314.358887,4320.256348,4243.077148,4216.282227,4220.128418,4263.461426,4240.512695,4244.102539,4573.333496,4503.205078,4399.871582,4496.666504,5472.000000,0.000000,13.000000,,,,0.000000,4.000000,4.000000,4.000000,4.000000,4.000000,4.000000,4.000000,4.000000,4.000000,4.000000,4.000000,4.000000,4.000000,4.000000,100.000000,,,,,,,,,,,,,,,,,22.000000,0.000000,0.711162,0.024902,-0.682617,0.166321,0.981565,-0.179709,0.061531,-41.304779,-30.131718,44.702087,,,,,,,,,,,,,,,,,,,,,,,,,,,,,,,,1.860401,2.644932,1.333866,1.538532,1.720984,1.662809,2.505957,1.106351,1.442349,1.486913,1.184087,2.033932,0.922215,1.079101,1.280751,0.558507,2.687587,0.775755,1.152437,1.538494,0.434080,1.046381,0.954316,1.194562,1.240597,0.307317,0.601587,1.137561,1.230557,1.234850,0.488938,1.800917,1.387479,1.317689,1.411291,0.164247,0.260401,0.119622,0.229787,0.306041,1.035582,1.211199,1.379491,1.828834,1.476765,1.948263,1.041051,1.356869,2.121324,1.596830,1.315201,1.286538,1.089487,1.807188,1.414007,2.380461,3.014974,1.380682,2.005711,2.175981,2.643553,1.728276,1.106088,1.308065,1.213448,1.807755,2.014402,1.071700,1.568676,1.446495
1739355832.181638,1739355832.181877,89.000000,0.000000,4271.538574,4247.692383,4308.461426,4312.051270,4231.025879,4210.897461,4220.384766,4263.333496,4237.307617,4236.666504,4567.179688,4499.487305,4393.333496,4488.974121,6476.000000,0.000000,13.000000,,,,0.000000,4.000000,4.000000,4.000000,4.000000,4.000000,4.000000,4.000000,4.000000,4.000000,4.000000,4.000000,4.000000,4.000000,4.000000,100.000000,,,,,,,,,,,,,,,,,,,,,,,,,,,,,,,,,,,,,,,,,,,,,,,,,,,,,,,,,,,,,,,,,,,,,,,,,,,,,,,,,,,,,,,,,,,,,,,,,,,,,,,,,,,,,,,,,,,,,,,,,,,,,,,,,
1739355832.189446,1739355832.189585,90.000000,0.000000,4265.769043,4247.692383,4306.922852,4307.179688,4232.179688,4210.256348,4224.487305,4265.769043,4233.974121,4232.307617,4560.897461,4493.717773,4385.384766,4486.282227,4886.000000,0.000000,13.000000,,,,0.000000,4.000000,4.000000,4.000000,4.000000,4.000000,4.000000,4.000000,4.000000,4.000000,4.000000,4.000000,4.000000,4.000000,4.000000,100.000000,,,,,,,,,,,,,,,,,,,,,,,,,,,,,,,,,,,,,,,,,,,,,,,,,,,,,,,,,,,,,,,,,,,,,,,,,,,,,,,,,,,,,,,,,,,,,,,,,,,,,,,,,,,,,,,,,,,,,,,,,,,,,,,,,
1739355832.197254,1739355832.197393,91.000000,0.000000,4270.000000,4249.615234,4309.615234,4313.589844,4237.948730,4216.922852,4231.794922,4260.897461,4236.410156,4238.461426,4561.666504,4494.487305,4382.820313,4485.256348,5514.000000,0.000000,13.000000,,,,0.000000,4.000000,4.000000,4.000000,4.000000,4.000000,4.000000,4.000000,4.000000,4.000000,4.000000,4.000000,4.000000,4.000000,4.000000,100.000000,,,,,,,,,,,,,,,,,,,,,,,,,,,,,,,,,,,,,,,,,,,,,,,,,,,,,,,,,,,,,,,,,,,,,,,,,,,,,,,,,,,,,,,,,,,,,,,,,,,,,,,,,,,,,,,,,,,,,,,,,,,,,,,,,
1739355832.205062,1739355832.205102,92.000000,0.000000,4262.307617,4240.512695,4300.128418,4308.717773,4232.563965,4215.128418,4231.153809,4258.589844,4233.846191,4235.128418,4555.641113,4486.410156,4376.025879,4473.974121,5472.000000,0.000000,13.000000,,,,0.000000,4.000000,4.000000,4.000000,4.000000,4.000000,4.000000,4.000000,4.000000,4.000000,4.000000,4.000000,4.000000,4.000000,4.000000,100.000000,,,,,,,,,,,,,,,,,23.000000,0.000000,0.711090,0.025269,-0.682678,0.166321,0.980100,-0.183616,0.054694,-41.324303,-30.085211,44.498547,,,,,,,,,,,,,,,,,,,,,,,,,,,,,,,,,,,,,,,,,,,,,,,,,,,,,,,,,,,,,,,,,,,,,,,,,,,,,,,,,,,,,,,,,,,,,,,,,,,,,
1739355832.212870,1739355832.212910,93.000000,0.000000,4264.230957,4243.461426,4296.794922,4308.205078,4236.666504,4216.538574,4232.436035,4262.948730,4235.384766,4231.153809,4554.615234,4487.563965,4379.615234,4472.948730,6476.000000,0.000000,13.000000,,,,0.000000,4.000000,4.000000,4.000000,4.000000,4.000000,4.000000,4.000000,4.000000,4.000000,4.000000,4.000000,4.000000,4.000000,4.000000,100.000000,,,,,,,,,,,,,,,,,,,,,,,,,,,,,,,,,,,,,,,,,,,,,,,,,,,,,,,,,,,,,,,,,,,,,,,,,,,,,,,,,,,,,,,,,,,,,,,,,,,,,,,,,,,,,,,,,,,,,,,,,,,,,,,,,
1739355832.220678,1739355832.220618,94.000000,0.000000,4263.461426,4244.102539,4292.051270,4305.769043,4234.615234,4207.436035,4220.384766,4250.384766,4222.820313,4217.948730,4544.358887,4477.692383,4376.666504,4465.384766,4886.000000,0.000000,13.000000,,,,0.000000,4.000000,4.000000,4.000000,4.000000,4.000000,4.000000,4.000000,4.000000,4.000000,4.000000,4.000000,4.000000,4.000000,4.000000,100.000000,,,,,,,,,,,,,,,,,,,,,,,,,,,,,,,,,,,,,,,,,,,,,,,,,,,,,,,,,,,,,,,,,,,,,,,,,,,,,,,,,,,,,,,,,,,,,,,,,,,,,,,,,,,,,,,,,,,,,,,,,,,,,,,,,
1739355832.228486,1739355832.228526,95.000000,0.000000,4245.384766,4227.051270,4280.000000,4293.846191,4219.871582,4190.512695,4202.179688,4234.615234,4200.000000,4195.128418,4522.948730,4450.128418,4355.512695,4444.487305,5514.000000,0.000000,13.000000,,,,0.000000,4.000000,4.000000,4.000000,4.000000,4.000000,4.000000,4.000000,4.000000,4.000000,4.000000,4.000000,4.000000,4.000000,4.000000,100.000000,,,,,,,,,,,,,,,,,,,,,,,,,,,,,,,,,,,,,,,,,,,,,,,,,,,,,,,,,,,,,,,,,,,,,,,,,,,,,,,,,,,,,,,,,,,,,,,,,,,,,,,,,,,,,,,,,,,,,,,,,,,,,,,,,
1739355832.236295,1739355832.236334,96.000000,0.000000,4253.461426,4232.820313,4287.436035,4302.563965,4225.769043,4200.256348,4211.410156,4236.794922,4210.641113,4205.641113,4528.077148,4457.307617,4363.077148,4453.974121,5472.000000,0.000000,13.000000,,,,0.000000,4.000000,4.000000,4.000000,4.000000,4.000000,4.000000,4.000000,4.000000,4.000000,4.000000,4.000000,4.000000,4.000000,4.000000,100.000000,,,,,,,,,,,,,,,,,24.000000,0.000000,0.711007,0.025513,-0.682800,0.166138,0.968380,-0.175314,0.059089,-41.391872,-30.043358,44.432026,,,,,,,,,,,,,,,,,,,,,,,,,,,,,,,,,,,,,,,,,,,,,,,,,,,,,,,,,,,,,,,,,,,,,,,,,,,,,,,,,,,,,,,,,,,,,,,,,,,,,
1739355832.244103,1739355832.244242,97.000000,0.000000,4276.794922,4252.051270,4300.769043,4315.000000,4238.974121,4212.692383,4224.102539,4239.102539,4233.846191,4233.333496,4549.743652,4482.307617,4392.692383,4480.769043,6476.000000,0.000000,13.000000,,,,0.000000,4.000000,4.000000,4.000000,4.000000,4.000000,4.000000,4.000000,4.000000,4.000000,4.000000,4.000000,4.000000,4.000000,4.000000,100.000000,,,,,,,,,,,,,,,,,,,,,,,,,,,,,,,,,,,,,,,,,,,,,,,,,,,,,,,,,,,,,,,,,,,,,,,,,,,,,,,,,,,,,,,,,,,,,,,,,,,,,,,,,,,,,,,,,,,,,,,,,,,,,,,,,
1739355832.251911,1739355832.252050,98.000000,0.000000,4270.769043,4241.922852,4295.000000,4306.922852,4234.358887,4202.307617,4209.102539,4228.846191,4235.384766,4235.128418,4551.666504,4475.512695,4393.717773,4476.025879,4886.000000,0.000000,13.000000,,,,0.000000,4.000000,4.000000,4.000000,4.000000,4.000000,4.000000,4.000000,4.000000,4.000000,4.000000,4.000000,4.000000,4.000000,4.000000,100.000000,,,,,,,,,,,,,,,,,,,,,,,,,,,,,,,,,,,,,,,,,,,,,,,,,,,,,,,,,,,,,,,,,,,,,,,,,,,,,,,,,,,,,,,,,,,,,,,,,,,,,,,,,,,,,,,,,,,,,,,,,,,,,,,,,
1739355832.259719,1739355832.259958,99.000000,0.000000,4261.025879,4229.487305,4289.358887,4303.974121,4231.025879,4199.102539,4200.000000,4219.358887,4229.743652,4231.666504,4544.230957,4460.769043,4382.051270,4459.871582,5514.000000,0.000000,13.000000,,,,0.000000,4.000000,4.000000,4.000000,4.000000,4.000000,4.000000,4.000000,4.000000,4.000000,4.000000,4.000000,4.000000,4.000000,4.000000,100.000000,,,,,,,,,,,,,,,,,,,,,,,,,,,,,,,,,,,,,,,,,,,,,,,,,,,,,,,,,,,,,,,,,,,,,,,,,,,,,,,,,,,,,,,,,,,,,,,,,,,,,,,,,,,,,,,,,,,,,,,,,,,,,,,,,
1739355832.267527,1739355832.267767,100.000000,0.000000,4261.282227,4235.256348,4287.820313,4306.666504,4235.000000,4209.743652,4212.948730,4215.256348,4225.384766,4232.436035,4538.333496,4457.820313,4376.794922,4456.410156,5472.000000,0.000000,13.000000,,,,0.000000,4.000000,4.000000,4.000000,4.000000,4.000000,4.000000,4.000000,4.000000,4.000000,4.000000,4.000000,4.000000,4.000000,4.000000,100.000000,,,,,,,,,,,,,,,,,25.000000,0.000000,0.711090,0.025635,-0.682739,0.166016,0.975217,-0.175803,0.062996,-41.536018,-30.139021,44.505489,,,,,,,,,,,,,,,,,,,,,,,,,,,,,,,,,,,,,,,,,,,,,,,,,,,,,,,,,,,,,,,,,,,,,,,,,,,,,,,,,,,,,,,,,,,,,,,,,,,,,
1739355832.275335,1739355832.275675,101.000000,0.000000,4250.000000,4227.436035,4280.256348,4294.743652,4235.897461,4213.717773,4222.948730,4208.717773,4218.974121,4220.512695,4530.897461,4448.846191,4362.436035,4446.282227,6476.000000,0.000000,13.000000,,,,0.000000,4.000000,4.000000,4.000000,4.000000,4.000000,4.000000,4.000000,4.000000,4.000000,4.000000,4.000000,4.000000,4.000000,4.000000,100.000000,,,,,,,,,,,,,,,,,,,,,,,,,,,,,,,,,,,,,,,,,,,,,,,,,,,,,,,,,,,,,,,,,,,,,,,,,,,,,,,,,,,,,,,,,,,,,,,,,,,,,,,,,,,,,,,,,,,,,,,,,,,,,,,,,
1739355832.283143,1739355832.283483,102.000000,0.000000,4255.128418,4224.102539,4290.256348,4298.589844,4247.692383,4224.102539,4233.717773,4208.589844,4231.410156,4227.179688,4537.692383,4457.563965,4363.333496,4448.077148,4886.000000,0.000000,13.000000,,,,0.000000,4.000000,4.000000,4.000000,4.000000,4.000000,4.000000,4.000000,4.000000,4.000000,4.000000,4.000000,4.000000,4.000000,4.000000,100.000000,,,,,,,,,,,,,,,,,,,,,,,,,,,,,,,,,,,,,,,,,,,,,,,,,,,,,,,,,,,,,,,,,,,,,,,,,,,,,,,,,,,,,,,,,,,,,,,,,,,,,,,,,,,,,,,,,,,,,,,,,,,,,,,,,
1739355832.290951,1739355832.291391,103.000000,0.000000,4266.538574,4228.461426,4297.948730,4308.333496,4245.769043,4225.769043,4235.897461,4210.384766,4238.717773,4238.461426,4543.333496,4470.641113,4372.051270,4456.025879,5514.000000,0.000000,13.000000,,,,0.000000,4.000000,4.000000,4.000000,4.000000,4.000000,4.000000,4.000000,4.000000,4.000000,4.000000,4.000000,4.000000,4.000000,4.000000,100.000000,,,,,,,,,,,,,,,,,,,,,,,,,,,,,,,,,,,,,,,,,,,,,,,,,,,,,,,,,,,,,,,,,,,,,,,,,,,,,,,,,,,,,,,,,,,,,,,,,,,,,,,,,,,,,,,,,,,,,,,,,,,,,,,,,
1739355832.298759,1739355832.299199,104.000000,0.000000,4246.282227,4211.794922,4276.153809,4286.922852,4218.717773,4203.205078,4217.179688,4212.820313,4217.179688,4212.820313,4529.487305,4453.205078,4355.000000,4440.000000,5472.000000,0.000000,13.000000,,,,0.000000,4.000000,4.000000,4.000000,4.000000,4.000000,4.000000,4.000000,4.000000,4.000000,4.000000,4.000000,4.000000,4.000000,4.000000,100.000000,,,,,,,,,,,,,,,,,26.000000,0.000000,0.711041,0.025757,-0.682800,0.165955,0.985960,-0.184105,0.081553,-41.715748,-30.225119,44.321606,,,,,,,,,,,,,,,,,,,,,,,,,,,,,,,,1.649783,3.439314,1.328250,1.333127,1.651799,1.990380,3.307283,1.162583,1.260826,1.512136,1.033513,2.634328,0.921210,0.955745,1.241447,0.471248,3.538996,0.906439,1.005735,1.497052,0.410090,1.298575,0.919141,1.058180,1.162905,0.291989,0.715001,1.034434,1.101139,1.194324,0.415542,1.964437,1.263190,1.155457,1.406917,0.196813,0.281453,0.154029,0.266879,0.310662,1.002131,1.239959,1.447100,1.816449,1.405589,1.595714,1.253414,1.570242,2.147486,1.524934,1.193326,1.605380,1.077940,1.706563,1.387337,2.069505,3.757651,1.281989,1.814763,2.122873,2.221051,2.014332,1.099934,1.213378,1.126970,1.705916,2.681542,0.999027,1.391516,1.390478
1739355832.306567,1739355832.307107,105.000000,0.000000,4243.205078,4211.282227,4275.512695,4282.820313,4218.333496,4199.102539,4213.077148,4231.538574,4215.000000,4203.717773,4536.538574,4452.307617,4357.820313,4440.769043,6476.000000,0.000000,13.000000,,,,0.000000,4.000000,4.000000,4.000000,4.000000,4.000000,4.000000,4.000000,4.000000,4.000000,4.000000,4.000000,4.000000,4.000000,4.000000,100.000000,,,,,,,,,,,,,,,,,,,,,,,,,,,,,,,,,,,,,,,,,,,,,,,,,,,,,,,,,,,,,,,,,,,,,,,,,,,,,,,,,,,,,,,,,,,,,,,,,,,,,,,,,,,,,,,,,,,,,,,,,,,,,,,,,
1739355832.314375,1739355832.314915,106.000000,0.000000,4271.025879,4236.922852,4304.871582,4308.589844,4238.846191,4219.102539,4227.948730,4256.538574,4237.436035,4233.461426,4564.358887,4486.666504,4391.410156,4473.333496,4886.000000,0.000000,13.000000,,,,0.000000,4.000000,4.000000,4.000000,4.000000,4.000000,4.000000,4.000000,4.000000,4.000000,4.000000,4.000000,4.000000,4.000000,4.000000,100.000000,,,,,,,,,,,,,,,,,,,,,,,,,,,,,,,,,,,,,,,,,,,,,,,,,,,,,,,,,,,,,,,,,,,,,,,,,,,,,,,,,,,,,,,,,,,,,,,,,,,,,,,,,,,,,,,,,,,,,,,,,,,,,,,,,
1739355832.322183,1739355832.322623,107.000000,0.000000,4271.538574,4235.384766,4307.179688,4307.307617,4234.230957,4218.974121,4223.974121,4263.589844,4237.051270,4241.153809,4565.641113,4497.948730,4392.307617,4483.333496,5514.000000,0.000000,13.000000,,,,0.000000,4.000000,4.000000,4.000000,4.000000,4.000000,4.000000,4.000000,4.000000,4.000000,4.000000,4.000000,4.000000,4.000000,4.000000,100.000000,,,,,,,,,,,,,,,,,,,,,,,,,,,,,,,,,,,,,,,,,,,,,,,,,,,,,,,,,,,,,,,,,,,,,,,,,,,,,,,,,,,,,,,,,,,,,,,,,,,,,,,,,,,,,,,,,,,,,,,,,,,,,,,,,
1739355832.329991,1739355832.330431,108.000000,0.000000,4256.410156,4218.846191,4296.025879,4292.563965,4223.846191,4208.974121,4212.692383,4265.256348,4227.692383,4228.974121,4558.077148,4485.769043,4377.563965,4469.871582,5472.000000,0.000000,13.000000,,,,0.000000,4.000000,4.000000,4.000000,4.000000,4.000000,4.000000,4.000000,4.000000,4.000000,4.000000,4.000000,4.000000,4.000000,4.000000,100.000000,,,,,,,,,,,,,,,,,27.000000,0.000000,0.710960,0.025940,-0.682922,0.165771,0.981565,-0.177268,0.047369,-41.677505,-30.069275,44.422779,,,,,,,,,,,,,,,,,,,,,,,,,,,,,,,,,,,,,,,,,,,,,,,,,,,,,,,,,,,,,,,,,,,,,,,,,,,,,,,,,,,,,,,,,,,,,,,,,,,,,
1739355832.337800,1739355832.338139,109.000000,0.000000,4265.512695,4227.948730,4305.897461,4300.512695,4233.717773,4213.461426,4219.358887,4272.179688,4243.205078,4236.538574,4571.538574,4495.512695,4389.615234,4476.025879,6476.000000,0.000000,13.000000,,,,0.000000,4.000000,4.000000,4.000000,4.000000,4.000000,4.000000,4.000000,4.000000,4.000000,4.000000,4.000000,4.000000,4.000000,4.000000,100.000000,,,,,,,,,,,,,,,,,,,,,,,,,,,,,,,,,,,,,,,,,,,,,,,,,,,,,,,,,,,,,,,,,,,,,,,,,,,,,,,,,,,,,,,,,,,,,,,,,,,,,,,,,,,,,,,,,,,,,,,,,,,,,,,,,
1739355832.345608,1739355832.346047,110.000000,0.000000,4263.461426,4228.205078,4303.589844,4297.436035,4230.000000,4204.358887,4216.025879,4268.589844,4244.230957,4234.871582,4570.000000,4494.487305,4391.666504,4476.666504,4886.000000,0.000000,13.000000,,,,0.000000,4.000000,4.000000,4.000000,4.000000,4.000000,4.000000,4.000000,4.000000,4.000000,4.000000,4.000000,4.000000,4.000000,4.000000,100.000000,,,,,,,,,,,,,,,,,,,,,,,,,,,,,,,,,,,,,,,,,,,,,,,,,,,,,,,,,,,,,,,,,,,,,,,,,,,,,,,,,,,,,,,,,,,,,,,,,,,,,,,,,,,,,,,,,,,,,,,,,,,,,,,,,
1739355832.353416,1739355832.353855,111.000000,0.000000,4259.487305,4225.384766,4300.256348,4297.436035,4228.333496,4203.077148,4212.307617,4269.487305,4232.436035,4230.512695,4563.974121,4486.538574,4388.846191,4475.000000,5514.000000,0.000000,13.000000,,,,0.000000,4.000000,4.000000,4.000000,4.000000,4.000000,4.000000,4.000000,4.000000,4.000000,4.000000,4.000000,4.000000,4.000000,4.000000,100.000000,,,,,,,,,,,,,,,,,,,,,,,,,,,,,,,,,,,,,,,,,,,,,,,,,,,,,,,,,,,,,,,,,,,,,,,,,,,,,,,,,,,,,,,,,,,,,,,,,,,,,,,,,,,,,,,,,,,,,,,,,,,,,,,,,
1739355832.361224,1739355832.361764,112.000000,0.000000,4277.436035,4244.487305,4318.461426,4318.333496,4244.743652,4223.077148,4225.000000,4276.922852,4243.077148,4242.051270,4578.589844,4505.256348,4399.871582,4492.179688,5472.000000,0.000000,13.000000,,,,0.000000,4.000000,4.000000,4.000000,4.000000,4.000000,4.000000,4.000000,4.000000,4.000000,4.000000,4.000000,4.000000,4.000000,4.000000,100.000000,,,,,,,,,,,,,,,,,28.000000,0.000000,0.710585,0.026184,-0.683289,0.165833,0.977170,-0.177756,0.052252,-41.743092,-30.195681,44.413834,,,,,,,,,,,,,,,,,,,,,,,,,,,,,,,,,,,,,,,,,,,,,,,,,,,,,,,,,,,,,,,,,,,,,,,,,,,,,,,,,,,,,,,,,,,,,,,,,,,,,
1739355832.369032,1739355832.369572,113.000000,0.000000,4264.102539,4230.256348,4307.820313,4299.871582,4230.641113,4209.487305,4211.410156,4269.871582,4230.384766,4223.333496,4564.871582,4493.974121,4383.461426,4476.794922,6476.000000,0.000000,13.000000,,,,0.000000,4.000000,4.000000,4.000000,4.000000,4.000000,4.000000,4.000000,4.000000,4.000000,4.000000,4.000000,4.000000,4.000000,4.000000,100.000000,,,,,,,,,,,,,,,,,,,,,,,,,,,,,,,,,,,,,,,,,,,,,,,,,,,,,,,,,,,,,,,,,,,,,,,,,,,,,,,,,,,,,,,,,,,,,,,,,,,,,,,,,,,,,,,,,,,,,,,,,,,,,,,,,
1739355832.376840,1739355832.377380,114.000000,0.000000,4241.153809,4202.820313,4286.666504,4271.666504,4209.615234,4189.358887,4198.333496,4268.205078,4207.948730,4201.666504,4541.538574,4469.102539,4364.230957,4452.692383,4886.000000,0.000000,13.000000,,,,0.000000,4.000000,4.000000,4.000000,4.000000,4.000000,4.000000,4.000000,4.000000,4.000000,4.000000,4.000000,4.000000,4.000000,4.000000,100.000000,,,,,,,,,,,,,,,,,,,,,,,,,,,,,,,,,,,,,,,,,,,,,,,,,,,,,,,,,,,,,,,,,,,,,,,,,,,,,,,,,,,,,,,,,,,,,,,,,,,,,,,,,,,,,,,,,,,,,,,,,,,,,,,,,
1739355832.384648,1739355832.385088,115.000000,0.000000,4258.974121,4221.153809,4303.846191,4292.307617,4225.512695,4211.153809,4224.743652,4281.025879,4225.641113,4223.717773,4562.820313,4490.384766,4384.102539,4471.922852,5514.000000,0.000000,13.000000,,,,0.000000,4.000000,4.000000,4.000000,4.000000,4.000000,4.000000,4.000000,4.000000,4.000000,4.000000,4.000000,4.000000,4.000000,4.000000,100.000000,,,,,,,,,,,,,,,,,,,,,,,,,,,,,,,,,,,,,,,,,,,,,,,,,,,,,,,,,,,,,,,,,,,,,,,,,,,,,,,,,,,,,,,,,,,,,,,,,,,,,,,,,,,,,,,,,,,,,,,,,,,,,,,,,
1739355832.392456,1739355832.392896,116.000000,0.000000,4275.897461,4242.436035,4319.615234,4309.615234,4242.307617,4229.358887,4241.922852,4280.384766,4244.358887,4242.692383,4580.256348,4511.410156,4396.410156,4488.333496,5472.000000,0.000000,13.000000,,,,0.000000,4.000000,4.000000,4.000000,4.000000,4.000000,4.000000,4.000000,4.000000,4.000000,4.000000,4.000000,4.000000,4.000000,4.000000,100.000000,,,,,,,,,,,,,,,,,29.000000,0.000000,0.710137,0.026794,-0.683716,0.165894,0.978147,-0.193871,0.045416,-41.668781,-30.226112,44.439117,,,,,,,,,,,,,,,,,,,,,,,,,,,,,,,,,,,,,,,,,,,,,,,,,,,,,,,,,,,,,,,,,,,,,,,,,,,,,,,,,,,,,,,,,,,,,,,,,,,,,
1739355832.400264,1739355832.400604,117.000000,0.000000,4261.922852,4229.871582,4307.563965,4292.692383,4233.333496,4215.897461,4230.128418,4270.512695,4232.436035,4229.743652,4559.102539,4493.333496,4379.743652,4466.666504,6476.000000,0.000000,13.000000,,,,0.000000,4.000000,4.000000,4.000000,4.000000,4.000000,4.000000,4.000000,4.000000,4.000000,4.000000,4.000000,4.000000,4.000000,4.000000,100.000000,,,,,,,,,,,,,,,,,,,,,,,,,,,,,,,,,,,,,,,,,,,,,,,,,,,,,,,,,,,,,,,,,,,,,,,,,,,,,,,,,,,,,,,,,,,,,,,,,,,,,,,,,,,,,,,,,,,,,,,,,,,,,,,,,
1739355832.408072,1739355832.408412,118.000000,0.000000,4256.922852,4226.666504,4304.487305,4291.282227,4230.512695,4212.051270,4226.922852,4273.461426,4230.897461,4227.179688,4552.820313,4486.922852,4380.641113,4461.922852,4886.000000,0.000000,13.000000,,,,0.000000,4.000000,4.000000,4.000000,4.000000,4.000000,4.000000,4.000000,4.000000,4.000000,4.000000,4.000000,4.000000,4.000000,4.000000,100.000000,,,,,,,,,,,,,,,,,,,,,,,,,,,,,,,,,,,,,,,,,,,,,,,,,,,,,,,,,,,,,,,,,,,,,,,,,,,,,,,,,,,,,,,,,,,,,,,,,,,,,,,,,,,,,,,,,,,,,,,,,,,,,,,,,
1739355832.415881,1739355832.416120,119.000000,0.000000,4266.025879,4239.102539,4310.384766,4306.025879,4237.307617,4218.974121,4228.333496,4274.871582,4239.871582,4234.358887,4564.615234,4494.487305,4392.563965,4475.512695,5514.000000,0.000000,13.000000,,,,0.000000,4.000000,4.000000,4.000000,4.000000,4.000000,4.000000,4.000000,4.000000,4.000000,4.000000,4.000000,4.000000,4.000000,4.000000,100.000000,,,,,,,,,,,,,,,,,,,,,,,,,,,,,,,,,,,,,,,,,,,,,,,,,,,,,,,,,,,,,,,,,,,,,,,,,,,,,,,,,,,,,,,,,,,,,,,,,,,,,,,,,,,,,,,,,,,,,,,,,,,,,,,,,
1739355832.423689,1739355832.423928,120.000000,0.000000,4263.974121,4233.589844,4305.769043,4301.538574,4232.820313,4216.794922,4221.025879,4269.871582,4241.922852,4232.307617,4558.077148,4489.102539,4389.102539,4472.179688,5472.000000,0.000000,13.000000,,,,0.000000,4.000000,4.000000,4.000000,4.000000,4.000000,4.000000,4.000000,4.000000,4.000000,4.000000,4.000000,4.000000,4.000000,4.000000,100.000000,,,,,,,,,,,,,,,,,30.000000,0.000000,0.709870,0.027283,-0.683899,0.166199,0.985472,-0.196801,0.052252,-41.835236,-30.253500,44.511871,,,,,,,,,,,,,,,,,,,,,,,,,,,,,,,,1.596030,4.176075,1.331577,1.115903,1.617478,2.442827,3.990029,1.259453,1.068898,1.540373,0.961217,3.186709,1.001567,0.843194,1.221009,0.455953,4.297608,1.117880,0.874395,1.492895,0.466568,1.510471,0.937528,0.889615,1.106585,0.315524,0.897721,0.952321,0.937338,1.163652,0.384882,2.445737,1.131794,0.990859,1.403095,0.270244,0.354569,0.240483,0.342667,0.324861,0.948352,1.320478,1.516791,1.751484,1.355760,1.366351,1.465780,1.901320,2.091631,1.504667,1.215997,1.921090,1.139010,1.547013,1.385666,1.895644,4.393629,1.288195,1.596534,2.110067,1.895790,2.237105,1.184360,1.087042,1.075883,1.711067,3.315547,0.983677,1.204140,1.373919
1739355832.431497,1739355832.431636,121.000000,0.000000,4246.410156,4215.769043,4285.512695,4281.282227,4218.205078,4201.538574,4206.794922,4261.666504,4229.743652,4217.820313,4536.282227,4471.153809,4371.282227,4452.948730,6476.000000,0.000000,13.000000,,,,0.000000,4.000000,4.000000,4.000000,4.000000,4.000000,4.000000,4.000000,4.000000,4.000000,4.000000,4.000000,4.000000,4.000000,4.000000,100.000000,,,,,,,,,,,,,,,,,,,,,,,,,,,,,,,,,,,,,,,,,,,,,,,,,,,,,,,,,,,,,,,,,,,,,,,,,,,,,,,,,,,,,,,,,,,,,,,,,,,,,,,,,,,,,,,,,,,,,,,,,,,,,,,,,
1739355832.439305,1739355832.439544,122.000000,0.000000,4222.436035,4205.769043,4262.692383,4267.307617,4203.461426,4183.717773,4184.743652,4250.512695,4201.282227,4186.794922,4517.307617,4444.487305,4356.666504,4430.000000,4886.000000,0.000000,13.000000,,,,0.000000,4.000000,4.000000,4.000000,4.000000,4.000000,4.000000,4.000000,4.000000,4.000000,4.000000,4.000000,4.000000,4.000000,4.000000,100.000000,,,,,,,,,,,,,,,,,,,,,,,,,,,,,,,,,,,,,,,,,,,,,,,,,,,,,,,,,,,,,,,,,,,,,,,,,,,,,,,,,,,,,,,,,,,,,,,,,,,,,,,,,,,,,,,,,,,,,,,,,,,,,,,,,
1739355832.447113,1739355832.447352,123.000000,0.000000,4238.077148,4224.358887,4276.282227,4284.230957,4218.077148,4197.051270,4191.282227,4255.256348,4205.384766,4192.948730,4531.282227,4454.615234,4373.846191,4441.666504,5514.000000,0.000000,13.000000,,,,0.000000,4.000000,4.000000,4.000000,4.000000,4.000000,4.000000,4.000000,4.000000,4.000000,4.000000,4.000000,4.000000,4.000000,4.000000,100.000000,,,,,,,,,,,,,,,,,,,,,,,,,,,,,,,,,,,,,,,,,,,,,,,,,,,,,,,,,,,,,,,,,,,,,,,,,,,,,,,,,,,,,,,,,,,,,,,,,,,,,,,,,,,,,,,,,,,,,,,,,,,,,,,,,
1739355832.454921,1739355832.455261,124.000000,0.000000,4272.307617,4249.102539,4303.846191,4306.282227,4244.230957,4221.666504,4218.846191,4268.333496,4237.820313,4229.102539,4559.615234,4490.897461,4396.666504,4473.589844,5472.000000,0.000000,13.000000,,,,0.000000,4.000000,4.000000,4.000000,4.000000,4.000000,4.000000,4.000000,4.000000,4.000000,4.000000,4.000000,4.000000,4.000000,4.000000,100.000000,,,,,,,,,,,,,,,,,31.000000,0.000000,0.709650,0.026978,-0.684021,0.166687,0.974240,-0.195336,0.059089,-41.735046,-30.178150,44.427353,,,,,,,,,,,,,,,,,,,,,,,,,,,,,,,,,,,,,,,,,,,,,,,,,,,,,,,,,,,,,,,,,,,,,,,,,,,,,,,,,,,,,,,,,,,,,,,,,,,,,
1739355832.462729,1739355832.463069,125.000000,0.000000,4270.256348,4247.820313,4305.769043,4300.512695,4240.384766,4218.974121,4218.205078,4268.974121,4237.948730,4227.692383,4559.871582,4496.538574,4391.410156,4478.846191,6476.000000,0.000000,13.000000,,,,0.000000,4.000000,4.000000,4.000000,4.000000,4.000000,4.000000,4.000000,4.000000,4.000000,4.000000,4.000000,4.000000,4.000000,4.000000,100.000000,,,,,,,,,,,,,,,,,,,,,,,,,,,,,,,,,,,,,,,,,,,,,,,,,,,,,,,,,,,,,,,,,,,,,,,,,,,,,,,,,,,,,,,,,,,,,,,,,,,,,,,,,,,,,,,,,,,,,,,,,,,,,,,,,
1739355832.470537,1739355832.470977,126.000000,0.000000,4263.333496,4241.410156,4305.128418,4295.128418,4230.769043,4210.769043,4210.000000,4269.102539,4226.538574,4217.051270,4550.641113,4493.077148,4386.282227,4477.179688,4886.000000,0.000000,13.000000,,,,0.000000,4.000000,4.000000,4.000000,4.000000,4.000000,4.000000,4.000000,4.000000,4.000000,4.000000,4.000000,4.000000,4.000000,4.000000,100.000000,,,,,,,,,,,,,,,,,,,,,,,,,,,,,,,,,,,,,,,,,,,,,,,,,,,,,,,,,,,,,,,,,,,,,,,,,,,,,,,,,,,,,,,,,,,,,,,,,,,,,,,,,,,,,,,,,,,,,,,,,,,,,,,,,
1739355832.478345,1739355832.478785,127.000000,0.000000,4277.179688,4246.410156,4313.846191,4299.743652,4240.897461,4220.000000,4224.487305,4274.487305,4239.487305,4233.205078,4558.717773,4508.974121,4397.948730,4486.922852,13.000000,0.000000,13.000000,,,,0.000000,4.000000,4.000000,4.000000,4.000000,4.000000,4.000000,4.000000,4.000000,4.000000,4.000000,4.000000,4.000000,4.000000,4.000000,100.000000,,,,,,,,,,,,,,,,,,,,,,,,,,,,,,,,,,,,,,,,,,,,,,,,,,,,,,,,,,,,,,,,,,,,,,,,,,,,,,,,,,,,,,,,,,,,,,,,,,,,,,,,,,,,,,,,,,,,,,,,,,,,,,,,,
1739355832.486153,1739355832.486693,0.000000,0.000000,4280.384766,4247.820313,4314.743652,4296.922852,4247.692383,4228.974121,4241.153809,4275.769043,4249.871582,4240.128418,4564.487305,4518.589844,4401.794922,4487.692383,5036.000000,0.000000,13.000000,,,,0.000000,4.000000,4.000000,4.000000,4.000000,4.000000,4.000000,4.000000,4.000000,4.000000,4.000000,4.000000,4.000000,4.000000,4.000000,100.000000,,,,,,,,,,,,,,,,,0.000000,0.000000,0.709560,0.026672,-0.684082,0.166870,0.969357,-0.200708,0.053229,-41.561543,-30.143669,44.434616,,,,,,,,,,,,,,,,,,,,,,,,,,,,,,,,,,,,,,,,,,,,,,,,,,,,,,,,,,,,,,,,,,,,,,,,,,,,,,,,,,,,,,,,,,,,,,,,,,,,,
1739355832.493961,1739355832.494601,1.000000,0.000000,4279.358887,4248.589844,4319.487305,4299.358887,4247.051270,4235.384766,4248.461426,4275.641113,4255.641113,4238.717773,4565.384766,4519.358887,4402.948730,4487.307617,5581.000000,0.000000,13.000000,,,,0.000000,4.000000,4.000000,4.000000,4.000000,4.000000,4.000000,4.000000,4.000000,4.000000,4.000000,4.000000,4.000000,4.000000,4.000000,100.000000,,,,,,,,,,,,,,,,,,,,,,,,,,,,,,,,,,,,,,,,,,,,,,,,,,,,,,,,,,,,,,,,,,,,,,,,,,,,,,,,,,,,,,,,,,,,,,,,,,,,,,,,,,,,,,,,,,,,,,,,,,,,,,,,,
1739355832.501769,1739355832.502409,2.000000,0.000000,4290.512695,4255.256348,4330.641113,4310.128418,4253.461426,4243.205078,4254.615234,4273.846191,4265.641113,4252.563965,4575.256348,4529.230957,4413.333496,4497.436035,5594.000000,0.000000,13.000000,,,,0.000000,4.000000,4.000000,4.000000,4.000000,4.000000,4.000000,4.000000,4.000000,4.000000,4.000000,4.000000,4.000000,4.000000,4.000000,100.000000,,,,,,,,,,,,,,,,,,,,,,,,,,,,,,,,,,,,,,,,,,,,,,,,,,,,,,,,,,,,,,,,,,,,,,,,,,,,,,,,,,,,,,,,,,,,,,,,,,,,,,,,,,,,,,,,,,,,,,,,,,,,,,,,,
1739355832.509577,1739355832.510217,3.000000,0.000000,4282.563965,4249.615234,4322.563965,4299.615234,4245.000000,4233.717773,4246.153809,4269.743652,4252.563965,4245.512695,4570.512695,4521.153809,4407.307617,4488.461426,5529.000000,0.000000,13.000000,,,,0.000000,4.000000,4.000000,4.000000,4.000000,4.000000,4.000000,4.000000,4.000000,4.000000,4.000000,4.000000,4.000000,4.000000,4.000000,100.000000,,,,,,,,,,,,,,,,,,,,,,,,,,,,,,,,,,,,,,,,,,,,,,,,,,,,,,,,,,,,,,,,,,,,,,,,,,,,,,,,,,,,,,,,,,,,,,,,,,,,,,,,,,,,,,,,,,,,,,,,,,,,,,,,,
1739355832.517386,1739355832.517926,4.000000,0.000000,4271.410156,4243.205078,4316.410156,4290.128418,4231.666504,4226.153809,4235.128418,4271.666504,4241.025879,4230.384766,4563.974121,4508.205078,4398.461426,4478.717773,5497.000000,0.000000,13.000000,,,,0.000000,4.000000,4.000000,4.000000,4.000000,4.000000,4.000000,4.000000,4.000000,4.000000,4.000000,4.000000,4.000000,4.000000,4.000000,100.000000,,,,,,,,,,,,,,,,,1.000000,0.000000,0.709782,0.026245,-0.683838,0.166992,0.968380,-0.200708,0.064461,-41.555386,-30.129303,44.457821,,,,,,,,,,,,,,,,,,,,,,,,,,,,,,,,,,,,,,,,,,,,,,,,,,,,,,,,,,,,,,,,,,,,,,,,,,,,,,,,,,,,,,,,,,,,,,,,,,,,,
1739355832.525194,1739355832.525734,5.000000,0.000000,4280.256348,4247.307617,4323.589844,4298.205078,4237.307617,4231.025879,4234.358887,4272.692383,4251.153809,4237.820313,4572.051270,4516.025879,4402.692383,4489.230957,5485.000000,0.000000,13.000000,,,,0.000000,4.000000,4.000000,4.000000,4.000000,4.000000,4.000000,4.000000,4.000000,4.000000,4.000000,4.000000,4.000000,4.000000,4.000000,100.000000,,,,,,,,,,,,,,,,,,,,,,,,,,,,,,,,,,,,,,,,,,,,,,,,,,,,,,,,,,,,,,,,,,,,,,,,,,,,,,,,,,,,,,,,,,,,,,,,,,,,,,,,,,,,,,,,,,,,,,,,,,,,,,,,,
1739355832.533002,1739355832.533442,6.000000,0.000000,4268.461426,4236.666504,4312.307617,4287.563965,4232.307617,4219.615234,4222.820313,4264.230957,4243.205078,4227.051270,4563.077148,4506.794922,4391.538574,4480.512695,5454.000000,0.000000,13.000000,,,,0.000000,4.000000,4.000000,4.000000,4.000000,4.000000,4.000000,4.000000,4.000000,4.000000,4.000000,4.000000,4.000000,4.000000,4.000000,100.000000,,,,,,,,,,,,,,,,,,,,,,,,,,,,,,,,,,,,,,,,,,,,,,,,,,,,,,,,,,,,,,,,,,,,,,,,,,,,,,,,,,,,,,,,,,,,,,,,,,,,,,,,,,,,,,,,,,,,,,,,,,,,,,,,,
1739355832.540810,1739355832.541250,7.000000,0.000000,4250.769043,4224.358887,4296.666504,4271.538574,4221.025879,4206.410156,4210.512695,4260.256348,4226.922852,4209.487305,4546.666504,4480.256348,4374.743652,4462.563965,2114.000000,0.000000,13.000000,,,,0.000000,4.000000,4.000000,4.000000,4.000000,4.000000,4.000000,4.000000,4.000000,4.000000,4.000000,4.000000,4.000000,4.000000,4.000000,100.000000,,,,,,,,,,,,,,,,,,,,,,,,,,,,,,,,,,,,,,,,,,,,,,,,,,,,,,,,,,,,,,,,,,,,,,,,,,,,,,,,,,,,,,,,,,,,,,,,,,,,,,,,,,,,,,,,,,,,,,,,,,,,,,,,,
1739355832.548618,1739355832.548958,8.000000,0.000000,4268.077148,4242.948730,4308.846191,4286.410156,4236.153809,4220.128418,4222.307617,4269.230957,4242.307617,4230.512695,4560.256348,4490.641113,4391.410156,4476.666504,5228.000000,0.000000,13.000000,,,,0.000000,4.000000,4.000000,4.000000,4.000000,4.000000,4.000000,4.000000,4.000000,4.000000,4.000000,4.000000,4.000000,4.000000,4.000000,100.000000,1.000000,41.666668,3.000000,4.000000,1.000000,4.000000,4.000000,3.000000,3.000000,4.000000,4.000000,3.000000,4.000000,1.000000,4.000000,3.000000,2.000000,0.000000,0.710199,0.025635,-0.683533,0.166565,0.971798,-0.204615,0.056159,-41.616516,-30.149706,44.345371,,,,,,,,,,,,,,,,,,,,,,,,,,,,,,,,1.643577,4.650187,1.321558,0.907245,1.608659,2.863591,4.392128,1.351050,0.878926,1.553185,0.961350,3.518367,1.126186,0.742071,1.213356,0.497193,4.758668,1.337295,0.758016,1.509759,0.585275,1.601142,0.972692,0.709204,1.067094,0.367029,1.150878,0.882191,0.762783,1.140682,0.395547,3.302515,1.019640,0.835563,1.387626,0.515321,0.507364,0.394028,0.453644,0.348561,0.931467,1.441336,1.565212,1.629464,1.322002,1.261364,1.629142,2.299796,1.952581,1.521514,1.374968,2.139274,1.249796,1.350885,1.397431,1.926564,4.688632,1.393092,1.372990,2.122382,1.690015,2.328921,1.330016,0.948327,1.066419,1.782320,3.737270,1.030684,1.034390,1.384474
1739355832.556426,1739355832.556766,9.000000,0.000000,4289.102539,4267.436035,4329.230957,4308.333496,4256.153809,4237.692383,4237.692383,4275.256348,4266.410156,4258.589844,4585.000000,4523.717773,4414.615234,4499.615234,5589.000000,0.000000,13.000000,,,,0.000000,4.000000,4.000000,4.000000,4.000000,4.000000,4.000000,4.000000,4.000000,4.000000,4.000000,4.000000,4.000000,4.000000,4.000000,100.000000,,,,,,,,,,,,,,,,,,,,,,,,,,,,,,,,,,,,,,,,,,,,,,,,,,,,,,,,,,,,,,,,,,,,,,,,,,,,,,,,,,,,,,,,,,,,,,,,,,,,,,,,,,,,,,,,,,,,,,,,,,,,,,,,,
1739355832.564234,1739355832.564474,10.000000,0.000000,4284.358887,4262.051270,4329.615234,4305.769043,4249.358887,4230.512695,4231.666504,4268.846191,4266.282227,4252.948730,4580.769043,4521.025879,4404.615234,4496.025879,4879.000000,0.000000,13.000000,,,,0.000000,4.000000,4.000000,4.000000,4.000000,4.000000,4.000000,4.000000,4.000000,4.000000,4.000000,4.000000,4.000000,4.000000,4.000000,100.000000,,,,,,,,,,,,,,,,,,,,,,,,,,,,,,,,,,,,,,,,,,,,,,,,,,,,,,,,,,,,,,,,,,,,,,,,,,,,,,,,,,,,,,,,,,,,,,,,,,,,,,,,,,,,,,,,,,,,,,,,,,,,,,,,,
1739355832.572042,1739355832.572282,11.000000,0.000000,4274.743652,4245.512695,4321.666504,4292.179688,4232.051270,4218.205078,4225.256348,4263.205078,4250.641113,4241.282227,4564.743652,4500.512695,4389.743652,4484.487305,5500.000000,0.000000,13.000000,,,,0.000000,4.000000,4.000000,4.000000,4.000000,4.000000,4.000000,4.000000,4.000000,4.000000,4.000000,4.000000,4.000000,4.000000,4.000000,100.000000,,,,,,,,,,,,,,,,,,,,,,,,,,,,,,,,,,,,,,,,,,,,,,,,,,,,,,,,,,,,,,,,,,,,,,,,,,,,,,,,,,,,,,,,,,,,,,,,,,,,,,,,,,,,,,,,,,,,,,,,,,,,,,,,,
1739355832.579850,1739355832.579990,12.000000,0.000000,4278.077148,4246.282227,4323.846191,4292.948730,4232.563965,4225.897461,4240.512695,4267.948730,4248.974121,4247.563965,4566.538574,4505.897461,4398.077148,4488.717773,5465.000000,0.000000,13.000000,,,,0.000000,4.000000,4.000000,4.000000,4.000000,4.000000,4.000000,4.000000,4.000000,4.000000,4.000000,4.000000,4.000000,4.000000,4.000000,100.000000,,,,,,,,,,,,,,,,,3.000000,0.000000,0.710837,0.024902,-0.683044,0.165955,0.975217,-0.202661,0.077158,-41.654865,-30.134735,44.294170,,,,,,,,,,,,,,,,,,,,,,,,,,,,,,,,,,,,,,,,,,,,,,,,,,,,,,,,,,,,,,,,,,,,,,,,,,,,,,,,,,,,,,,,,,,,,,,,,,,,,
1739355832.587658,1739355832.587798,13.000000,0.000000,4283.333496,4256.282227,4330.000000,4301.282227,4241.794922,4238.974121,4256.410156,4269.358887,4261.538574,4250.512695,4574.743652,4517.692383,4405.384766,4496.410156,6457.000000,0.000000,13.000000,,,,0.000000,4.000000,4.000000,4.000000,4.000000,4.000000,4.000000,4.000000,4.000000,4.000000,4.000000,4.000000,4.000000,4.000000,4.000000,100.000000,,,,,,,,,,,,,,,,,,,,,,,,,,,,,,,,,,,,,,,,,,,,,,,,,,,,,,,,,,,,,,,,,,,,,,,,,,,,,,,,,,,,,,,,,,,,,,,,,,,,,,,,,,,,,,,,,,,,,,,,,,,,,,,,,
1739355832.595466,1739355832.595506,14.000000,0.000000,4267.051270,4242.307617,4315.384766,4286.025879,4228.846191,4224.615234,4243.846191,4261.794922,4253.974121,4229.358887,4557.820313,4494.871582,4390.128418,4479.743652,4879.000000,0.000000,13.000000,,,,0.000000,4.000000,4.000000,4.000000,4.000000,4.000000,4.000000,4.000000,4.000000,4.000000,4.000000,4.000000,4.000000,4.000000,4.000000,100.000000,,,,,,,,,,,,,,,,,,,,,,,,,,,,,,,,,,,,,,,,,,,,,,,,,,,,,,,,,,,,,,,,,,,,,,,,,,,,,,,,,,,,,,,,,,,,,,,,,,,,,,,,,,,,,,,,,,,,,,,,,,,,,,,,,
1739355832.603274,1739355832.603414,15.000000,0.000000,4254.102539,4226.153809,4299.871582,4269.871582,4218.589844,4212.436035,4231.666504,4263.205078,4241.538574,4218.205078,4542.307617,4476.922852,4381.538574,4463.846191,5500.000000,0.000000,13.000000,,,,0.000000,4.000000,4.000000,4.000000,4.000000,4.000000,4.000000,4.000000,4.000000,4.000000,4.000000,4.000000,4.000000,4.000000,4.000000,100.000000,,,,,,,,,,,,,,,,,,,,,,,,,,,,,,,,,,,,,,,,,,,,,,,,,,,,,,,,,,,,,,,,,,,,,,,,,,,,,,,,,,,,,,,,,,,,,,,,,,,,,,,,,,,,,,,,,,,,,,,,,,,,,,,,,
1739355832.611082,1739355832.611222,16.000000,0.000000,4270.000000,4238.077148,4312.051270,4283.461426,4237.692383,4230.128418,4244.743652,4273.205078,4255.641113,4239.743652,4561.794922,4499.615234,4396.794922,4480.769043,0.000000,0.000000,13.000000,,,,0.000000,4.000000,4.000000,4.000000,4.000000,4.000000,4.000000,4.000000,4.000000,4.000000,4.000000,4.000000,4.000000,4.000000,4.000000,100.000000,,,,,,,,,,,,,,,,,4.000000,0.000000,0.711348,0.023987,-0.682678,0.165405,0.989867,-0.205591,0.085948,-41.589378,-30.087929,44.214752,,,,,,,,,,,,,,,,,,,,,,,,,,,,,,,,,,,,,,,,,,,,,,,,,,,,,,,,,,,,,,,,,,,,,,,,,,,,,,,,,,,,,,,,,,,,,,,,,,,,,
1739355832.618891,1739355832.619130,17.000000,0.000000,4274.871582,4241.922852,4317.436035,4287.948730,4238.717773,4232.179688,4246.282227,4272.948730,4262.179688,4248.846191,4570.769043,4503.717773,4397.051270,4485.769043,0.000000,0.000000,13.000000,,,,0.000000,4.000000,4.000000,4.000000,4.000000,4.000000,4.000000,4.000000,4.000000,4.000000,4.000000,4.000000,4.000000,4.000000,4.000000,100.000000,,,,,,,,,,,,,,,,,,,,,,,,,,,,,,,,,,,,,,,,,,,,,,,,,,,,,,,,,,,,,,,,,,,,,,,,,,,,,,,,,,,,,,,,,,,,,,,,,,,,,,,,,,,,,,,,,,,,,,,,,,,,,,,,,
1739355832.626699,1739355832.626938,18.000000,0.000000,4257.692383,4225.897461,4304.230957,4271.282227,4217.051270,4211.922852,4227.307617,4270.897461,4246.025879,4231.025879,4551.153809,4478.077148,4379.230957,4467.051270,0.000000,0.000000,13.000000,,,,0.000000,4.000000,4.000000,4.000000,4.000000,4.000000,4.000000,4.000000,4.000000,4.000000,4.000000,4.000000,4.000000,4.000000,4.000000,100.000000,,,,,,,,,,,,,,,,,,,,,,,,,,,,,,,,,,,,,,,,,,,,,,,,,,,,,,,,,,,,,,,,,,,,,,,,,,,,,,,,,,,,,,,,,,,,,,,,,,,,,,,,,,,,,,,,,,,,,,,,,,,,,,,,,
1739355832.634507,1739355832.634846,19.000000,0.000000,4258.717773,4228.205078,4305.512695,4272.051270,4222.563965,4211.922852,4222.820313,4275.512695,4242.563965,4228.717773,4549.102539,4481.410156,4384.358887,4472.179688,0.000000,0.000000,13.000000,,,,0.000000,4.000000,4.000000,4.000000,4.000000,4.000000,4.000000,4.000000,4.000000,4.000000,4.000000,4.000000,4.000000,4.000000,4.000000,100.000000,,,,,,,,,,,,,,,,,,,,,,,,,,,,,,,,,,,,,,,,,,,,,,,,,,,,,,,,,,,,,,,,,,,,,,,,,,,,,,,,,,,,,,,,,,,,,,,,,,,,,,,,,,,,,,,,,,,,,,,,,,,,,,,,,
1739355832.642315,1739355832.642655,20.000000,0.000000,4267.820313,4243.077148,4312.692383,4285.512695,4235.897461,4219.615234,4227.820313,4274.358887,4247.820313,4234.871582,4558.974121,4495.000000,4395.897461,4485.256348,0.000000,0.000000,13.000000,,,,0.000000,4.000000,4.000000,4.000000,4.000000,4.000000,4.000000,4.000000,4.000000,4.000000,4.000000,4.000000,4.000000,4.000000,4.000000,100.000000,,,,,,,,,,,,,,,,,5.000000,0.000000,0.711619,0.023621,-0.682556,0.164795,0.993285,-0.186546,0.074228,-41.580441,-30.129135,44.309944,,,,,,,,,,,,,,,,,,,,,,,,,,,,,,,,,,,,,,,,,,,,,,,,,,,,,,,,,,,,,,,,,,,,,,,,,,,,,,,,,,,,,,,,,,,,,,,,,,,,,
1739355832.650123,1739355832.650563,21.000000,0.000000,4271.410156,4249.615234,4315.256348,4294.102539,4235.769043,4221.922852,4233.205078,4273.846191,4248.717773,4238.717773,4560.256348,4493.974121,4394.358887,4486.794922,0.000000,0.000000,13.000000,,,,0.000000,4.000000,4.000000,4.000000,4.000000,4.000000,4.000000,4.000000,4.000000,4.000000,4.000000,4.000000,4.000000,4.000000,4.000000,100.000000,,,,,,,,,,,,,,,,,,,,,,,,,,,,,,,,,,,,,,,,,,,,,,,,,,,,,,,,,,,,,,,,,,,,,,,,,,,,,,,,,,,,,,,,,,,,,,,,,,,,,,,,,,,,,,,,,,,,,,,,,,,,,,,,,
1739355832.657931,1739355832.658371,22.000000,0.000000,4265.384766,4242.051270,4310.769043,4287.436035,4230.641113,4218.461426,4228.974121,4275.256348,4238.461426,4235.000000,4553.461426,4482.307617,4387.179688,4480.769043,0.000000,0.000000,13.000000,,,,0.000000,4.000000,4.000000,4.000000,4.000000,4.000000,4.000000,4.000000,4.000000,4.000000,4.000000,4.000000,4.000000,4.000000,4.000000,100.000000,,,,,,,,,,,,,,,,,,,,,,,,,,,,,,,,,,,,,,,,,,,,,,,,,,,,,,,,,,,,,,,,,,,,,,,,,,,,,,,,,,,,,,,,,,,,,,,,,,,,,,,,,,,,,,,,,,,,,,,,,,,,,,,,,
1739355832.665739,1739355832.666279,23.000000,0.000000,4248.077148,4227.820313,4295.897461,4271.282227,4219.230957,4206.794922,4211.025879,4269.102539,4220.256348,4212.307617,4536.538574,4460.641113,4375.641113,4465.512695,0.000000,0.000000,13.000000,,,,0.000000,4.000000,4.000000,4.000000,4.000000,4.000000,4.000000,4.000000,4.000000,4.000000,4.000000,4.000000,4.000000,4.000000,4.000000,100.000000,,,,,,,,,,,,,,,,,,,,,,,,,,,,,,,,,,,,,,,,,,,,,,,,,,,,,,,,,,,,,,,,,,,,,,,,,,,,,,,,,,,,,,,,,,,,,,,,,,,,,,,,,,,,,,,,,,,,,,,,,,,,,,,,,
1739355832.673547,1739355832.674087,24.000000,0.000000,4256.794922,4237.563965,4303.589844,4285.000000,4227.563965,4216.538574,4221.410156,4268.717773,4231.410156,4212.563965,4541.666504,4466.922852,4376.794922,4470.641113,0.000000,0.000000,13.000000,,,,0.000000,4.000000,4.000000,4.000000,4.000000,4.000000,4.000000,4.000000,4.000000,4.000000,4.000000,4.000000,4.000000,4.000000,4.000000,100.000000,,,,,,,,,,,,,,,,,6.000000,0.000000,0.711978,0.024048,-0.682373,0.163940,0.990844,-0.182151,0.089855,-41.722397,-30.149555,44.378948,,,,,,,,,,,,,,,,,,,,,,,,,,,,,,,,1.700641,4.718082,1.300328,0.725693,1.607469,3.075628,4.416944,1.402182,0.705369,1.540125,1.046205,3.522106,1.256684,0.652922,1.206110,0.551592,4.776488,1.494176,0.653768,1.527217,0.726096,1.540668,0.992931,0.541345,1.038365,0.436944,1.450033,0.818856,0.601439,1.121057,0.442638,4.438077,0.949754,0.692349,1.351703,1.155904,0.742713,0.611874,0.574669,0.376121,0.930509,1.553791,1.598942,1.453452,1.297560,1.249366,1.697915,2.710955,1.743418,1.550645,1.711173,2.205683,1.404657,1.145053,1.409343,2.241078,4.519036,1.587112,1.165221,2.132387,1.627384,2.270291,1.504471,0.818267,1.095290,1.937658,3.839772,1.160267,0.898032,1.407263
1739355832.681355,1739355832.681995,25.000000,0.000000,4279.615234,4259.102539,4322.820313,4307.179688,4252.948730,4239.230957,4250.256348,4276.666504,4255.769043,4239.102539,4563.205078,4489.743652,4386.922852,4487.051270,0.000000,0.000000,13.000000,,,,0.000000,4.000000,4.000000,4.000000,4.000000,4.000000,4.000000,4.000000,4.000000,4.000000,4.000000,4.000000,4.000000,4.000000,4.000000,100.000000,,,,,,,,,,,,,,,,,,,,,,,,,,,,,,,,,,,,,,,,,,,,,,,,,,,,,,,,,,,,,,,,,,,,,,,,,,,,,,,,,,,,,,,,,,,,,,,,,,,,,,,,,,,,,,,,,,,,,,,,,,,,,,,,,
1739355832.689163,1739355832.689803,26.000000,0.000000,4254.102539,4237.948730,4303.077148,4284.102539,4238.333496,4225.512695,4241.153809,4273.589844,4235.128418,4221.794922,4545.641113,4465.769043,4371.666504,4463.717773,0.000000,0.000000,13.000000,,,,0.000000,4.000000,4.000000,4.000000,4.000000,4.000000,4.000000,4.000000,4.000000,4.000000,4.000000,4.000000,4.000000,4.000000,4.000000,100.000000,,,,,,,,,,,,,,,,,,,,,,,,,,,,,,,,,,,,,,,,,,,,,,,,,,,,,,,,,,,,,,,,,,,,,,,,,,,,,,,,,,,,,,,,,,,,,,,,,,,,,,,,,,,,,,,,,,,,,,,,,,,,,,,,,
1739355832.696972,1739355832.697511,27.000000,0.000000,4228.974121,4215.641113,4288.333496,4266.666504,4216.025879,4210.897461,4226.538574,4269.615234,4214.487305,4196.282227,4529.615234,4447.179688,4357.948730,4447.948730,0.000000,0.000000,13.000000,,,,0.000000,4.000000,4.000000,4.000000,4.000000,4.000000,4.000000,4.000000,4.000000,4.000000,4.000000,4.000000,4.000000,4.000000,4.000000,100.000000,,,,,,,,,,,,,,,,,,,,,,,,,,,,,,,,,,,,,,,,,,,,,,,,,,,,,,,,,,,,,,,,,,,,,,,,,,,,,,,,,,,,,,,,,,,,,,,,,,,,,,,,,,,,,,,,,,,,,,,,,,,,,,,,,
1739355832.704780,1739355832.705319,28.000000,0.000000,4241.153809,4223.717773,4299.358887,4276.538574,4219.743652,4214.743652,4226.153809,4273.461426,4225.641113,4207.436035,4541.153809,4462.436035,4362.307617,4462.436035,0.000000,0.000000,13.000000,,,,0.000000,4.000000,4.000000,4.000000,4.000000,4.000000,4.000000,4.000000,4.000000,4.000000,4.000000,4.000000,4.000000,4.000000,4.000000,100.000000,,,,,,,,,,,,,,,,,7.000000,0.000000,0.711965,0.024353,-0.682434,0.163696,0.985472,-0.192895,0.091320,-41.916824,-30.267933,44.374386,,,,,,,,,,,,,,,,,,,,,,,,,,,,,,,,,,,,,,,,,,,,,,,,,,,,,,,,,,,,,,,,,,,,,,,,,,,,,,,,,,,,,,,,,,,,,,,,,,,,,
1739355832.712588,1739355832.713027,29.000000,0.000000,4236.538574,4216.538574,4289.743652,4262.051270,4209.102539,4201.282227,4205.128418,4269.358887,4217.436035,4201.794922,4529.487305,4450.256348,4352.179688,4452.692383,0.000000,0.000000,13.000000,,,,0.000000,4.000000,4.000000,4.000000,4.000000,4.000000,4.000000,4.000000,4.000000,4.000000,4.000000,4.000000,4.000000,4.000000,4.000000,100.000000,,,,,,,,,,,,,,,,,,,,,,,,,,,,,,,,,,,,,,,,,,,,,,,,,,,,,,,,,,,,,,,,,,,,,,,,,,,,,,,,,,,,,,,,,,,,,,,,,,,,,,,,,,,,,,,,,,,,,,,,,,,,,,,,,
1739355832.720396,1739355832.720835,30.000000,0.000000,4240.256348,4218.205078,4292.307617,4261.922852,4211.538574,4201.153809,4201.922852,4268.846191,4213.589844,4202.692383,4529.102539,4451.538574,4360.512695,4457.436035,0.000000,0.000000,13.000000,,,,0.000000,4.000000,4.000000,4.000000,4.000000,4.000000,4.000000,4.000000,4.000000,4.000000,4.000000,4.000000,4.000000,4.000000,4.000000,100.000000,,,,,,,,,,,,,,,,,,,,,,,,,,,,,,,,,,,,,,,,,,,,,,,,,,,,,,,,,,,,,,,,,,,,,,,,,,,,,,,,,,,,,,,,,,,,,,,,,,,,,,,,,,,,,,,,,,,,,,,,,,,,,,,,,
1739355832.728204,1739355832.728543,31.000000,0.000000,4274.358887,4252.563965,4323.974121,4295.512695,4245.641113,4227.436035,4230.000000,4278.461426,4241.538574,4240.641113,4566.153809,4492.820313,4394.102539,4492.179688,0.000000,0.000000,13.000000,,,,0.000000,4.000000,4.000000,4.000000,4.000000,4.000000,4.000000,4.000000,4.000000,4.000000,4.000000,4.000000,4.000000,4.000000,4.000000,100.000000,,,,,,,,,,,,,,,,,,,,,,,,,,,,,,,,,,,,,,,,,,,,,,,,,,,,,,,,,,,,,,,,,,,,,,,,,,,,,,,,,,,,,,,,,,,,,,,,,,,,,,,,,,,,,,,,,,,,,,,,,,,,,,,,,
1739355832.736012,1739355832.736351,32.000000,0.000000,4276.666504,4257.051270,4322.436035,4293.974121,4244.743652,4223.846191,4225.256348,4276.538574,4246.410156,4244.743652,4566.794922,4491.153809,4391.282227,4487.436035,0.000000,0.000000,13.000000,,,,0.000000,4.000000,4.000000,4.000000,4.000000,4.000000,4.000000,4.000000,4.000000,4.000000,4.000000,4.000000,4.000000,4.000000,4.000000,100.000000,,,,,,,,,,,,,,,,,8.000000,0.000000,0.711771,0.024475,-0.682617,0.163757,0.963497,-0.195825,0.084483,-41.825142,-30.374474,44.403614,,,,,,,,,,,,,,,,,,,,,,,,,,,,,,,,,,,,,,,,,,,,,,,,,,,,,,,,,,,,,,,,,,,,,,,,,,,,,,,,,,,,,,,,,,,,,,,,,,,,,
1739355832.743820,1739355832.744059,33.000000,0.000000,4253.077148,4231.538574,4297.307617,4270.769043,4213.846191,4198.077148,4197.051270,4265.384766,4229.230957,4215.000000,4536.666504,4462.563965,4370.384766,4462.820313,0.000000,0.000000,13.000000,,,,0.000000,4.000000,4.000000,4.000000,4.000000,4.000000,4.000000,4.000000,4.000000,4.000000,4.000000,4.000000,4.000000,4.000000,4.000000,100.000000,,,,,,,,,,,,,,,,,,,,,,,,,,,,,,,,,,,,,,,,,,,,,,,,,,,,,,,,,,,,,,,,,,,,,,,,,,,,,,,,,,,,,,,,,,,,,,,,,,,,,,,,,,,,,,,,,,,,,,,,,,,,,,,,,
1739355832.751628,1739355832.751867,34.000000,0.000000,4254.743652,4235.769043,4298.333496,4275.384766,4212.179688,4198.846191,4196.922852,4262.307617,4228.205078,4214.743652,4537.692383,4465.897461,4377.948730,4471.282227,0.000000,0.000000,13.000000,,,,0.000000,4.000000,4.000000,4.000000,4.000000,4.000000,4.000000,4.000000,4.000000,4.000000,4.000000,4.000000,4.000000,4.000000,4.000000,100.000000,,,,,,,,,,,,,,,,,,,,,,,,,,,,,,,,,,,,,,,,,,,,,,,,,,,,,,,,,,,,,,,,,,,,,,,,,,,,,,,,,,,,,,,,,,,,,,,,,,,,,,,,,,,,,,,,,,,,,,,,,,,,,,,,,
1739355832.759436,1739355832.759575,35.000000,0.000000,4263.589844,4250.512695,4306.282227,4284.230957,4221.282227,4210.256348,4208.974121,4263.333496,4225.384766,4223.589844,4544.487305,4468.589844,4384.743652,4480.128418,0.000000,0.000000,13.000000,,,,0.000000,4.000000,4.000000,4.000000,4.000000,4.000000,4.000000,4.000000,4.000000,4.000000,4.000000,4.000000,4.000000,4.000000,4.000000,100.000000,,,,,,,,,,,,,,,,,,,,,,,,,,,,,,,,,,,,,,,,,,,,,,,,,,,,,,,,,,,,,,,,,,,,,,,,,,,,,,,,,,,,,,,,,,,,,,,,,,,,,,,,,,,,,,,,,,,,,,,,,,,,,,,,,
1739355832.767244,1739355832.767383,36.000000,0.000000,4255.000000,4243.333496,4301.666504,4280.641113,4219.358887,4209.871582,4208.205078,4262.692383,4213.589844,4210.384766,4534.230957,4457.436035,4374.102539,4470.769043,0.000000,0.000000,13.000000,,,,0.000000,4.000000,4.000000,4.000000,4.000000,4.000000,4.000000,4.000000,4.000000,4.000000,4.000000,4.000000,4.000000,4.000000,4.000000,100.000000,,,,,,,,,,,,,,,,,9.000000,0.000000,0.711707,0.024170,-0.682739,0.163574,0.974728,-0.188500,0.074716,-41.925961,-30.337025,44.513252,,,,,,,,,,,,,,,,,,,,,,,,,,,,,,,,,,,,,,,,,,,,,,,,,,,,,,,,,,,,,,,,,,,,,,,,,,,,,,,,,,,,,,,,,,,,,,,,,,,,,
1739355832.775052,1739355832.775091,37.000000,0.000000,4264.358887,4250.000000,4314.487305,4295.128418,4232.948730,4217.563965,4216.538574,4270.128418,4228.717773,4218.589844,4547.436035,4473.846191,4382.179688,4484.615234,0.000000,0.000000,13.000000,,,,0.000000,4.000000,4.000000,4.000000,4.000000,4.000000,4.000000,4.000000,4.000000,4.000000,4.000000,4.000000,4.000000,4.000000,4.000000,100.000000,,,,,,,,,,,,,,,,,,,,,,,,,,,,,,,,,,,,,,,,,,,,,,,,,,,,,,,,,,,,,,,,,,,,,,,,,,,,,,,,,,,,,,,,,,,,,,,,,,,,,,,,,,,,,,,,,,,,,,,,,,,,,,,,,
1739355832.782860,1739355832.782899,38.000000,0.000000,4271.666504,4252.436035,4320.641113,4298.974121,4232.948730,4215.384766,4218.846191,4272.051270,4241.538574,4233.077148,4557.692383,4484.358887,4387.563965,4491.410156,0.000000,0.000000,13.000000,,,,0.000000,4.000000,4.000000,4.000000,4.000000,4.000000,4.000000,4.000000,4.000000,4.000000,4.000000,4.000000,4.000000,4.000000,4.000000,100.000000,,,,,,,,,,,,,,,,,,,,,,,,,,,,,,,,,,,,,,,,,,,,,,,,,,,,,,,,,,,,,,,,,,,,,,,,,,,,,,,,,,,,,,,,,,,,,,,,,,,,,,,,,,,,,,,,,,,,,,,,,,,,,,,,,
1739355832.790668,1739355832.790608,39.000000,0.000000,4263.205078,4241.794922,4309.871582,4285.641113,4219.871582,4207.179688,4214.487305,4270.128418,4234.615234,4231.538574,4550.384766,4473.077148,4379.230957,4481.538574,0.000000,0.000000,13.000000,,,,0.000000,4.000000,4.000000,4.000000,4.000000,4.000000,4.000000,4.000000,4.000000,4.000000,4.000000,4.000000,4.000000,4.000000,4.000000,100.000000,,,,,,,,,,,,,,,,,,,,,,,,,,,,,,,,,,,,,,,,,,,,,,,,,,,,,,,,,,,,,,,,,,,,,,,,,,,,,,,,,,,,,,,,,,,,,,,,,,,,,,,,,,,,,,,,,,,,,,,,,,,,,,,,,
1739355832.798477,1739355832.798516,40.000000,0.000000,4271.410156,4249.358887,4317.051270,4295.512695,4236.666504,4224.230957,4234.102539,4277.692383,4245.769043,4242.179688,4559.358887,4485.641113,4391.538574,4495.128418,0.000000,0.000000,13.000000,,,,0.000000,4.000000,4.000000,4.000000,4.000000,4.000000,4.000000,4.000000,4.000000,4.000000,4.000000,4.000000,4.000000,4.000000,4.000000,100.000000,,,,,,,,,,,,,,,,,10.000000,0.000000,0.711659,0.024109,-0.682922,0.163025,0.982053,-0.175314,0.069344,-41.833363,-30.353323,44.528595,,,,,,,,,,,,,,,,,,,,,,,,,,,,,,,,1.706347,4.379430,1.285063,0.590602,1.597843,2.980663,4.088384,1.399243,0.574041,1.500795,1.242697,3.220120,1.369244,0.582586,1.188249,0.587409,4.346156,1.543466,0.569329,1.529461,0.856380,1.364738,0.986239,0.415650,1.016881,0.522921,1.755345,0.765251,0.477292,1.101993,0.533460,5.648469,0.932406,0.571725,1.294634,2.387860,1.026411,0.871392,0.668709,0.398443,1.013384,1.594330,1.648688,1.245106,1.280594,1.298316,1.651087,3.089093,1.499898,1.572350,2.246804,2.117611,1.593314,0.960990,1.413183,2.917957,3.956074,1.848619,0.994288,2.117761,1.693621,2.096160,1.681772,0.712127,1.151176,2.225181,3.638495,1.387467,0.801979,1.431061
1739355832.806285,1739355832.806324,41.000000,0.000000,4280.897461,4258.077148,4327.051270,4309.102539,4254.230957,4242.051270,4249.615234,4280.256348,4259.358887,4250.128418,4570.641113,4498.974121,4403.717773,4507.436035,0.000000,0.000000,13.000000,,,,0.000000,4.000000,4.000000,4.000000,4.000000,4.000000,4.000000,4.000000,4.000000,4.000000,4.000000,4.000000,4.000000,4.000000,4.000000,100.000000,,,,,,,,,,,,,,,,,,,,,,,,,,,,,,,,,,,,,,,,,,,,,,,,,,,,,,,,,,,,,,,,,,,,,,,,,,,,,,,,,,,,,,,,,,,,,,,,,,,,,,,,,,,,,,,,,,,,,,,,,,,,,,,,,
1739355832.814093,1739355832.814232,42.000000,0.000000,4267.948730,4245.384766,4313.589844,4295.384766,4239.487305,4234.871582,4238.846191,4272.307617,4243.717773,4235.384766,4556.794922,4482.179688,4384.871582,4490.384766,0.000000,0.000000,13.000000,,,,0.000000,4.000000,4.000000,4.000000,4.000000,4.000000,4.000000,4.000000,4.000000,4.000000,4.000000,4.000000,4.000000,4.000000,4.000000,100.000000,,,,,,,,,,,,,,,,,,,,,,,,,,,,,,,,,,,,,,,,,,,,,,,,,,,,,,,,,,,,,,,,,,,,,,,,,,,,,,,,,,,,,,,,,,,,,,,,,,,,,,,,,,,,,,,,,,,,,,,,,,,,,,,,,
1739355832.821901,1739355832.822040,43.000000,0.000000,4257.179688,4237.179688,4302.563965,4280.641113,4226.922852,4224.871582,4228.077148,4268.333496,4230.641113,4222.948730,4542.051270,4467.563965,4368.461426,4478.461426,0.000000,0.000000,13.000000,,,,0.000000,4.000000,4.000000,4.000000,4.000000,4.000000,4.000000,4.000000,4.000000,4.000000,4.000000,4.000000,4.000000,4.000000,4.000000,100.000000,,,,,,,,,,,,,,,,,,,,,,,,,,,,,,,,,,,,,,,,,,,,,,,,,,,,,,,,,,,,,,,,,,,,,,,,,,,,,,,,,,,,,,,,,,,,,,,,,,,,,,,,,,,,,,,,,,,,,,,,,,,,,,,,,
1739355832.829709,1739355832.829948,44.000000,0.000000,4263.974121,4242.563965,4306.922852,4280.256348,4230.128418,4222.179688,4226.025879,4267.051270,4234.230957,4223.333496,4544.102539,4467.436035,4375.897461,4484.871582,0.000000,0.000000,13.000000,,,,0.000000,4.000000,4.000000,4.000000,4.000000,4.000000,4.000000,4.000000,4.000000,4.000000,4.000000,4.000000,4.000000,4.000000,4.000000,100.000000,,,,,,,,,,,,,,,,,11.000000,0.000000,0.711500,0.024292,-0.683228,0.162415,0.978635,-0.179709,0.071786,-41.916695,-30.434658,44.525734,,,,,,,,,,,,,,,,,,,,,,,,,,,,,,,,,,,,,,,,,,,,,,,,,,,,,,,,,,,,,,,,,,,,,,,,,,,,,,,,,,,,,,,,,,,,,,,,,,,,,
1739355832.837517,1739355832.837756,45.000000,0.000000,4261.410156,4242.436035,4304.102539,4277.692383,4226.025879,4216.282227,4215.641113,4263.077148,4223.717773,4213.205078,4541.410156,4462.307617,4382.820313,4478.333496,0.000000,0.000000,13.000000,,,,0.000000,4.000000,4.000000,4.000000,4.000000,4.000000,4.000000,4.000000,4.000000,4.000000,4.000000,4.000000,4.000000,4.000000,4.000000,100.000000,,,,,,,,,,,,,,,,,,,,,,,,,,,,,,,,,,,,,,,,,,,,,,,,,,,,,,,,,,,,,,,,,,,,,,,,,,,,,,,,,,,,,,,,,,,,,,,,,,,,,,,,,,,,,,,,,,,,,,,,,,,,,,,,,
1739355832.845325,1739355832.845665,46.000000,0.000000,4260.897461,4246.922852,4308.974121,4284.358887,4227.820313,4222.436035,4214.615234,4266.922852,4217.948730,4212.948730,4543.461426,4469.358887,4391.666504,4477.692383,0.000000,0.000000,13.000000,,,,0.000000,4.000000,4.000000,4.000000,4.000000,4.000000,4.000000,4.000000,4.000000,4.000000,4.000000,4.000000,4.000000,4.000000,4.000000,100.000000,,,,,,,,,,,,,,,,,,,,,,,,,,,,,,,,,,,,,,,,,,,,,,,,,,,,,,,,,,,,,,,,,,,,,,,,,,,,,,,,,,,,,,,,,,,,,,,,,,,,,,,,,,,,,,,,,,,,,,,,,,,,,,,,,
1739355832.853133,1739355832.853473,47.000000,0.000000,4276.410156,4252.820313,4321.282227,4298.077148,4237.563965,4229.487305,4223.077148,4270.769043,4233.333496,4230.000000,4554.358887,4485.769043,4406.666504,4491.025879,0.000000,0.000000,13.000000,,,,0.000000,4.000000,4.000000,4.000000,4.000000,4.000000,4.000000,4.000000,4.000000,4.000000,4.000000,4.000000,4.000000,4.000000,4.000000,100.000000,,,,,,,,,,,,,,,,,,,,,,,,,,,,,,,,,,,,,,,,,,,,,,,,,,,,,,,,,,,,,,,,,,,,,,,,,,,,,,,,,,,,,,,,,,,,,,,,,,,,,,,,,,,,,,,,,,,,,,,,,,,,,,,,,
1739355832.860941,1739355832.861381,48.000000,0.000000,4276.025879,4246.025879,4313.333496,4292.820313,4232.051270,4218.205078,4215.897461,4267.179688,4233.205078,4225.256348,4552.051270,4477.051270,4400.512695,4487.563965,0.000000,0.000000,13.000000,,,,0.000000,4.000000,4.000000,4.000000,4.000000,4.000000,4.000000,4.000000,4.000000,4.000000,4.000000,4.000000,4.000000,4.000000,4.000000,100.000000,,,,,,,,,,,,,,,,,12.000000,0.000000,0.711190,0.024597,-0.683655,0.161926,0.991820,-0.168966,0.070321,-41.991692,-30.257858,44.489830,,,,,,,,,,,,,,,,,,,,,,,,,,,,,,,,,,,,,,,,,,,,,,,,,,,,,,,,,,,,,,,,,,,,,,,,,,,,,,,,,,,,,,,,,,,,,,,,,,,,,
1739355832.868749,1739355832.869189,49.000000,0.000000,4272.307617,4251.538574,4310.512695,4291.410156,4235.256348,4220.000000,4217.563965,4269.487305,4230.641113,4220.897461,4553.974121,4475.384766,4392.692383,4488.333496,0.000000,0.000000,13.000000,,,,0.000000,4.000000,4.000000,4.000000,4.000000,4.000000,4.000000,4.000000,4.000000,4.000000,4.000000,4.000000,4.000000,4.000000,4.000000,100.000000,,,,,,,,,,,,,,,,,,,,,,,,,,,,,,,,,,,,,,,,,,,,,,,,,,,,,,,,,,,,,,,,,,,,,,,,,,,,,,,,,,,,,,,,,,,,,,,,,,,,,,,,,,,,,,,,,,,,,,,,,,,,,,,,,
1739355832.876557,1739355832.876897,50.000000,0.000000,4268.333496,4251.922852,4310.384766,4287.051270,4238.333496,4222.563965,4216.794922,4266.153809,4233.077148,4223.205078,4555.512695,4477.820313,4391.922852,4488.846191,0.000000,0.000000,13.000000,,,,0.000000,4.000000,4.000000,4.000000,4.000000,4.000000,4.000000,4.000000,4.000000,4.000000,4.000000,4.000000,4.000000,4.000000,4.000000,100.000000,,,,,,,,,,,,,,,,,,,,,,,,,,,,,,,,,,,,,,,,,,,,,,,,,,,,,,,,,,,,,,,,,,,,,,,,,,,,,,,,,,,,,,,,,,,,,,,,,,,,,,,,,,,,,,,,,,,,,,,,,,,,,,,,,
1739355832.884365,1739355832.884705,51.000000,0.000000,4248.846191,4228.077148,4294.743652,4263.461426,4216.410156,4202.563965,4197.948730,4256.922852,4216.025879,4203.333496,4539.487305,4454.615234,4380.897461,4470.769043,0.000000,0.000000,13.000000,,,,0.000000,4.000000,4.000000,4.000000,4.000000,4.000000,4.000000,4.000000,4.000000,4.000000,4.000000,4.000000,4.000000,4.000000,4.000000,100.000000,,,,,,,,,,,,,,,,,,,,,,,,,,,,,,,,,,,,,,,,,,,,,,,,,,,,,,,,,,,,,,,,,,,,,,,,,,,,,,,,,,,,,,,,,,,,,,,,,,,,,,,,,,,,,,,,,,,,,,,,,,,,,,,,,
1739355832.892173,1739355832.892413,52.000000,0.000000,4251.153809,4228.205078,4296.025879,4267.179688,4216.153809,4204.871582,4203.974121,4263.333496,4210.384766,4198.077148,4535.897461,4456.025879,4383.717773,4469.871582,0.000000,0.000000,13.000000,,,,0.000000,4.000000,4.000000,4.000000,4.000000,4.000000,4.000000,4.000000,4.000000,4.000000,4.000000,4.000000,4.000000,4.000000,4.000000,100.000000,,,,,,,,,,,,,,,,,13.000000,0.000000,0.710925,0.024963,-0.683960,0.161743,0.980100,-0.179709,0.062508,-41.825855,-30.298738,44.324181,,,,,,,,,,,,,,,,,,,,,,,,,,,,,,,,,,,,,,,,,,,,,,,,,,,,,,,,,,,,,,,,,,,,,,,,,,,,,,,,,,,,,,,,,,,,,,,,,,,,,
1739355832.899982,1739355832.900221,53.000000,0.000000,4276.538574,4257.948730,4317.179688,4296.666504,4246.794922,4235.641113,4237.307617,4273.846191,4232.563965,4225.000000,4553.589844,4490.128418,4401.025879,4491.282227,0.000000,0.000000,13.000000,,,,0.000000,4.000000,4.000000,4.000000,4.000000,4.000000,4.000000,4.000000,4.000000,4.000000,4.000000,4.000000,4.000000,4.000000,4.000000,100.000000,,,,,,,,,,,,,,,,,,,,,,,,,,,,,,,,,,,,,,,,,,,,,,,,,,,,,,,,,,,,,,,,,,,,,,,,,,,,,,,,,,,,,,,,,,,,,,,,,,,,,,,,,,,,,,,,,,,,,,,,,,,,,,,,,
1739355832.907790,1739355832.907929,54.000000,0.000000,4275.128418,4257.051270,4315.128418,4292.307617,4248.333496,4236.922852,4240.769043,4267.820313,4231.282227,4225.000000,4549.230957,4488.846191,4393.205078,4489.358887,0.000000,0.000000,13.000000,,,,0.000000,4.000000,4.000000,4.000000,4.000000,4.000000,4.000000,4.000000,4.000000,4.000000,4.000000,4.000000,4.000000,4.000000,4.000000,100.000000,,,,,,,,,,,,,,,,,,,,,,,,,,,,,,,,,,,,,,,,,,,,,,,,,,,,,,,,,,,,,,,,,,,,,,,,,,,,,,,,,,,,,,,,,,,,,,,,,,,,,,,,,,,,,,,,,,,,,,,,,,,,,,,,,
1739355832.915598,1739355832.915837,55.000000,0.000000,4256.794922,4234.615234,4301.153809,4271.153809,4225.384766,4215.384766,4219.871582,4260.128418,4210.512695,4203.205078,4531.794922,4466.538574,4378.461426,4473.333496,0.000000,0.000000,13.000000,,,,0.000000,4.000000,4.000000,4.000000,4.000000,4.000000,4.000000,4.000000,4.000000,4.000000,4.000000,4.000000,4.000000,4.000000,4.000000,100.000000,,,,,,,,,,,,,,,,,,,,,,,,,,,,,,,,,,,,,,,,,,,,,,,,,,,,,,,,,,,,,,,,,,,,,,,,,,,,,,,,,,,,,,,,,,,,,,,,,,,,,,,,,,,,,,,,,,,,,,,,,,,,,,,,,
1739355832.923406,1739355832.923645,56.000000,0.000000,4259.487305,4238.461426,4305.512695,4273.333496,4225.769043,4213.717773,4218.589844,4264.743652,4216.153809,4208.717773,4538.461426,4478.077148,4392.563965,4476.922852,0.000000,0.000000,13.000000,,,,0.000000,4.000000,4.000000,4.000000,4.000000,4.000000,4.000000,4.000000,4.000000,4.000000,4.000000,4.000000,4.000000,4.000000,4.000000,100.000000,,,,,,,,,,,,,,,,,14.000000,0.000000,0.710599,0.025391,-0.684326,0.161560,0.998169,-0.183128,0.064949,-41.726604,-30.218864,44.175095,,,,,,,,,,,,,,,,,,,,,,,,,,,,,,,,1.649086,3.773696,1.292596,0.516045,1.571649,2.603028,3.540252,1.345768,0.511302,1.442430,1.524105,2.745660,1.451052,0.540968,1.156154,0.586274,3.613603,1.477142,0.520675,1.510175,0.932882,1.147806,0.955769,0.358081,1.003999,0.616159,2.013137,0.717174,0.407436,1.084783,0.651214,6.684898,0.945985,0.489234,1.225595,4.086254,1.290832,1.127128,0.702007,0.406425,1.136007,1.522370,1.730905,1.031882,1.272340,1.369901,1.511211,3.382452,1.258042,1.580226,2.943400,1.909144,1.780221,0.820276,1.407286,3.878656,3.226260,2.140699,0.871259,2.073550,1.825146,1.876585,1.837605,0.636525,1.216035,2.641143,3.241212,1.691419,0.742013,1.447882
1739355832.931214,1739355832.931553,57.000000,0.000000,4275.769043,4251.410156,4320.000000,4286.025879,4238.717773,4226.794922,4228.205078,4271.410156,4235.512695,4226.666504,4557.051270,4500.512695,4406.794922,4489.487305,0.000000,0.000000,13.000000,,,,0.000000,4.000000,4.000000,4.000000,4.000000,4.000000,4.000000,4.000000,4.000000,4.000000,4.000000,4.000000,4.000000,4.000000,4.000000,100.000000,,,,,,,,,,,,,,,,,,,,,,,,,,,,,,,,,,,,,,,,,,,,,,,,,,,,,,,,,,,,,,,,,,,,,,,,,,,,,,,,,,,,,,,,,,,,,,,,,,,,,,,,,,,,,,,,,,,,,,,,,,,,,,,,,
1739355832.939022,1739355832.939361,58.000000,0.000000,4273.333496,4238.846191,4319.358887,4277.307617,4228.974121,4224.615234,4220.384766,4268.077148,4233.461426,4223.589844,4551.922852,4496.025879,4390.384766,4482.307617,0.000000,0.000000,13.000000,,,,0.000000,4.000000,4.000000,4.000000,4.000000,4.000000,4.000000,4.000000,4.000000,4.000000,4.000000,4.000000,4.000000,4.000000,4.000000,100.000000,,,,,,,,,,,,,,,,,,,,,,,,,,,,,,,,,,,,,,,,,,,,,,,,,,,,,,,,,,,,,,,,,,,,,,,,,,,,,,,,,,,,,,,,,,,,,,,,,,,,,,,,,,,,,,,,,,,,,,,,,,,,,,,,,
1739355832.946830,1739355832.947269,59.000000,0.000000,4261.025879,4223.846191,4312.051270,4262.051270,4217.563965,4213.846191,4211.025879,4265.897461,4224.743652,4217.051270,4541.153809,4488.461426,4378.077148,4467.051270,0.000000,0.000000,13.000000,,,,0.000000,4.000000,4.000000,4.000000,4.000000,4.000000,4.000000,4.000000,4.000000,4.000000,4.000000,4.000000,4.000000,4.000000,4.000000,100.000000,,,,,,,,,,,,,,,,,,,,,,,,,,,,,,,,,,,,,,,,,,,,,,,,,,,,,,,,,,,,,,,,,,,,,,,,,,,,,,,,,,,,,,,,,,,,,,,,,,,,,,,,,,,,,,,,,,,,,,,,,,,,,,,,,
1739355832.954638,1739355832.955078,60.000000,0.000000,4275.897461,4239.102539,4326.922852,4275.897461,4235.000000,4224.358887,4224.102539,4273.077148,4241.794922,4235.128418,4563.077148,4510.897461,4396.538574,4481.538574,0.000000,0.000000,13.000000,,,,0.000000,4.000000,4.000000,4.000000,4.000000,4.000000,4.000000,4.000000,4.000000,4.000000,4.000000,4.000000,4.000000,4.000000,4.000000,100.000000,,,,,,,,,,,,,,,,,15.000000,0.000000,0.710428,0.025635,-0.684509,0.161499,0.993285,-0.192406,0.067879,-41.770611,-30.146978,44.124252,,,,,,,,,,,,,,,,,,,,,,,,,,,,,,,,,,,,,,,,,,,,,,,,,,,,,,,,,,,,,,,,,,,,,,,,,,,,,,,,,,,,,,,,,,,,,,,,,,,,,
1739355832.962446,1739355832.962886,61.000000,0.000000,4297.692383,4257.307617,4342.948730,4295.769043,4256.538574,4243.717773,4240.000000,4278.333496,4265.897461,4257.692383,4587.820313,4533.589844,4411.025879,4505.256348,0.000000,0.000000,13.000000,,,,0.000000,4.000000,4.000000,4.000000,4.000000,4.000000,4.000000,4.000000,4.000000,4.000000,4.000000,4.000000,4.000000,4.000000,4.000000,100.000000,,,,,,,,,,,,,,,,,,,,,,,,,,,,,,,,,,,,,,,,,,,,,,,,,,,,,,,,,,,,,,,,,,,,,,,,,,,,,,,,,,,,,,,,,,,,,,,,,,,,,,,,,,,,,,,,,,,,,,,,,,,,,,,,,
1739355832.970254,1739355832.970594,62.000000,0.000000,4278.205078,4242.436035,4319.743652,4277.948730,4246.410156,4236.922852,4233.205078,4271.153809,4255.384766,4249.102539,4562.307617,4508.205078,4388.974121,4483.846191,0.000000,0.000000,13.000000,,,,0.000000,4.000000,4.000000,4.000000,4.000000,4.000000,4.000000,4.000000,4.000000,4.000000,4.000000,4.000000,4.000000,4.000000,4.000000,100.000000,,,,,,,,,,,,,,,,,,,,,,,,,,,,,,,,,,,,,,,,,,,,,,,,,,,,,,,,,,,,,,,,,,,,,,,,,,,,,,,,,,,,,,,,,,,,,,,,,,,,,,,,,,,,,,,,,,,,,,,,,,,,,,,,,
1739355832.978063,1739355832.978502,63.000000,0.000000,4252.051270,4225.128418,4289.230957,4254.487305,4237.179688,4224.230957,4225.769043,4265.128418,4231.538574,4226.666504,4530.641113,4476.410156,4365.641113,4453.205078,0.000000,0.000000,13.000000,,,,0.000000,4.000000,4.000000,4.000000,4.000000,4.000000,4.000000,4.000000,4.000000,4.000000,4.000000,4.000000,4.000000,4.000000,4.000000,100.000000,,,,,,,,,,,,,,,,,,,,,,,,,,,,,,,,,,,,,,,,,,,,,,,,,,,,,,,,,,,,,,,,,,,,,,,,,,,,,,,,,,,,,,,,,,,,,,,,,,,,,,,,,,,,,,,,,,,,,,,,,,,,,,,,,
1739355832.985870,1739355832.986310,64.000000,0.000000,4258.333496,4233.205078,4295.128418,4260.897461,4246.666504,4232.179688,4233.077148,4269.871582,4232.436035,4221.922852,4542.563965,4482.948730,4371.794922,4459.230957,5081.000000,0.000000,13.000000,,,,0.000000,4.000000,4.000000,4.000000,4.000000,4.000000,4.000000,4.000000,4.000000,4.000000,4.000000,4.000000,4.000000,4.000000,4.000000,100.000000,,,,,,,,,,,,,,,,,16.000000,0.000000,0.709819,0.025818,-0.685120,0.161560,0.974728,-0.180198,0.060066,-41.760216,-30.198948,44.078495,,,,,,,,,,,,,,,,,,,,,,,,,,,,,,,,,,,,,,,,,,,,,,,,,,,,,,,,,,,,,,,,,,,,,,,,,,,,,,,,,,,,,,,,,,,,,,,,,,,,,
1739355832.993679,1739355832.994218,65.000000,0.000000,4261.922852,4236.153809,4306.538574,4261.794922,4240.512695,4236.025879,4236.794922,4272.563965,4237.820313,4221.538574,4553.461426,4492.307617,4380.384766,4467.948730,5629.000000,0.000000,13.000000,,,,0.000000,4.000000,4.000000,4.000000,4.000000,4.000000,4.000000,4.000000,4.000000,4.000000,4.000000,4.000000,4.000000,4.000000,4.000000,100.000000,,,,,,,,,,,,,,,,,,,,,,,,,,,,,,,,,,,,,,,,,,,,,,,,,,,,,,,,,,,,,,,,,,,,,,,,,,,,,,,,,,,,,,,,,,,,,,,,,,,,,,,,,,,,,,,,,,,,,,,,,,,,,,,,,
1739355833.001487,1739355833.002027,66.000000,0.000000,4263.077148,4231.282227,4306.538574,4255.512695,4232.179688,4232.436035,4239.871582,4271.153809,4233.461426,4217.436035,4546.666504,4493.846191,4383.846191,4471.538574,5644.000000,0.000000,13.000000,,,,0.000000,4.000000,4.000000,4.000000,4.000000,4.000000,4.000000,4.000000,4.000000,4.000000,4.000000,4.000000,4.000000,4.000000,4.000000,100.000000,,,,,,,,,,,,,,,,,,,,,,,,,,,,,,,,,,,,,,,,,,,,,,,,,,,,,,,,,,,,,,,,,,,,,,,,,,,,,,,,,,,,,,,,,,,,,,,,,,,,,,,,,,,,,,,,,,,,,,,,,,,,,,,,,
1739355833.009295,1739355833.009935,67.000000,0.000000,4279.102539,4239.871582,4314.102539,4266.410156,4247.436035,4236.282227,4250.000000,4270.769043,4234.743652,4219.615234,4552.051270,4508.461426,4395.000000,4483.461426,5586.000000,0.000000,13.000000,,,,0.000000,4.000000,4.000000,4.000000,4.000000,4.000000,4.000000,4.000000,4.000000,4.000000,4.000000,4.000000,4.000000,4.000000,4.000000,100.000000,,,,,,,,,,,,,,,,,,,,,,,,,,,,,,,,,,,,,,,,,,,,,,,,,,,,,,,,,,,,,,,,,,,,,,,,,,,,,,,,,,,,,,,,,,,,,,,,,,,,,,,,,,,,,,,,,,,,,,,,,,,,,,,,,
1739355833.017103,1739355833.017743,68.000000,0.000000,4282.307617,4246.794922,4318.333496,4268.974121,4252.307617,4236.538574,4245.512695,4268.077148,4234.230957,4218.974121,4552.436035,4508.846191,4398.717773,4480.641113,5544.000000,0.000000,13.000000,,,,0.000000,4.000000,4.000000,4.000000,4.000000,4.000000,4.000000,4.000000,4.000000,4.000000,4.000000,4.000000,4.000000,4.000000,4.000000,100.000000,,,,,,,,,,,,,,,,,17.000000,0.000000,0.709005,0.026245,-0.685974,0.161438,0.983518,-0.163594,0.044927,-41.650860,-30.279053,44.187309,,,,,,,,,,,,,,,,,,,,,,,,,,,,,,,,,,,,,,,,,,,,,,,,,,,,,,,,,,,,,,,,,,,,,,,,,,,,,,,,,,,,,,,,,,,,,,,,,,,,,
1739355833.024911,1739355833.025651,69.000000,0.000000,4274.230957,4242.436035,4313.205078,4254.615234,4237.179688,4234.102539,4233.717773,4265.000000,4227.179688,4217.179688,4540.256348,4494.615234,4394.871582,4471.666504,5531.000000,0.000000,13.000000,,,,0.000000,4.000000,4.000000,4.000000,4.000000,4.000000,4.000000,4.000000,4.000000,4.000000,4.000000,4.000000,4.000000,4.000000,4.000000,100.000000,,,,,,,,,,,,,,,,,,,,,,,,,,,,,,,,,,,,,,,,,,,,,,,,,,,,,,,,,,,,,,,,,,,,,,,,,,,,,,,,,,,,,,,,,,,,,,,,,,,,,,,,,,,,,,,,,,,,,,,,,,,,,,,,,
1739355833.032719,1739355833.033459,70.000000,0.000000,4270.897461,4239.102539,4307.307617,4245.256348,4232.436035,4230.128418,4228.461426,4264.102539,4225.897461,4214.230957,4538.205078,4493.333496,4397.820313,4473.461426,5507.000000,0.000000,13.000000,,,,0.000000,4.000000,4.000000,4.000000,4.000000,4.000000,4.000000,4.000000,4.000000,4.000000,4.000000,4.000000,4.000000,4.000000,4.000000,100.000000,,,,,,,,,,,,,,,,,,,,,,,,,,,,,,,,,,,,,,,,,,,,,,,,,,,,,,,,,,,,,,,,,,,,,,,,,,,,,,,,,,,,,,,,,,,,,,,,,,,,,,,,,,,,,,,,,,,,,,,,,,,,,,,,,
1739355833.040527,1739355833.041367,71.000000,0.000000,4284.615234,4252.820313,4324.230957,4263.205078,4248.974121,4235.256348,4237.692383,4270.128418,4243.077148,4229.487305,4559.871582,4516.282227,4416.922852,4486.922852,2142.000000,0.000000,13.000000,,,,0.000000,4.000000,4.000000,4.000000,4.000000,4.000000,4.000000,4.000000,4.000000,4.000000,4.000000,4.000000,4.000000,4.000000,4.000000,100.000000,,,,,,,,,,,,,,,,,,,,,,,,,,,,,,,,,,,,,,,,,,,,,,,,,,,,,,,,,,,,,,,,,,,,,,,,,,,,,,,,,,,,,,,,,,,,,,,,,,,,,,,,,,,,,,,,,,,,,,,,,,,,,,,,,
1739355833.048335,1739355833.049176,72.000000,0.000000,4288.333496,4254.487305,4332.563965,4268.974121,4249.615234,4234.102539,4232.051270,4266.922852,4246.666504,4242.948730,4562.051270,4519.358887,4417.307617,4484.871582,5320.000000,0.000000,13.000000,,,,0.000000,4.000000,4.000000,4.000000,4.000000,4.000000,4.000000,4.000000,4.000000,4.000000,4.000000,4.000000,4.000000,4.000000,4.000000,100.000000,1.000000,41.666668,3.000000,4.000000,3.000000,4.000000,4.000000,3.000000,3.000000,4.000000,4.000000,1.000000,4.000000,1.000000,4.000000,3.000000,18.000000,0.000000,0.708326,0.027283,-0.686707,0.161133,0.980588,-0.179221,0.044439,-41.852440,-30.134481,44.235245,,,,,,,,,,,,,,,,,,,,,,,,,,,,,,,,1.594014,3.099471,1.329117,0.512653,1.526491,2.074661,2.946417,1.253682,0.532003,1.374198,1.874764,2.264675,1.502191,0.538852,1.111861,0.557517,2.799542,1.321830,0.526381,1.469583,0.945647,0.963694,0.918990,0.388101,1.001126,0.711167,2.172801,0.670713,0.400570,1.070625,0.799090,7.341131,0.957890,0.459183,1.157771,5.900934,1.459860,1.322407,0.660494,0.394159,1.322382,1.343737,1.849413,0.852414,1.269152,1.480372,1.327459,3.566235,1.061266,1.575501,3.710847,1.626618,1.925603,0.738485,1.391617,4.978252,2.586114,2.426563,0.804684,2.006687,1.980215,1.671828,1.943192,0.599556,1.265874,3.160530,2.779377,2.017772,0.709981,1.449959
1739355833.056143,1739355833.056884,73.000000,0.000000,4261.666504,4228.717773,4306.153809,4238.974121,4228.717773,4215.512695,4203.717773,4253.461426,4218.846191,4215.256348,4528.077148,4486.538574,4389.743652,4458.974121,5691.000000,0.000000,13.000000,,,,0.000000,4.000000,4.000000,4.000000,4.000000,4.000000,4.000000,4.000000,4.000000,4.000000,4.000000,4.000000,4.000000,4.000000,4.000000,100.000000,,,,,,,,,,,,,,,,,,,,,,,,,,,,,,,,,,,,,,,,,,,,,,,,,,,,,,,,,,,,,,,,,,,,,,,,,,,,,,,,,,,,,,,,,,,,,,,,,,,,,,,,,,,,,,,,,,,,,,,,,,,,,,,,,
1739355833.063951,1739355833.064692,74.000000,0.000000,4254.615234,4226.410156,4300.256348,4235.256348,4237.948730,4221.025879,4208.333496,4257.563965,4217.820313,4200.641113,4524.358887,4481.538574,4389.358887,4453.717773,4956.000000,0.000000,13.000000,,,,0.000000,4.000000,4.000000,4.000000,4.000000,4.000000,4.000000,4.000000,4.000000,4.000000,4.000000,4.000000,4.000000,4.000000,4.000000,100.000000,,,,,,,,,,,,,,,,,,,,,,,,,,,,,,,,,,,,,,,,,,,,,,,,,,,,,,,,,,,,,,,,,,,,,,,,,,,,,,,,,,,,,,,,,,,,,,,,,,,,,,,,,,,,,,,,,,,,,,,,,,,,,,,,,
1739355833.071759,1739355833.072400,75.000000,0.000000,4267.563965,4239.230957,4312.692383,4252.051270,4258.461426,4243.974121,4233.205078,4271.282227,4244.487305,4216.153809,4543.589844,4498.717773,4403.589844,4462.692383,5592.000000,0.000000,13.000000,,,,0.000000,4.000000,4.000000,4.000000,4.000000,4.000000,4.000000,4.000000,4.000000,4.000000,4.000000,4.000000,4.000000,4.000000,4.000000,100.000000,,,,,,,,,,,,,,,,,,,,,,,,,,,,,,,,,,,,,,,,,,,,,,,,,,,,,,,,,,,,,,,,,,,,,,,,,,,,,,,,,,,,,,,,,,,,,,,,,,,,,,,,,,,,,,,,,,,,,,,,,,,,,,,,,
1739355833.079568,1739355833.080208,76.000000,0.000000,4247.820313,4222.051270,4296.025879,4232.436035,4242.179688,4235.897461,4222.179688,4268.333496,4240.897461,4204.871582,4525.641113,4482.051270,4383.717773,4443.846191,5557.000000,0.000000,13.000000,,,,0.000000,4.000000,4.000000,4.000000,4.000000,4.000000,4.000000,4.000000,4.000000,4.000000,4.000000,4.000000,4.000000,4.000000,4.000000,100.000000,,,,,,,,,,,,,,,,,19.000000,0.000000,0.707890,0.027832,-0.687134,0.161133,0.989867,-0.182639,0.041997,-41.883865,-29.821033,44.178387,,,,,,,,,,,,,,,,,,,,,,,,,,,,,,,,,,,,,,,,,,,,,,,,,,,,,,,,,,,,,,,,,,,,,,,,,,,,,,,,,,,,,,,,,,,,,,,,,,,,,
1739355833.087376,1739355833.087916,77.000000,0.000000,4224.102539,4204.230957,4279.487305,4207.051270,4221.794922,4219.871582,4207.307617,4263.974121,4223.205078,4183.974121,4504.102539,4466.794922,4364.871582,4424.615234,6569.000000,0.000000,13.000000,,,,0.000000,4.000000,4.000000,4.000000,4.000000,4.000000,4.000000,4.000000,4.000000,4.000000,4.000000,4.000000,4.000000,4.000000,4.000000,100.000000,,,,,,,,,,,,,,,,,,,,,,,,,,,,,,,,,,,,,,,,,,,,,,,,,,,,,,,,,,,,,,,,,,,,,,,,,,,,,,,,,,,,,,,,,,,,,,,,,,,,,,,,,,,,,,,,,,,,,,,,,,,,,,,,,
1739355833.095184,1739355833.095724,78.000000,0.000000,4236.922852,4212.820313,4291.410156,4215.128418,4231.410156,4231.025879,4225.128418,4271.025879,4231.410156,4195.256348,4518.846191,4485.512695,4380.128418,4436.794922,4956.000000,0.000000,13.000000,,,,0.000000,4.000000,4.000000,4.000000,4.000000,4.000000,4.000000,4.000000,4.000000,4.000000,4.000000,4.000000,4.000000,4.000000,4.000000,100.000000,,,,,,,,,,,,,,,,,,,,,,,,,,,,,,,,,,,,,,,,,,,,,,,,,,,,,,,,,,,,,,,,,,,,,,,,,,,,,,,,,,,,,,,,,,,,,,,,,,,,,,,,,,,,,,,,,,,,,,,,,,,,,,,,,
1739355833.102992,1739355833.103432,79.000000,0.000000,4251.282227,4218.589844,4298.974121,4220.512695,4242.820313,4235.128418,4236.666504,4272.307617,4244.358887,4208.974121,4530.897461,4500.641113,4391.025879,4446.538574,5592.000000,0.000000,13.000000,,,,0.000000,4.000000,4.000000,4.000000,4.000000,4.000000,4.000000,4.000000,4.000000,4.000000,4.000000,4.000000,4.000000,4.000000,4.000000,100.000000,,,,,,,,,,,,,,,,,,,,,,,,,,,,,,,,,,,,,,,,,,,,,,,,,,,,,,,,,,,,,,,,,,,,,,,,,,,,,,,,,,,,,,,,,,,,,,,,,,,,,,,,,,,,,,,,,,,,,,,,,,,,,,,,,
1739355833.110800,1739355833.111240,80.000000,0.000000,4253.205078,4219.743652,4304.358887,4215.641113,4244.102539,4231.282227,4237.563965,4271.410156,4245.769043,4210.256348,4531.025879,4508.077148,4389.615234,4447.563965,5557.000000,0.000000,13.000000,,,,0.000000,4.000000,4.000000,4.000000,4.000000,4.000000,4.000000,4.000000,4.000000,4.000000,4.000000,4.000000,4.000000,4.000000,4.000000,100.000000,,,,,,,,,,,,,,,,,20.000000,0.000000,0.707309,0.028076,-0.687622,0.161560,0.964473,-0.193383,0.038091,-41.862144,-29.738930,44.210548,,,,,,,,,,,,,,,,,,,,,,,,,,,,,,,,,,,,,,,,,,,,,,,,,,,,,,,,,,,,,,,,,,,,,,,,,,,,,,,,,,,,,,,,,,,,,,,,,,,,,
1739355833.118608,1739355833.118948,81.000000,0.000000,4262.179688,4231.794922,4318.333496,4223.333496,4252.179688,4242.051270,4246.153809,4274.358887,4248.077148,4215.256348,4537.692383,4524.487305,4399.615234,4459.358887,6569.000000,0.000000,13.000000,,,,0.000000,4.000000,4.000000,4.000000,4.000000,4.000000,4.000000,4.000000,4.000000,4.000000,4.000000,4.000000,4.000000,4.000000,4.000000,100.000000,,,,,,,,,,,,,,,,,,,,,,,,,,,,,,,,,,,,,,,,,,,,,,,,,,,,,,,,,,,,,,,,,,,,,,,,,,,,,,,,,,,,,,,,,,,,,,,,,,,,,,,,,,,,,,,,,,,,,,,,,,,,,,,,,
1739355833.126416,1739355833.126756,82.000000,0.000000,4272.051270,4241.153809,4321.922852,4229.487305,4259.743652,4248.589844,4250.897461,4274.743652,4252.820313,4220.384766,4540.641113,4529.487305,4410.512695,4465.641113,4956.000000,0.000000,13.000000,,,,0.000000,4.000000,4.000000,4.000000,4.000000,4.000000,4.000000,4.000000,4.000000,4.000000,4.000000,4.000000,4.000000,4.000000,4.000000,100.000000,,,,,,,,,,,,,,,,,,,,,,,,,,,,,,,,,,,,,,,,,,,,,,,,,,,,,,,,,,,,,,,,,,,,,,,,,,,,,,,,,,,,,,,,,,,,,,,,,,,,,,,,,,,,,,,,,,,,,,,,,,,,,,,,,
1739355833.134224,1739355833.134464,83.000000,0.000000,4283.205078,4251.538574,4331.025879,4236.922852,4270.128418,4254.487305,4262.436035,4277.563965,4266.666504,4237.436035,4550.000000,4539.230957,4420.641113,4474.102539,5592.000000,0.000000,13.000000,,,,0.000000,4.000000,4.000000,4.000000,4.000000,4.000000,4.000000,4.000000,4.000000,4.000000,4.000000,4.000000,4.000000,4.000000,4.000000,100.000000,,,,,,,,,,,,,,,,,,,,,,,,,,,,,,,,,,,,,,,,,,,,,,,,,,,,,,,,,,,,,,,,,,,,,,,,,,,,,,,,,,,,,,,,,,,,,,,,,,,,,,,,,,,,,,,,,,,,,,,,,,,,,,,,,
1739355833.142032,1739355833.142272,84.000000,0.000000,4282.563965,4250.512695,4334.615234,4232.948730,4266.153809,4255.000000,4260.384766,4275.128418,4264.615234,4242.307617,4550.897461,4542.692383,4418.589844,4474.487305,5557.000000,0.000000,13.000000,,,,0.000000,4.000000,4.000000,4.000000,4.000000,4.000000,4.000000,4.000000,4.000000,4.000000,4.000000,4.000000,4.000000,4.000000,4.000000,100.000000,,,,,,,,,,,,,,,,,21.000000,0.000000,0.706814,0.028320,-0.688049,0.161865,0.964473,-0.192406,0.033696,-41.775928,-29.681704,44.139496,,,,,,,,,,,,,,,,,,,,,,,,,,,,,,,,,,,,,,,,,,,,,,,,,,,,,,,,,,,,,,,,,,,,,,,,,,,,,,,,,,,,,,,,,,,,,,,,,,,,,
1739355833.149840,1739355833.149980,85.000000,0.000000,4276.282227,4238.333496,4327.179688,4218.077148,4254.487305,4250.000000,4245.384766,4271.666504,4250.897461,4228.846191,4543.717773,4535.897461,4413.846191,4463.461426,6569.000000,0.000000,13.000000,,,,0.000000,4.000000,4.000000,4.000000,4.000000,4.000000,4.000000,4.000000,4.000000,4.000000,4.000000,4.000000,4.000000,4.000000,4.000000,100.000000,,,,,,,,,,,,,,,,,,,,,,,,,,,,,,,,,,,,,,,,,,,,,,,,,,,,,,,,,,,,,,,,,,,,,,,,,,,,,,,,,,,,,,,,,,,,,,,,,,,,,,,,,,,,,,,,,,,,,,,,,,,,,,,,,
1739355833.157648,1739355833.157788,86.000000,0.000000,4277.820313,4231.410156,4328.589844,4208.717773,4259.102539,4251.410156,4248.461426,4274.487305,4254.358887,4230.512695,4550.128418,4541.922852,4419.102539,4460.641113,4956.000000,0.000000,13.000000,,,,0.000000,4.000000,4.000000,4.000000,4.000000,4.000000,4.000000,4.000000,4.000000,4.000000,4.000000,4.000000,4.000000,4.000000,4.000000,100.000000,,,,,,,,,,,,,,,,,,,,,,,,,,,,,,,,,,,,,,,,,,,,,,,,,,,,,,,,,,,,,,,,,,,,,,,,,,,,,,,,,,,,,,,,,,,,,,,,,,,,,,,,,,,,,,,,,,,,,,,,,,,,,,,,,
1739355833.165456,1739355833.165496,87.000000,0.000000,4259.743652,4216.025879,4316.282227,4187.692383,4250.384766,4240.256348,4240.769043,4268.333496,4242.948730,4217.179688,4536.282227,4530.000000,4408.333496,4448.589844,5592.000000,0.000000,13.000000,,,,0.000000,4.000000,4.000000,4.000000,4.000000,4.000000,4.000000,4.000000,4.000000,4.000000,4.000000,4.000000,4.000000,4.000000,4.000000,100.000000,,,,,,,,,,,,,,,,,,,,,,,,,,,,,,,,,,,,,,,,,,,,,,,,,,,,,,,,,,,,,,,,,,,,,,,,,,,,,,,,,,,,,,,,,,,,,,,,,,,,,,,,,,,,,,,,,,,,,,,,,,,,,,,,,
1739355833.173265,1739355833.173304,88.000000,0.000000,4247.820313,4212.692383,4308.205078,4180.769043,4242.692383,4230.769043,4228.077148,4265.128418,4232.692383,4204.487305,4520.897461,4520.128418,4403.333496,4442.948730,5557.000000,0.000000,13.000000,,,,0.000000,4.000000,4.000000,4.000000,4.000000,4.000000,4.000000,4.000000,4.000000,4.000000,4.000000,4.000000,4.000000,4.000000,4.000000,100.000000,,,,,,,,,,,,,,,,,22.000000,0.000000,0.706718,0.028442,-0.688171,0.161743,0.964473,-0.182151,0.045416,-41.765003,-29.746866,44.058880,,,,,,,,,,,,,,,,,,,,,,,,,,,,,,,,1.596091,2.508283,1.386210,0.580203,1.464324,1.549562,2.438435,1.146233,0.628582,1.304763,2.213365,1.884471,1.527383,0.580618,1.061040,0.528735,2.101456,1.134163,0.597991,1.412584,0.897504,0.853937,0.903931,0.510688,1.008378,0.797030,2.202886,0.629633,0.455025,1.058529,0.968910,7.530445,0.953495,0.491509,1.101391,7.245966,1.480171,1.406471,0.556118,0.361781,1.533327,1.110302,1.995191,0.743646,1.262595,1.663098,1.142338,3.650595,0.950222,1.559353,4.376541,1.313442,2.010197,0.717351,1.367173,5.953227,2.177797,2.672399,0.800082,1.929082,2.097473,1.498929,1.974134,0.608679,1.280552,3.660400,2.336588,2.291704,0.697928,1.431645
1739355833.181073,1739355833.181012,89.000000,0.000000,4273.974121,4239.871582,4332.820313,4205.384766,4261.153809,4252.436035,4249.102539,4279.102539,4258.846191,4233.205078,4545.512695,4548.077148,4426.666504,4466.282227,6569.000000,0.000000,13.000000,,,,0.000000,4.000000,4.000000,4.000000,4.000000,4.000000,4.000000,4.000000,4.000000,4.000000,4.000000,4.000000,4.000000,4.000000,4.000000,100.000000,,,,,,,,,,,,,,,,,,,,,,,,,,,,,,,,,,,,,,,,,,,,,,,,,,,,,,,,,,,,,,,,,,,,,,,,,,,,,,,,,,,,,,,,,,,,,,,,,,,,,,,,,,,,,,,,,,,,,,,,,,,,,,,,,
1739355833.188881,1739355833.188920,90.000000,0.000000,4284.743652,4250.769043,4344.102539,4210.512695,4271.153809,4267.948730,4266.410156,4285.000000,4278.077148,4253.077148,4560.897461,4561.025879,4437.820313,4475.512695,4956.000000,0.000000,13.000000,,,,0.000000,4.000000,4.000000,4.000000,4.000000,4.000000,4.000000,4.000000,4.000000,4.000000,4.000000,4.000000,4.000000,4.000000,4.000000,100.000000,,,,,,,,,,,,,,,,,,,,,,,,,,,,,,,,,,,,,,,,,,,,,,,,,,,,,,,,,,,,,,,,,,,,,,,,,,,,,,,,,,,,,,,,,,,,,,,,,,,,,,,,,,,,,,,,,,,,,,,,,,,,,,,,,
1739355833.196689,1739355833.196728,91.000000,0.000000,4279.871582,4245.384766,4340.512695,4206.282227,4272.563965,4266.153809,4268.461426,4283.974121,4280.769043,4253.461426,4554.358887,4559.743652,4435.128418,4471.282227,5592.000000,0.000000,13.000000,,,,0.000000,4.000000,4.000000,4.000000,4.000000,4.000000,4.000000,4.000000,4.000000,4.000000,4.000000,4.000000,4.000000,4.000000,4.000000,100.000000,,,,,,,,,,,,,,,,,,,,,,,,,,,,,,,,,,,,,,,,,,,,,,,,,,,,,,,,,,,,,,,,,,,,,,,,,,,,,,,,,,,,,,,,,,,,,,,,,,,,,,,,,,,,,,,,,,,,,,,,,,,,,,,,,
1739355833.204497,1739355833.204636,92.000000,0.000000,4289.230957,4250.641113,4348.333496,4216.538574,4280.769043,4270.641113,4278.974121,4287.307617,4289.358887,4266.538574,4558.846191,4573.333496,4434.743652,4480.384766,5557.000000,0.000000,13.000000,,,,0.000000,4.000000,4.000000,4.000000,4.000000,4.000000,4.000000,4.000000,4.000000,4.000000,4.000000,4.000000,4.000000,4.000000,4.000000,100.000000,,,,,,,,,,,,,,,,,23.000000,0.000000,0.706869,0.028687,-0.688049,0.161560,0.969357,-0.179709,0.043951,-41.721836,-29.838846,44.069656,,,,,,,,,,,,,,,,,,,,,,,,,,,,,,,,,,,,,,,,,,,,,,,,,,,,,,,,,,,,,,,,,,,,,,,,,,,,,,,,,,,,,,,,,,,,,,,,,,,,,
1739355833.212305,1739355833.212445,93.000000,0.000000,4280.000000,4240.256348,4339.487305,4199.743652,4266.922852,4257.820313,4270.512695,4278.205078,4278.717773,4255.000000,4547.820313,4559.743652,4416.538574,4468.461426,6569.000000,0.000000,13.000000,,,,0.000000,4.000000,4.000000,4.000000,4.000000,4.000000,4.000000,4.000000,4.000000,4.000000,4.000000,4.000000,4.000000,4.000000,4.000000,100.000000,,,,,,,,,,,,,,,,,,,,,,,,,,,,,,,,,,,,,,,,,,,,,,,,,,,,,,,,,,,,,,,,,,,,,,,,,,,,,,,,,,,,,,,,,,,,,,,,,,,,,,,,,,,,,,,,,,,,,,,,,,,,,,,,,
1739355833.220113,1739355833.220353,94.000000,0.000000,4264.871582,4229.743652,4331.410156,4181.666504,4254.230957,4247.051270,4263.461426,4276.922852,4262.948730,4234.358887,4535.769043,4540.641113,4410.641113,4454.102539,4956.000000,0.000000,13.000000,,,,0.000000,4.000000,4.000000,4.000000,4.000000,4.000000,4.000000,4.000000,4.000000,4.000000,4.000000,4.000000,4.000000,4.000000,4.000000,100.000000,,,,,,,,,,,,,,,,,,,,,,,,,,,,,,,,,,,,,,,,,,,,,,,,,,,,,,,,,,,,,,,,,,,,,,,,,,,,,,,,,,,,,,,,,,,,,,,,,,,,,,,,,,,,,,,,,,,,,,,,,,,,,,,,,
1739355833.227921,1739355833.228161,95.000000,0.000000,4282.051270,4247.948730,4349.230957,4200.512695,4277.307617,4273.333496,4285.897461,4292.948730,4279.615234,4254.358887,4558.333496,4569.230957,4438.717773,4477.563965,5592.000000,0.000000,13.000000,,,,0.000000,4.000000,4.000000,4.000000,4.000000,4.000000,4.000000,4.000000,4.000000,4.000000,4.000000,4.000000,4.000000,4.000000,4.000000,100.000000,,,,,,,,,,,,,,,,,,,,,,,,,,,,,,,,,,,,,,,,,,,,,,,,,,,,,,,,,,,,,,,,,,,,,,,,,,,,,,,,,,,,,,,,,,,,,,,,,,,,,,,,,,,,,,,,,,,,,,,,,,,,,,,,,
1739355833.235729,1739355833.236069,96.000000,0.000000,4285.641113,4248.205078,4345.000000,4200.769043,4287.563965,4285.512695,4291.538574,4287.820313,4284.102539,4261.282227,4560.128418,4573.461426,4437.436035,4480.256348,5557.000000,0.000000,13.000000,,,,0.000000,4.000000,4.000000,4.000000,4.000000,4.000000,4.000000,4.000000,4.000000,4.000000,4.000000,4.000000,4.000000,4.000000,4.000000,100.000000,,,,,,,,,,,,,,,,,24.000000,0.000000,0.707166,0.028931,-0.687805,0.161255,0.980588,-0.188011,0.036626,-41.716320,-29.888294,44.029358,,,,,,,,,,,,,,,,,,,,,,,,,,,,,,,,,,,,,,,,,,,,,,,,,,,,,,,,,,,,,,,,,,,,,,,,,,,,,,,,,,,,,,,,,,,,,,,,,,,,,
1739355833.243537,1739355833.243877,97.000000,0.000000,4256.410156,4225.384766,4319.487305,4174.487305,4272.948730,4265.256348,4271.794922,4272.563965,4263.846191,4232.051270,4526.922852,4532.692383,4410.641113,4447.948730,6569.000000,0.000000,13.000000,,,,0.000000,4.000000,4.000000,4.000000,4.000000,4.000000,4.000000,4.000000,4.000000,4.000000,4.000000,4.000000,4.000000,4.000000,4.000000,100.000000,,,,,,,,,,,,,,,,,,,,,,,,,,,,,,,,,,,,,,,,,,,,,,,,,,,,,,,,,,,,,,,,,,,,,,,,,,,,,,,,,,,,,,,,,,,,,,,,,,,,,,,,,,,,,,,,,,,,,,,,,,,,,,,,,
1739355833.251345,1739355833.251785,98.000000,0.000000,4242.563965,4222.948730,4315.769043,4171.025879,4268.974121,4259.743652,4264.358887,4275.512695,4254.871582,4222.051270,4518.205078,4521.025879,4413.205078,4441.282227,4956.000000,0.000000,13.000000,,,,0.000000,4.000000,4.000000,4.000000,4.000000,4.000000,4.000000,4.000000,4.000000,4.000000,4.000000,4.000000,4.000000,4.000000,4.000000,100.000000,,,,,,,,,,,,,,,,,,,,,,,,,,,,,,,,,,,,,,,,,,,,,,,,,,,,,,,,,,,,,,,,,,,,,,,,,,,,,,,,,,,,,,,,,,,,,,,,,,,,,,,,,,,,,,,,,,,,,,,,,,,,,,,,,
1739355833.259153,1739355833.259593,99.000000,0.000000,4253.974121,4233.974121,4329.102539,4182.820313,4278.974121,4276.153809,4271.410156,4283.205078,4265.769043,4240.384766,4533.589844,4539.102539,4428.461426,4459.230957,5592.000000,0.000000,13.000000,,,,0.000000,4.000000,4.000000,4.000000,4.000000,4.000000,4.000000,4.000000,4.000000,4.000000,4.000000,4.000000,4.000000,4.000000,4.000000,100.000000,,,,,,,,,,,,,,,,,,,,,,,,,,,,,,,,,,,,,,,,,,,,,,,,,,,,,,,,,,,,,,,,,,,,,,,,,,,,,,,,,,,,,,,,,,,,,,,,,,,,,,,,,,,,,,,,,,,,,,,,,,,,,,,,,
1739355833.266961,1739355833.267501,100.000000,0.000000,4267.307617,4238.077148,4339.743652,4187.948730,4291.538574,4286.922852,4286.282227,4287.307617,4287.692383,4257.820313,4543.461426,4551.025879,4430.000000,4465.384766,5557.000000,0.000000,13.000000,,,,0.000000,4.000000,4.000000,4.000000,4.000000,4.000000,4.000000,4.000000,4.000000,4.000000,4.000000,4.000000,4.000000,4.000000,4.000000,100.000000,,,,,,,,,,,,,,,,,25.000000,0.000000,0.707648,0.028992,-0.687378,0.160950,0.985472,-0.171896,0.047369,-41.744686,-29.732800,44.009754,,,,,,,,,,,,,,,,,,,,,,,,,,,,,,,,,,,,,,,,,,,,,,,,,,,,,,,,,,,,,,,,,,,,,,,,,,,,,,,,,,,,,,,,,,,,,,,,,,,,,
1739355833.274770,1739355833.275309,101.000000,0.000000,4266.538574,4234.102539,4343.717773,4184.871582,4293.846191,4286.025879,4295.897461,4290.769043,4298.461426,4265.256348,4543.333496,4555.384766,4427.307617,4458.589844,6569.000000,0.000000,13.000000,,,,0.000000,4.000000,4.000000,4.000000,4.000000,4.000000,4.000000,4.000000,4.000000,4.000000,4.000000,4.000000,4.000000,4.000000,4.000000,100.000000,,,,,,,,,,,,,,,,,,,,,,,,,,,,,,,,,,,,,,,,,,,,,,,,,,,,,,,,,,,,,,,,,,,,,,,,,,,,,,,,,,,,,,,,,,,,,,,,,,,,,,,,,,,,,,,,,,,,,,,,,,,,,,,,,
1739355833.282578,1739355833.283017,102.000000,0.000000,4261.410156,4229.102539,4344.743652,4180.256348,4288.589844,4281.922852,4291.153809,4291.666504,4295.512695,4270.897461,4542.179688,4563.589844,4427.179688,4458.333496,4956.000000,0.000000,13.000000,,,,0.000000,4.000000,4.000000,4.000000,4.000000,4.000000,4.000000,4.000000,4.000000,4.000000,4.000000,4.000000,4.000000,4.000000,4.000000,100.000000,,,,,,,,,,,,,,,,,,,,,,,,,,,,,,,,,,,,,,,,,,,,,,,,,,,,,,,,,,,,,,,,,,,,,,,,,,,,,,,,,,,,,,,,,,,,,,,,,,,,,,,,,,,,,,,,,,,,,,,,,,,,,,,,,
1739355833.290386,1739355833.290825,103.000000,0.000000,4272.179688,4239.615234,4353.589844,4187.948730,4292.948730,4281.794922,4290.641113,4294.358887,4305.512695,4280.769043,4551.794922,4577.051270,4435.256348,4471.922852,5592.000000,0.000000,13.000000,,,,0.000000,4.000000,4.000000,4.000000,4.000000,4.000000,4.000000,4.000000,4.000000,4.000000,4.000000,4.000000,4.000000,4.000000,4.000000,100.000000,,,,,,,,,,,,,,,,,,,,,,,,,,,,,,,,,,,,,,,,,,,,,,,,,,,,,,,,,,,,,,,,,,,,,,,,,,,,,,,,,,,,,,,,,,,,,,,,,,,,,,,,,,,,,,,,,,,,,,,,,,,,,,,,,
1739355833.298194,1739355833.298533,104.000000,0.000000,4275.384766,4250.384766,4356.410156,4190.512695,4293.461426,4281.153809,4292.179688,4297.179688,4313.333496,4281.282227,4553.205078,4577.563965,4438.589844,4472.563965,5557.000000,0.000000,13.000000,,,,0.000000,4.000000,4.000000,4.000000,4.000000,4.000000,4.000000,4.000000,4.000000,4.000000,4.000000,4.000000,4.000000,4.000000,4.000000,100.000000,,,,,,,,,,,,,,,,,26.000000,0.000000,0.708072,0.028687,-0.687012,0.160706,0.993774,-0.185570,0.055183,-41.670219,-29.726185,44.042114,,,,,,,,,,,,,,,,,,,,,,,,,,,,,,,,1.672811,2.067011,1.441900,0.700407,1.389823,1.127809,2.065719,1.045517,0.765094,1.240208,2.455824,1.637821,1.525900,0.660673,1.010926,0.513222,1.615724,0.968417,0.724329,1.347971,0.820528,0.807312,0.925080,0.701812,1.023940,0.884511,2.098942,0.594307,0.554474,1.044973,1.181751,7.285932,0.921422,0.580456,1.060298,7.696907,1.341773,1.355934,0.422523,0.316362,1.789386,0.883717,2.136415,0.716164,1.244907,1.964889,0.983768,3.668675,0.939185,1.527865,4.730772,1.007746,2.037008,0.743239,1.339063,6.577783,1.984434,2.844133,0.858880,1.851401,2.163478,1.358511,1.918194,0.661553,1.255073,3.989260,1.945100,2.447202,0.702248,1.392599
1739355833.306002,1739355833.306341,105.000000,0.000000,4266.410156,4247.051270,4351.922852,4182.692383,4292.051270,4287.436035,4294.487305,4295.512695,4303.974121,4274.358887,4547.051270,4571.153809,4435.897461,4465.000000,6569.000000,0.000000,13.000000,,,,0.000000,4.000000,4.000000,4.000000,4.000000,4.000000,4.000000,4.000000,4.000000,4.000000,4.000000,4.000000,4.000000,4.000000,4.000000,100.000000,,,,,,,,,,,,,,,,,,,,,,,,,,,,,,,,,,,,,,,,,,,,,,,,,,,,,,,,,,,,,,,,,,,,,,,,,,,,,,,,,,,,,,,,,,,,,,,,,,,,,,,,,,,,,,,,,,,,,,,,,,,,,,,,,
1739355833.313810,1739355833.314049,106.000000,0.000000,4267.948730,4247.692383,4354.487305,4183.077148,4302.307617,4299.102539,4308.974121,4294.230957,4295.512695,4269.102539,4545.641113,4571.538574,4438.333496,4470.641113,4956.000000,0.000000,13.000000,,,,0.000000,4.000000,4.000000,4.000000,4.000000,4.000000,4.000000,4.000000,4.000000,4.000000,4.000000,4.000000,4.000000,4.000000,4.000000,100.000000,,,,,,,,,,,,,,,,,,,,,,,,,,,,,,,,,,,,,,,,,,,,,,,,,,,,,,,,,,,,,,,,,,,,,,,,,,,,,,,,,,,,,,,,,,,,,,,,,,,,,,,,,,,,,,,,,,,,,,,,,,,,,,,,,
1739355833.321618,1739355833.321857,107.000000,0.000000,4271.153809,4248.461426,4351.666504,4186.922852,4303.846191,4299.743652,4315.000000,4291.282227,4290.769043,4256.666504,4539.743652,4567.692383,4435.769043,4472.948730,5592.000000,0.000000,13.000000,,,,0.000000,4.000000,4.000000,4.000000,4.000000,4.000000,4.000000,4.000000,4.000000,4.000000,4.000000,4.000000,4.000000,4.000000,4.000000,100.000000,,,,,,,,,,,,,,,,,,,,,,,,,,,,,,,,,,,,,,,,,,,,,,,,,,,,,,,,,,,,,,,,,,,,,,,,,,,,,,,,,,,,,,,,,,,,,,,,,,,,,,,,,,,,,,,,,,,,,,,,,,,,,,,,,
1739355833.329426,1739355833.329565,108.000000,0.000000,4259.102539,4233.077148,4338.846191,4172.436035,4288.077148,4289.487305,4302.179688,4285.641113,4277.436035,4242.179688,4527.051270,4551.153809,4419.615234,4456.410156,5557.000000,0.000000,13.000000,,,,0.000000,4.000000,4.000000,4.000000,4.000000,4.000000,4.000000,4.000000,4.000000,4.000000,4.000000,4.000000,4.000000,4.000000,4.000000,100.000000,,,,,,,,,,,,,,,,,27.000000,0.000000,0.708517,0.028503,-0.686646,0.160339,0.965450,-0.173849,0.045904,-41.703197,-29.636900,43.937901,,,,,,,,,,,,,,,,,,,,,,,,,,,,,,,,,,,,,,,,,,,,,,,,,,,,,,,,,,,,,,,,,,,,,,,,,,,,,,,,,,,,,,,,,,,,,,,,,,,,,
1739355833.337234,1739355833.337373,109.000000,0.000000,4253.974121,4226.153809,4337.436035,4155.641113,4285.641113,4288.846191,4297.179688,4290.384766,4273.333496,4248.461426,4532.820313,4549.743652,4419.487305,4453.717773,6569.000000,0.000000,13.000000,,,,0.000000,4.000000,4.000000,4.000000,4.000000,4.000000,4.000000,4.000000,4.000000,4.000000,4.000000,4.000000,4.000000,4.000000,4.000000,100.000000,,,,,,,,,,,,,,,,,,,,,,,,,,,,,,,,,,,,,,,,,,,,,,,,,,,,,,,,,,,,,,,,,,,,,,,,,,,,,,,,,,,,,,,,,,,,,,,,,,,,,,,,,,,,,,,,,,,,,,,,,,,,,,,,,
1739355833.345042,1739355833.345081,110.000000,0.000000,4269.615234,4240.256348,4348.205078,4164.487305,4298.717773,4297.948730,4308.077148,4299.230957,4293.333496,4272.692383,4552.051270,4571.922852,4446.282227,4476.794922,4956.000000,0.000000,13.000000,,,,0.000000,4.000000,4.000000,4.000000,4.000000,4.000000,4.000000,4.000000,4.000000,4.000000,4.000000,4.000000,4.000000,4.000000,4.000000,100.000000,,,,,,,,,,,,,,,,,,,,,,,,,,,,,,,,,,,,,,,,,,,,,,,,,,,,,,,,,,,,,,,,,,,,,,,,,,,,,,,,,,,,,,,,,,,,,,,,,,,,,,,,,,,,,,,,,,,,,,,,,,,,,,,,,
1739355833.352850,1739355833.352889,111.000000,0.000000,4259.871582,4229.487305,4334.230957,4156.794922,4282.436035,4280.128418,4292.948730,4290.641113,4291.410156,4269.102539,4536.153809,4561.666504,4437.563965,4467.179688,5592.000000,0.000000,13.000000,,,,0.000000,4.000000,4.000000,4.000000,4.000000,4.000000,4.000000,4.000000,4.000000,4.000000,4.000000,4.000000,4.000000,4.000000,4.000000,100.000000,,,,,,,,,,,,,,,,,,,,,,,,,,,,,,,,,,,,,,,,,,,,,,,,,,,,,,,,,,,,,,,,,,,,,,,,,,,,,,,,,,,,,,,,,,,,,,,,,,,,,,,,,,,,,,,,,,,,,,,,,,,,,,,,,
1739355833.360659,1739355833.360597,112.000000,0.000000,4241.282227,4210.128418,4320.256348,4135.641113,4262.307617,4259.743652,4273.717773,4285.256348,4274.743652,4254.871582,4520.897461,4541.153809,4413.461426,4447.436035,5557.000000,0.000000,13.000000,,,,0.000000,4.000000,4.000000,4.000000,4.000000,4.000000,4.000000,4.000000,4.000000,4.000000,4.000000,4.000000,4.000000,4.000000,4.000000,100.000000,,,,,,,,,,,,,,,,,28.000000,0.000000,0.708721,0.028198,-0.686462,0.160278,0.996215,-0.163106,0.047857,-41.632877,-29.889877,43.977444,,,,,,,,,,,,,,,,,,,,,,,,,,,,,,,,,,,,,,,,,,,,,,,,,,,,,,,,,,,,,,,,,,,,,,,,,,,,,,,,,,,,,,,,,,,,,,,,,,,,,
