Timestamp,OriginalTimestamp,EEG.Counter,EEG.Interpolated,EEG.AF3,EEG.F7,EEG.F3,EEG.FC5,EEG.T7,EEG.P7,EEG.O1,EEG.O2,EEG.P8,EEG.T8,EEG.FC6,EEG.F4,EEG.F8,EEG.AF4,EEG.RawCq,EEG.Battery,EEG.BatteryPercent,MarkerIndex,MarkerType,MarkerValueInt,EEG.MarkerHardware,CQ.AF3,CQ.F7,CQ.F3,CQ.FC5,CQ.T7,CQ.P7,CQ.O1,CQ.O2,CQ.P8,CQ.T8,CQ.FC6,CQ.F4,CQ.F8,CQ.AF4,CQ.Overall,EQ.SampleRateQuality,EQ.OVERALL,EQ.AF3,EQ.F7,EQ.F3,EQ.FC5,EQ.T7,EQ.P7,EQ.O1,EQ.O2,EQ.P8,EQ.T8,EQ.FC6,EQ.F4,EQ.F8,EQ.AF4,MOT.CounterMems,MOT.InterpolatedMems,MOT.Q0,MOT.Q1,MOT.Q2,MOT.Q3,MOT.AccX,MOT.AccY,MOT.AccZ,MOT.MagX,MOT.MagY,MOT.MagZ,PM.Attention.IsActive,PM.Attention.Scaled,PM.Attention.Raw,PM.Attention.Min,PM.Attention.Max,PM.Engagement.IsActive,PM.Engagement.Scaled,PM.Engagement.Raw,PM.Engagement.Min,PM.Engagement.Max,PM.Excitement.IsActive,PM.Excitement.Scaled,PM.Excitement.Raw,PM.Excitement.Min,PM.Excitement.Max,PM.LongTermExcitement,PM.Stress.IsActive,PM.Stress.Scaled,PM.Stress.Raw,PM.Stress.Min,PM.Stress.Max,PM.Relaxation.IsActive,PM.Relaxation.Scaled,PM.Relaxation.Raw,PM.Relaxation.Min,PM.Relaxation.Max,PM.Interest.IsActive,PM.Interest.Scaled,PM.Interest.Raw,PM.Interest.Min,PM.Interest.Max,POW.AF3.Theta,POW.AF3.Alpha,POW.AF3.BetaL,POW.AF3.BetaH,POW.AF3.Gamma,POW.F7.Theta,POW.F7.Alpha,POW.F7.BetaL,POW.F7.BetaH,POW.F7.Gamma,POW.F3.Theta,POW.F3.Alpha,POW.F3.BetaL,POW.F3.BetaH,POW.F3.Gamma,POW.FC5.Theta,POW.FC5.Alpha,POW.FC5.BetaL,POW.FC5.BetaH,POW.FC5.Gamma,POW.T7.Theta,POW.T7.Alpha,POW.T7.BetaL,POW.T7.BetaH,POW.T7.Gamma,POW.P7.Theta,POW.P7.Alpha,POW.P7.BetaL,POW.P7.BetaH,POW.P7.Gamma,POW.O1.Theta,POW.O1.Alpha,POW.O1.BetaL,POW.O1.BetaH,POW.O1.Gamma,POW.O2.Theta,POW.O2.Alpha,POW.O2.BetaL,POW.O2.BetaH,POW.O2.Gamma,POW.P8.Theta,POW.P8.Alpha,POW.P8.BetaL,POW.P8.BetaH,POW.P8.Gamma,POW.T8.Theta,POW.T8.Alpha,POW.T8.BetaL,POW.T8.BetaH,POW.T8.Gamma,POW.FC6.Theta,POW.FC6.Alpha,POW.FC6.BetaL,POW.FC6.BetaH,POW.FC6.Gamma,POW.F4.Theta,POW.F4.Alpha,POW.F4.BetaL,POW.F4.BetaH,POW.F4.Gamma,POW.F8.Theta,POW.F8.Alpha,POW.F8.BetaL,POW.F8.BetaH,POW.F8.Gamma,POW.AF4.Theta,POW.AF4.Alpha,POW.AF4.BetaL,POW.AF4.BetaH,POW.AF4.Gamma
1742213694.100619,1742213694.100974,116.000000,0.000000,4197.436035,4215.000000,4243.846191,4241.794922,4202.692383,4175.000000,4183.589844,4162.436035,4104.230957,4126.922852,4431.282227,4419.102539,4072.307617,4432.051270,6543.000000,0.000000,6.000000,,,,0.000000,4.000000,4.000000,4.000000,4.000000,4.000000,4.000000,4.000000,4.000000,4.000000,4.000000,4.000000,4.000000,4.000000,4.000000,100.000000,,,,,,,,,,,,,,,,,29.000000,0.000000,0.707004,0.064453,-0.691406,0.133972,0.991332,-0.077158,0.034672,-41.562656,-16.130754,42.289070,,,,,,,,,,,,,,,,,,,,,,,,,,,,,,,,,,,,,,,,,,,,,,,,,,,,,,,,,,,,,,,,,,,,,,,,,,,,,,,,,,,,,,,,,,,,,,,,,,,,,
1742213694.108427,1742213694.108682,117.000000,0.000000,4207.563965,4223.974121,4249.871582,4246.153809,4197.179688,4165.384766,4178.205078,4169.743652,4100.641113,4119.871582,4452.307617,4429.615234,4095.128174,4447.563965,6349.000000,0.000000,6.000000,,,,0.000000,4.000000,4.000000,4.000000,4.000000,4.000000,4.000000,4.000000,4.000000,4.000000,4.000000,4.000000,4.000000,4.000000,4.000000,100.000000,,,,,,,,,,,,,,,,,,,,,,,,,,,,,,,,,,,,,,,,,,,,,,,,,,,,,,,,,,,,,,,,,,,,,,,,,,,,,,,,,,,,,,,,,,,,,,,,,,,,,,,,,,,,,,,,,,,,,,,,,,,,,,,,,
1742213694.116235,1742213694.116590,118.000000,0.000000,4230.769043,4247.563965,4272.307617,4269.615234,4212.820313,4178.717773,4192.436035,4186.794922,4152.179688,4180.000000,4476.922852,4452.307617,4120.897461,4472.948730,5796.000000,0.000000,6.000000,,,,0.000000,4.000000,4.000000,4.000000,4.000000,4.000000,4.000000,4.000000,4.000000,4.000000,4.000000,4.000000,4.000000,4.000000,4.000000,100.000000,,,,,,,,,,,,,,,,,,,,,,,,,,,,,,,,,,,,,,,,,,,,,,,,,,,,,,,,,,,,,,,,,,,,,,,,,,,,,,,,,,,,,,,,,,,,,,,,,,,,,,,,,,,,,,,,,,,,,,,,,,,,,,,,,
1742213694.124043,1742213694.124398,119.000000,0.000000,4238.846191,4256.153809,4278.846191,4285.128418,4214.102539,4198.333496,4207.051270,4191.153809,4202.307617,4233.717773,4474.358887,4454.871582,4126.410156,4476.153809,5846.000000,0.000000,6.000000,,,,0.000000,4.000000,4.000000,4.000000,4.000000,4.000000,4.000000,4.000000,4.000000,4.000000,4.000000,4.000000,4.000000,4.000000,4.000000,100.000000,,,,,,,,,,,,,,,,,,,,,,,,,,,,,,,,,,,,,,,,,,,,,,,,,,,,,,,,,,,,,,,,,,,,,,,,,,,,,,,,,,,,,,,,,,,,,,,,,,,,,,,,,,,,,,,,,,,,,,,,,,,,,,,,,
1742213694.131851,1742213694.132305,120.000000,0.000000,4235.769043,4247.692383,4267.051270,4272.948730,4199.487305,4195.384766,4201.538574,4183.461426,4206.922852,4224.487305,4463.717773,4444.871582,4125.256348,4467.179688,6543.000000,0.000000,6.000000,,,,0.000000,4.000000,4.000000,4.000000,4.000000,4.000000,4.000000,4.000000,4.000000,4.000000,4.000000,4.000000,4.000000,4.000000,4.000000,100.000000,,,,,,,,,,,,,,,,,30.000000,0.000000,0.706699,0.064270,-0.691711,0.134094,1.000122,-0.084483,0.035649,-41.423058,-16.084347,42.360165,,,,,,,,,,,,,,,,,,,,,,,,,,,,,,,,,,,,,,,,,,,,,,,,,,,,,,,,,,,,,,,,,,,,,,,,,,,,,,,,,,,,,,,,,,,,,,,,,,,,,
1742213694.139659,1742213694.140113,121.000000,0.000000,4221.922852,4231.794922,4251.666504,4252.179688,4205.128418,4170.641113,4184.358887,4165.641113,4141.666504,4192.692383,4456.538574,4429.230957,4118.974121,4458.717773,6349.000000,0.000000,6.000000,,,,0.000000,4.000000,4.000000,4.000000,4.000000,4.000000,4.000000,4.000000,4.000000,4.000000,4.000000,4.000000,4.000000,4.000000,4.000000,100.000000,,,,,,,,,,,,,,,,,,,,,,,,,,,,,,,,,,,,,,,,,,,,,,,,,,,,,,,,,,,,,,,,,,,,,,,,,,,,,,,,,,,,,,,,,,,,,,,,,,,,,,,,,,,,,,,,,,,,,,,,,,,,,,,,,
1742213694.147467,1742213694.148021,122.000000,0.000000,4202.051270,4218.974121,4238.333496,4240.512695,4214.487305,4154.487305,4172.692383,4148.846191,4086.153809,4161.025879,4446.282227,4410.641113,4107.563965,4444.743652,5796.000000,0.000000,6.000000,,,,0.000000,4.000000,4.000000,4.000000,4.000000,4.000000,4.000000,4.000000,4.000000,4.000000,4.000000,4.000000,4.000000,4.000000,4.000000,100.000000,,,,,,,,,,,,,,,,,,,,,,,,,,,,,,,,,,,,,,,,,,,,,,,,,,,,,,,,,,,,,,,,,,,,,,,,,,,,,,,,,,,,,,,,,,,,,,,,,,,,,,,,,,,,,,,,,,,,,,,,,,,,,,,,,
1742213694.155275,1742213694.155829,123.000000,0.000000,4204.743652,4226.794922,4241.794922,4249.358887,4208.077148,4165.897461,4177.820313,4157.307617,4112.051270,4144.358887,4459.358887,4418.205078,4118.077148,4448.461426,5846.000000,0.000000,6.000000,,,,0.000000,4.000000,4.000000,4.000000,4.000000,4.000000,4.000000,4.000000,4.000000,4.000000,4.000000,4.000000,4.000000,4.000000,4.000000,100.000000,,,,,,,,,,,,,,,,,,,,,,,,,,,,,,,,,,,,,,,,,,,,,,,,,,,,,,,,,,,,,,,,,,,,,,,,,,,,,,,,,,,,,,,,,,,,,,,,,,,,,,,,,,,,,,,,,,,,,,,,,,,,,,,,,
1742213694.163083,1742213694.163737,124.000000,0.000000,4218.974121,4244.230957,4251.282227,4267.820313,4208.589844,4178.974121,4187.692383,4175.128418,4155.384766,4165.641113,4479.871582,4435.000000,4137.692383,4466.153809,6543.000000,0.000000,6.000000,,,,0.000000,4.000000,4.000000,4.000000,4.000000,4.000000,4.000000,4.000000,4.000000,4.000000,4.000000,4.000000,4.000000,4.000000,4.000000,100.000000,,,,,,,,,,,,,,,,,31.000000,0.000000,0.706484,0.064026,-0.691895,0.134399,1.000122,-0.089855,0.035161,-41.564087,-16.009245,42.257481,,,,,,,,,,,,,,,,,,,,,,,,,,,,,,,,,,,,,,,,,,,,,,,,,,,,,,,,,,,,,,,,,,,,,,,,,,,,,,,,,,,,,,,,,,,,,,,,,,,,,
1742213694.170891,1742213694.171545,125.000000,0.000000,4203.333496,4234.358887,4240.128418,4257.307617,4213.333496,4172.820313,4181.794922,4175.512695,4155.512695,4172.307617,4460.256348,4417.051270,4113.205078,4451.410156,6349.000000,0.000000,6.000000,,,,0.000000,4.000000,4.000000,4.000000,4.000000,4.000000,4.000000,4.000000,4.000000,4.000000,4.000000,4.000000,4.000000,4.000000,4.000000,100.000000,,,,,,,,,,,,,,,,,,,,,,,,,,,,,,,,,,,,,,,,,,,,,,,,,,,,,,,,,,,,,,,,,,,,,,,,,,,,,,,,,,,,,,,,,,,,,,,,,,,,,,,,,,,,,,,,,,,,,,,,,,,,,,,,,
1742213694.178700,1742213694.179453,126.000000,0.000000,4175.512695,4210.256348,4219.615234,4228.205078,4210.897461,4161.538574,4162.436035,4161.410156,4128.846191,4142.436035,4426.922852,4390.128418,4081.666748,4418.333496,5796.000000,0.000000,6.000000,,,,0.000000,4.000000,4.000000,4.000000,4.000000,4.000000,4.000000,4.000000,4.000000,4.000000,4.000000,4.000000,4.000000,4.000000,4.000000,100.000000,,,,,,,,,,,,,,,,,,,,,,,,,,,,,,,,,,,,,,,,,,,,,,,,,,,,,,,,,,,,3.739121,1.550781,1.247984,1.563581,1.329182,6.649625,1.308678,1.386232,1.548365,1.610927,2.328891,1.145787,0.568987,1.617306,1.246703,2.230981,2.054353,2.074632,10.927860,5.540788,0.652836,0.450262,0.662419,0.881548,0.892047,1.005709,1.799834,4.358787,12.366552,8.231855,1.707639,1.515699,2.240729,5.264307,3.515248,3.341042,1.595191,1.504745,1.698184,1.731749,3.006829,3.079569,8.249709,5.181039,4.740291,30.842010,6.992345,4.312623,3.314861,3.375146,38.154076,9.802435,4.895621,7.938274,4.548240,3.969018,1.475229,1.436611,2.716018,2.379941,55.000008,1.861374,2.987074,1.328634,1.837940,4.193948,1.374540,1.475069,2.558907,1.873172
1742213694.186508,1742213694.187261,127.000000,0.000000,4187.307617,4218.974121,4228.333496,4237.820313,4209.358887,4166.410156,4171.410156,4166.282227,4121.922852,4146.666504,4448.077148,4410.000000,4117.436035,4435.512695,6.000000,0.000000,6.000000,,,,0.000000,4.000000,4.000000,4.000000,4.000000,4.000000,4.000000,4.000000,4.000000,4.000000,4.000000,4.000000,4.000000,4.000000,4.000000,100.000000,,,,,,,,,,,,,,,,,,,,,,,,,,,,,,,,,,,,,,,,,,,,,,,,,,,,,,,,,,,,,,,,,,,,,,,,,,,,,,,,,,,,,,,,,,,,,,,,,,,,,,,,,,,,,,,,,,,,,,,,,,,,,,,,,
1742213694.194316,1742213694.195169,0.000000,0.000000,4222.307617,4245.256348,4259.871582,4269.358887,4206.025879,4175.769043,4199.871582,4197.692383,4155.897461,4187.051270,4499.615234,4453.333496,4174.358887,4479.743652,4275.000000,0.000000,6.000000,,,,0.000000,4.000000,4.000000,4.000000,4.000000,4.000000,4.000000,4.000000,4.000000,4.000000,4.000000,4.000000,4.000000,4.000000,4.000000,100.000000,,,,,,,,,,,,,,,,,0.000000,0.000000,0.706233,0.064026,-0.692139,0.134460,0.995727,-0.100598,0.047369,-41.691010,-16.058321,42.298401,,,,,,,,,,,,,,,,,,,,,,,,,,,,,,,,,,,,,,,,,,,,,,,,,,,,,,,,,,,,,,,,,,,,,,,,,,,,,,,,,,,,,,,,,,,,,,,,,,,,,
1742213694.202124,1742213694.202977,1.000000,0.000000,4223.205078,4242.179688,4262.307617,4264.230957,4202.692383,4163.333496,4189.743652,4201.922852,4178.589844,4191.153809,4505.256348,4453.846191,4173.846191,4479.487305,5126.000000,0.000000,6.000000,,,,0.000000,4.000000,4.000000,4.000000,4.000000,4.000000,4.000000,4.000000,4.000000,4.000000,4.000000,4.000000,4.000000,4.000000,4.000000,100.000000,,,,,,,,,,,,,,,,,,,,,,,,,,,,,,,,,,,,,,,,,,,,,,,,,,,,,,,,,,,,,,,,,,,,,,,,,,,,,,,,,,,,,,,,,,,,,,,,,,,,,,,,,,,,,,,,,,,,,,,,,,,,,,,,,
1742213694.209932,1742213694.210685,2.000000,0.000000,4201.538574,4225.641113,4239.230957,4242.179688,4204.230957,4145.000000,4158.333496,4170.000000,4158.205078,4170.512695,4479.358887,4422.307617,4150.256348,4455.897461,4716.000000,0.000000,6.000000,,,,0.000000,4.000000,4.000000,4.000000,4.000000,4.000000,4.000000,4.000000,4.000000,4.000000,4.000000,4.000000,4.000000,4.000000,4.000000,100.000000,,,,,,,,,,,,,,,,,,,,,,,,,,,,,,,,,,,,,,,,,,,,,,,,,,,,,,,,,,,,,,,,,,,,,,,,,,,,,,,,,,,,,,,,,,,,,,,,,,,,,,,,,,,,,,,,,,,,,,,,,,,,,,,,,
1742213694.217740,1742213694.218493,3.000000,0.000000,4197.179688,4226.666504,4232.436035,4240.512695,4206.410156,4146.794922,4158.589844,4154.487305,4128.333496,4164.615234,4471.282227,4410.384766,4152.307617,4451.025879,5085.000000,0.000000,6.000000,,,,0.000000,4.000000,4.000000,4.000000,4.000000,4.000000,4.000000,4.000000,4.000000,4.000000,4.000000,4.000000,4.000000,4.000000,4.000000,100.000000,,,,,,,,,,,,,,,,,,,,,,,,,,,,,,,,,,,,,,,,,,,,,,,,,,,,,,,,,,,,,,,,,,,,,,,,,,,,,,,,,,,,,,,,,,,,,,,,,,,,,,,,,,,,,,,,,,,,,,,,,,,,,,,,,
1742213694.225548,1742213694.226201,4.000000,0.000000,4204.102539,4233.974121,4240.641113,4252.436035,4213.461426,4164.871582,4183.077148,4172.179688,4136.922852,4161.922852,4482.051270,4421.794922,4159.615234,4455.897461,1993.000000,0.000000,6.000000,,,,0.000000,4.000000,4.000000,4.000000,4.000000,4.000000,4.000000,4.000000,4.000000,4.000000,4.000000,4.000000,4.000000,4.000000,4.000000,100.000000,,,,,,,,,,,,,,,,,1.000000,0.000000,0.706249,0.063721,-0.692139,0.134521,0.999634,-0.091320,0.043951,-41.671909,-15.985822,42.335228,,,,,,,,,,,,,,,,,,,,,,,,,,,,,,,,,,,,,,,,,,,,,,,,,,,,,,,,,,,,,,,,,,,,,,,,,,,,,,,,,,,,,,,,,,,,,,,,,,,,,
1742213694.233356,1742213694.234009,5.000000,0.000000,4206.666504,4233.461426,4245.256348,4256.538574,4220.128418,4176.410156,4192.051270,4186.025879,4178.077148,4172.948730,4489.871582,4432.051270,4159.743652,4456.922852,4819.000000,0.000000,6.000000,,,,0.000000,4.000000,4.000000,4.000000,4.000000,4.000000,4.000000,4.000000,4.000000,4.000000,4.000000,4.000000,4.000000,4.000000,4.000000,100.000000,,,,,,,,,,,,,,,,,,,,,,,,,,,,,,,,,,,,,,,,,,,,,,,,,,,,,,,,,,,,,,,,,,,,,,,,,,,,,,,,,,,,,,,,,,,,,,,,,,,,,,,,,,,,,,,,,,,,,,,,,,,,,,,,,
1742213694.241164,1742213694.241717,6.000000,0.000000,4211.410156,4225.769043,4246.922852,4247.820313,4214.871582,4169.102539,4181.666504,4183.333496,4188.205078,4193.974121,4492.948730,4433.846191,4166.538574,4459.358887,5133.000000,0.000000,6.000000,,,,0.000000,4.000000,4.000000,4.000000,4.000000,4.000000,4.000000,4.000000,4.000000,4.000000,4.000000,4.000000,4.000000,4.000000,4.000000,100.000000,,,,,,,,,,,,,,,,,,,,,,,,,,,,,,,,,,,,,,,,,,,,,,,,,,,,,,,,,,,,,,,,,,,,,,,,,,,,,,,,,,,,,,,,,,,,,,,,,,,,,,,,,,,,,,,,,,,,,,,,,,,,,,,,,
1742213694.248973,1742213694.249625,7.000000,0.000000,4218.333496,4218.974121,4252.692383,4252.051270,4215.641113,4169.743652,4184.871582,4191.922852,4169.487305,4194.230957,4498.846191,4439.743652,4179.743652,4466.282227,5275.000000,0.000000,6.000000,,,,0.000000,4.000000,4.000000,4.000000,4.000000,4.000000,4.000000,4.000000,4.000000,4.000000,4.000000,4.000000,4.000000,4.000000,4.000000,100.000000,,,,,,,,,,,,,,,,,,,,,,,,,,,,,,,,,,,,,,,,,,,,,,,,,,,,,,,,,,,,,,,,,,,,,,,,,,,,,,,,,,,,,,,,,,,,,,,,,,,,,,,,,,,,,,,,,,,,,,,,,,,,,,,,,
1742213694.256781,1742213694.257433,8.000000,0.000000,4217.563965,4211.538574,4251.794922,4264.615234,4223.077148,4198.589844,4203.589844,4197.307617,4154.487305,4176.666504,4495.000000,4440.128418,4185.897461,4466.538574,5337.000000,0.000000,6.000000,,,,0.000000,4.000000,4.000000,4.000000,4.000000,4.000000,4.000000,4.000000,4.000000,4.000000,4.000000,4.000000,4.000000,4.000000,4.000000,100.000000,,,,,,,,,,,,,,,,,2.000000,0.000000,0.706179,0.063171,-0.692261,0.134521,0.987425,-0.083995,0.031742,-41.454720,-15.903906,42.351704,,,,,,,,,,,,,,,,,,,,,,,,,,,,,,,,,,,,,,,,,,,,,,,,,,,,,,,,,,,,,,,,,,,,,,,,,,,,,,,,,,,,,,,,,,,,,,,,,,,,,
1742213694.264589,1742213694.265341,9.000000,0.000000,4212.820313,4195.512695,4245.128418,4250.384766,4217.820313,4206.153809,4201.153809,4184.102539,4163.589844,4177.948730,4497.948730,4434.102539,4189.358887,4463.333496,5683.000000,0.000000,6.000000,,,,0.000000,4.000000,4.000000,4.000000,4.000000,4.000000,4.000000,4.000000,4.000000,4.000000,4.000000,4.000000,4.000000,4.000000,4.000000,100.000000,,,,,,,,,,,,,,,,,,,,,,,,,,,,,,,,,,,,,,,,,,,,,,,,,,,,,,,,,,,,,,,,,,,,,,,,,,,,,,,,,,,,,,,,,,,,,,,,,,,,,,,,,,,,,,,,,,,,,,,,,,,,,,,,,
1742213694.272397,1742213694.273149,10.000000,0.000000,4212.692383,4185.384766,4244.230957,4233.461426,4211.922852,4169.230957,4181.282227,4177.692383,4182.179688,4188.846191,4511.666504,4434.230957,4203.205078,4465.256348,5758.000000,0.000000,6.000000,,,,0.000000,4.000000,4.000000,4.000000,4.000000,4.000000,4.000000,4.000000,4.000000,4.000000,4.000000,4.000000,4.000000,4.000000,4.000000,100.000000,,,,,,,,,,,,,,,,,,,,,,,,,,,,,,,,,,,,,,,,,,,,,,,,,,,,,,,,,,,,,,,,,,,,,,,,,,,,,,,,,,,,,,,,,,,,,,,,,,,,,,,,,,,,,,,,,,,,,,,,,,,,,,,,,
1742213694.280205,1742213694.281056,11.000000,0.000000,4224.230957,4196.666504,4255.128418,4254.743652,4224.230957,4166.282227,4194.743652,4191.538574,4180.000000,4194.487305,4520.128418,4452.692383,4227.563965,4477.948730,5833.000000,0.000000,6.000000,,,,0.000000,4.000000,4.000000,4.000000,4.000000,4.000000,4.000000,4.000000,4.000000,4.000000,4.000000,4.000000,4.000000,4.000000,4.000000,100.000000,,,,,,,,,,,,,,,,,,,,,,,,,,,,,,,,,,,,,,,,,,,,,,,,,,,,,,,,,,,,,,,,,,,,,,,,,,,,,,,,,,,,,,,,,,,,,,,,,,,,,,,,,,,,,,,,,,,,,,,,,,,,,,,,,
1742213694.288013,1742213694.288864,12.000000,0.000000,4236.538574,4206.282227,4266.922852,4277.051270,4233.974121,4201.410156,4219.230957,4204.230957,4173.461426,4203.846191,4523.589844,4470.384766,4243.333496,4491.666504,6496.000000,0.000000,6.000000,,,,0.000000,4.000000,4.000000,4.000000,4.000000,4.000000,4.000000,4.000000,4.000000,4.000000,4.000000,4.000000,4.000000,4.000000,4.000000,100.000000,,,,,,,,,,,,,,,,,3.000000,0.000000,0.706046,0.062927,-0.692383,0.134705,0.980588,-0.094738,0.028324,-41.375912,-15.846849,42.166534,,,,,,,,,,,,,,,,,,,,,,,,,,,,,,,,,,,,,,,,,,,,,,,,,,,,,,,,,,,,,,,,,,,,,,,,,,,,,,,,,,,,,,,,,,,,,,,,,,,,,
1742213694.295821,1742213694.296772,13.000000,0.000000,4235.128418,4193.717773,4266.282227,4261.922852,4224.871582,4204.743652,4210.256348,4199.230957,4185.000000,4208.461426,4527.948730,4466.794922,4241.282227,4492.179688,6337.000000,0.000000,6.000000,,,,0.000000,4.000000,4.000000,4.000000,4.000000,4.000000,4.000000,4.000000,4.000000,4.000000,4.000000,4.000000,4.000000,4.000000,4.000000,100.000000,,,,,,,,,,,,,,,,,,,,,,,,,,,,,,,,,,,,,,,,,,,,,,,,,,,,,,,,,,,,,,,,,,,,,,,,,,,,,,,,,,,,,,,,,,,,,,,,,,,,,,,,,,,,,,,,,,,,,,,,,,,,,,,,,
1742213694.303629,1742213694.304580,14.000000,0.000000,4228.461426,4183.461426,4262.051270,4247.820313,4226.025879,4193.077148,4198.846191,4188.205078,4176.282227,4196.538574,4526.025879,4458.846191,4233.077148,4483.846191,5758.000000,0.000000,6.000000,,,,0.000000,4.000000,4.000000,4.000000,4.000000,4.000000,4.000000,4.000000,4.000000,4.000000,4.000000,4.000000,4.000000,4.000000,4.000000,100.000000,,,,,,,,,,,,,,,,,,,,,,,,,,,,,,,,,,,,,,,,,,,,,,,,,,,,,,,,,,,,3.240165,1.720310,1.254148,1.330516,1.076318,7.191720,1.352667,1.490731,1.338114,1.302030,2.170014,1.417986,0.603755,1.293345,1.021040,2.442398,2.219251,2.078270,9.042606,4.456387,0.685919,0.419719,0.702290,0.806424,0.789263,1.102830,1.583739,4.173654,10.242599,6.872650,1.949722,1.646983,2.230156,4.482087,2.843073,3.484931,1.604062,1.384706,1.899446,1.605666,2.800194,2.619162,8.310584,5.651630,4.782495,26.339785,6.671008,4.183943,3.660731,2.994685,23.301979,7.169554,3.835981,5.849241,3.282283,3.928033,1.446429,1.445463,2.241993,1.937672,37.156723,1.156108,2.451790,1.266873,1.525409,3.644235,1.768119,1.469675,2.051368,1.524610
1742213694.311437,1742213694.312488,15.000000,0.000000,4222.820313,4182.563965,4261.025879,4253.461426,4225.000000,4188.717773,4198.846191,4189.487305,4154.230957,4182.820313,4514.230957,4458.333496,4228.589844,4475.769043,5833.000000,0.000000,6.000000,,,,0.000000,4.000000,4.000000,4.000000,4.000000,4.000000,4.000000,4.000000,4.000000,4.000000,4.000000,4.000000,4.000000,4.000000,4.000000,100.000000,,,,,,,,,,,,,,,,,,,,,,,,,,,,,,,,,,,,,,,,,,,,,,,,,,,,,,,,,,,,,,,,,,,,,,,,,,,,,,,,,,,,,,,,,,,,,,,,,,,,,,,,,,,,,,,,,,,,,,,,,,,,,,,,,
1742213694.319245,1742213694.320296,16.000000,0.000000,4219.487305,4176.410156,4260.384766,4255.641113,4207.820313,4171.410156,4190.897461,4198.205078,4173.077148,4193.846191,4512.820313,4456.410156,4233.846191,4477.820313,0.000000,0.000000,6.000000,,,,0.000000,4.000000,4.000000,4.000000,4.000000,4.000000,4.000000,4.000000,4.000000,4.000000,4.000000,4.000000,4.000000,4.000000,4.000000,100.000000,,,,,,,,,,,,,,,,,4.000000,0.000000,0.705847,0.062622,-0.692566,0.134949,0.984495,-0.094250,0.039556,-41.338322,-15.828831,42.133213,,,,,,,,,,,,,,,,,,,,,,,,,,,,,,,,,,,,,,,,,,,,,,,,,,,,,,,,,,,,,,,,,,,,,,,,,,,,,,,,,,,,,,,,,,,,,,,,,,,,,
1742213694.327053,1742213694.328204,17.000000,0.000000,4216.538574,4165.769043,4255.256348,4244.230957,4210.897461,4166.794922,4186.153809,4192.307617,4175.384766,4203.974121,4509.871582,4446.794922,4235.641113,4477.692383,0.000000,0.000000,6.000000,,,,0.000000,4.000000,4.000000,4.000000,4.000000,4.000000,4.000000,4.000000,4.000000,4.000000,4.000000,4.000000,4.000000,4.000000,4.000000,100.000000,,,,,,,,,,,,,,,,,,,,,,,,,,,,,,,,,,,,,,,,,,,,,,,,,,,,,,,,,,,,,,,,,,,,,,,,,,,,,,,,,,,,,,,,,,,,,,,,,,,,,,,,,,,,,,,,,,,,,,,,,,,,,,,,,
1742213694.334861,1742213694.336012,18.000000,0.000000,4215.000000,4162.179688,4251.410156,4237.692383,4236.922852,4182.820313,4194.743652,4184.102539,4155.897461,4196.666504,4498.717773,4442.436035,4228.717773,4468.974121,0.000000,0.000000,6.000000,,,,0.000000,4.000000,4.000000,4.000000,4.000000,4.000000,4.000000,4.000000,4.000000,4.000000,4.000000,4.000000,4.000000,4.000000,4.000000,100.000000,,,,,,,,,,,,,,,,,,,,,,,,,,,,,,,,,,,,,,,,,,,,,,,,,,,,,,,,,,,,,,,,,,,,,,,,,,,,,,,,,,,,,,,,,,,,,,,,,,,,,,,,,,,,,,,,,,,,,,,,,,,,,,,,,
1742213694.342670,1742213694.343920,19.000000,0.000000,4225.128418,4175.512695,4260.641113,4254.487305,4238.205078,4194.230957,4212.051270,4201.410156,4185.641113,4187.179688,4510.128418,4456.794922,4234.871582,4476.538574,0.000000,0.000000,6.000000,,,,0.000000,4.000000,4.000000,4.000000,4.000000,4.000000,4.000000,4.000000,4.000000,4.000000,4.000000,4.000000,4.000000,4.000000,4.000000,100.000000,,,,,,,,,,,,,,,,,,,,,,,,,,,,,,,,,,,,,,,,,,,,,,,,,,,,,,,,,,,,,,,,,,,,,,,,,,,,,,,,,,,,,,,,,,,,,,,,,,,,,,,,,,,,,,,,,,,,,,,,,,,,,,,,,
1742213694.350478,1742213694.351728,20.000000,0.000000,4235.512695,4188.205078,4271.666504,4266.025879,4220.897461,4205.512695,4224.230957,4220.769043,4209.358887,4180.256348,4530.769043,4473.461426,4251.282227,4495.641113,0.000000,0.000000,6.000000,,,,0.000000,4.000000,4.000000,4.000000,4.000000,4.000000,4.000000,4.000000,4.000000,4.000000,4.000000,4.000000,4.000000,4.000000,4.000000,100.000000,,,,,,,,,,,,,,,,,5.000000,0.000000,0.705570,0.062378,-0.692810,0.135254,0.990355,-0.097668,0.023929,-41.471157,-15.845947,42.253227,,,,,,,,,,,,,,,,,,,,,,,,,,,,,,,,,,,,,,,,,,,,,,,,,,,,,,,,,,,,,,,,,,,,,,,,,,,,,,,,,,,,,,,,,,,,,,,,,,,,,
1742213694.358286,1742213694.359636,21.000000,0.000000,4227.307617,4181.025879,4269.871582,4255.256348,4219.358887,4201.922852,4213.717773,4213.333496,4181.922852,4191.666504,4527.051270,4471.025879,4250.641113,4496.538574,0.000000,0.000000,6.000000,,,,0.000000,4.000000,4.000000,4.000000,4.000000,4.000000,4.000000,4.000000,4.000000,4.000000,4.000000,4.000000,4.000000,4.000000,4.000000,100.000000,,,,,,,,,,,,,,,,,,,,,,,,,,,,,,,,,,,,,,,,,,,,,,,,,,,,,,,,,,,,,,,,,,,,,,,,,,,,,,,,,,,,,,,,,,,,,,,,,,,,,,,,,,,,,,,,,,,,,,,,,,,,,,,,,
1742213694.366094,1742213694.367444,22.000000,0.000000,4214.102539,4166.282227,4259.230957,4242.436035,4217.692383,4171.538574,4184.358887,4191.410156,4150.128418,4184.615234,4508.333496,4451.922852,4232.307617,4476.666504,0.000000,0.000000,6.000000,,,,0.000000,4.000000,4.000000,4.000000,4.000000,4.000000,4.000000,4.000000,4.000000,4.000000,4.000000,4.000000,4.000000,4.000000,4.000000,100.000000,,,,,,,,,,,,,,,,,,,,,,,,,,,,,,,,,,,,,,,,,,,,,,,,,,,,,,,,,,,,,,,,,,,,,,,,,,,,,,,,,,,,,,,,,,,,,,,,,,,,,,,,,,,,,,,,,,,,,,,,,,,,,,,,,
1742213694.373902,1742213694.375152,23.000000,0.000000,4220.384766,4175.769043,4262.948730,4251.153809,4218.205078,4163.461426,4177.436035,4185.000000,4147.179688,4166.153809,4515.384766,4453.589844,4234.102539,4478.205078,0.000000,0.000000,6.000000,,,,0.000000,4.000000,4.000000,4.000000,4.000000,4.000000,4.000000,4.000000,4.000000,4.000000,4.000000,4.000000,4.000000,4.000000,4.000000,100.000000,,,,,,,,,,,,,,,,,,,,,,,,,,,,,,,,,,,,,,,,,,,,,,,,,,,,,,,,,,,,,,,,,,,,,,,,,,,,,,,,,,,,,,,,,,,,,,,,,,,,,,,,,,,,,,,,,,,,,,,,,,,,,,,,,
1742213694.381710,1742213694.382960,24.000000,0.000000,4237.051270,4200.256348,4277.563965,4274.102539,4230.384766,4193.717773,4198.461426,4205.384766,4181.410156,4205.000000,4542.948730,4480.128418,4262.436035,4504.615234,0.000000,0.000000,6.000000,,,,0.000000,4.000000,4.000000,4.000000,4.000000,4.000000,4.000000,4.000000,4.000000,4.000000,4.000000,4.000000,4.000000,4.000000,4.000000,100.000000,,,,,,,,,,,,,,,,,6.000000,0.000000,0.705398,0.062439,-0.692932,0.135498,0.997192,-0.097668,0.030277,-41.474041,-15.961353,42.294571,,,,,,,,,,,,,,,,,,,,,,,,,,,,,,,,,,,,,,,,,,,,,,,,,,,,,,,,,,,,,,,,,,,,,,,,,,,,,,,,,,,,,,,,,,,,,,,,,,,,,
1742213694.389518,1742213694.390668,25.000000,0.000000,4235.641113,4198.461426,4273.461426,4272.692383,4231.153809,4205.512695,4203.589844,4218.717773,4230.384766,4241.410156,4545.256348,4480.897461,4272.051270,4506.153809,0.000000,0.000000,6.000000,,,,0.000000,4.000000,4.000000,4.000000,4.000000,4.000000,4.000000,4.000000,4.000000,4.000000,4.000000,4.000000,4.000000,4.000000,4.000000,100.000000,,,,,,,,,,,,,,,,,,,,,,,,,,,,,,,,,,,,,,,,,,,,,,,,,,,,,,,,,,,,,,,,,,,,,,,,,,,,,,,,,,,,,,,,,,,,,,,,,,,,,,,,,,,,,,,,,,,,,,,,,,,,,,,,,
1742213694.397326,1742213694.398576,26.000000,0.000000,4215.128418,4175.897461,4252.307617,4246.666504,4215.128418,4185.897461,4185.512695,4198.717773,4206.153809,4190.384766,4515.128418,4447.948730,4244.615234,4475.897461,0.000000,0.000000,6.000000,,,,0.000000,4.000000,4.000000,4.000000,4.000000,4.000000,4.000000,4.000000,4.000000,4.000000,4.000000,4.000000,4.000000,4.000000,4.000000,100.000000,,,,,,,,,,,,,,,,,,,,,,,,,,,,,,,,,,,,,,,,,,,,,,,,,,,,,,,,,,,,,,,,,,,,,,,,,,,,,,,,,,,,,,,,,,,,,,,,,,,,,,,,,,,,,,,,,,,,,,,,,,,,,,,,,
1742213694.405134,1742213694.406384,27.000000,0.000000,4207.307617,4172.051270,4248.077148,4232.307617,4212.563965,4178.077148,4179.743652,4182.692383,4155.769043,4157.436035,4502.179688,4437.307617,4231.025879,4466.153809,0.000000,0.000000,6.000000,,,,0.000000,4.000000,4.000000,4.000000,4.000000,4.000000,4.000000,4.000000,4.000000,4.000000,4.000000,4.000000,4.000000,4.000000,4.000000,100.000000,,,,,,,,,,,,,,,,,,,,,,,,,,,,,,,,,,,,,,,,,,,,,,,,,,,,,,,,,,,,,,,,,,,,,,,,,,,,,,,,,,,,,,,,,,,,,,,,,,,,,,,,,,,,,,,,,,,,,,,,,,,,,,,,,
1742213694.412942,1742213694.414192,28.000000,0.000000,4226.282227,4192.436035,4266.922852,4250.384766,4232.179688,4201.794922,4201.666504,4211.153809,4201.153809,4211.666504,4536.025879,4469.358887,4258.846191,4496.922852,0.000000,0.000000,6.000000,,,,0.000000,4.000000,4.000000,4.000000,4.000000,4.000000,4.000000,4.000000,4.000000,4.000000,4.000000,4.000000,4.000000,4.000000,4.000000,100.000000,,,,,,,,,,,,,,,,,7.000000,0.000000,0.705213,0.062378,-0.693054,0.135864,0.993285,-0.087901,0.023440,-41.459969,-15.915217,42.148445,,,,,,,,,,,,,,,,,,,,,,,,,,,,,,,,,,,,,,,,,,,,,,,,,,,,,,,,,,,,,,,,,,,,,,,,,,,,,,,,,,,,,,,,,,,,,,,,,,,,,
1742213694.420751,1742213694.421900,29.000000,0.000000,4236.794922,4207.436035,4272.692383,4267.051270,4239.871582,4216.794922,4213.333496,4234.102539,4236.282227,4231.282227,4555.512695,4485.128418,4274.358887,4509.743652,0.000000,0.000000,6.000000,,,,0.000000,4.000000,4.000000,4.000000,4.000000,4.000000,4.000000,4.000000,4.000000,4.000000,4.000000,4.000000,4.000000,4.000000,4.000000,100.000000,,,,,,,,,,,,,,,,,,,,,,,,,,,,,,,,,,,,,,,,,,,,,,,,,,,,,,,,,,,,,,,,,,,,,,,,,,,,,,,,,,,,,,,,,,,,,,,,,,,,,,,,,,,,,,,,,,,,,,,,,,,,,,,,,
1742213694.428558,1742213694.429708,30.000000,0.000000,4217.179688,4200.128418,4253.846191,4251.538574,4223.717773,4183.717773,4188.974121,4198.974121,4168.589844,4178.589844,4520.384766,4450.000000,4248.077148,4478.333496,0.000000,0.000000,6.000000,,,,0.000000,4.000000,4.000000,4.000000,4.000000,4.000000,4.000000,4.000000,4.000000,4.000000,4.000000,4.000000,4.000000,4.000000,4.000000,100.000000,1.000000,8.333333,4.000000,4.000000,1.000000,1.000000,4.000000,1.000000,1.000000,3.000000,3.000000,1.000000,0.000000,1.000000,0.000000,3.000000,,,,,,,,,,,,,,,,,,,,,,,,,,,,,,,,,,,,,,,,,,,,2.841258,1.928102,1.183465,1.108802,0.828105,7.546678,1.488311,1.558116,1.149455,0.999161,2.208787,1.728731,0.614313,0.962152,0.786540,2.426714,2.269222,1.949722,6.520426,3.190809,0.677628,0.371142,0.726889,0.664520,0.650625,1.189645,1.304300,3.571725,7.451177,5.125568,2.231459,1.788992,2.021956,3.512558,2.097248,3.388546,1.656054,1.240183,2.095539,1.523550,2.443091,2.155890,7.487661,6.027132,5.098173,21.088352,5.854926,3.977140,3.944478,2.703540,12.248644,4.797979,2.762078,3.929018,2.259172,3.790016,1.454682,1.320608,1.829577,1.529837,23.731400,0.719566,1.984261,1.219097,1.245801,3.232357,2.214830,1.364635,1.616235,1.193471
1742213694.436367,1742213694.437416,31.000000,0.000000,4211.282227,4196.282227,4250.641113,4241.922852,4226.794922,4164.871582,4181.410156,4177.948730,4143.846191,4159.230957,4507.948730,4434.743652,4235.769043,4471.025879,0.000000,0.000000,6.000000,,,,0.000000,4.000000,4.000000,4.000000,4.000000,4.000000,4.000000,4.000000,4.000000,4.000000,4.000000,4.000000,4.000000,4.000000,4.000000,100.000000,,,,,,,,,,,,,,,,,,,,,,,,,,,,,,,,,,,,,,,,,,,,,,,,,,,,,,,,,,,,,,,,,,,,,,,,,,,,,,,,,,,,,,,,,,,,,,,,,,,,,,,,,,,,,,,,,,,,,,,,,,,,,,,,,
1742213694.444175,1742213694.445224,32.000000,0.000000,4232.436035,4217.179688,4270.128418,4266.666504,4248.589844,4200.000000,4204.743652,4206.922852,4205.000000,4192.436035,4542.436035,4465.384766,4258.846191,4502.051270,0.000000,0.000000,6.000000,,,,0.000000,4.000000,4.000000,4.000000,4.000000,4.000000,4.000000,4.000000,4.000000,4.000000,4.000000,4.000000,4.000000,4.000000,4.000000,100.000000,,,,,,,,,,,,,,,,,8.000000,0.000000,0.705192,0.062500,-0.692993,0.136230,0.992797,-0.087901,0.027835,-41.547306,-16.107029,42.283600,,,,,,,,,,,,,,,,,,,,,,,,,,,,,,,,,,,,,,,,,,,,,,,,,,,,,,,,,,,,,,,,,,,,,,,,,,,,,,,,,,,,,,,,,,,,,,,,,,,,,
1742213694.451983,1742213694.452932,33.000000,0.000000,4235.128418,4232.563965,4272.307617,4276.922852,4232.948730,4210.897461,4197.820313,4206.153809,4214.487305,4202.051270,4543.974121,4469.102539,4267.948730,4504.743652,0.000000,0.000000,6.000000,,,,0.000000,4.000000,4.000000,4.000000,4.000000,4.000000,4.000000,4.000000,4.000000,4.000000,4.000000,4.000000,4.000000,4.000000,4.000000,100.000000,,,,,,,,,,,,,,,,,,,,,,,,,,,,,,,,,,,,,,,,,,,,,,,,,,,,,,,,,,,,,,,,,,,,,,,,,,,,,,,,,,,,,,,,,,,,,,,,,,,,,,,,,,,,,,,,,,,,,,,,,,,,,,,,,
1742213694.459791,1742213694.460740,34.000000,0.000000,4221.153809,4222.179688,4260.128418,4257.051270,4212.692383,4175.512695,4168.717773,4174.615234,4170.769043,4184.230957,4523.974121,4445.641113,4257.948730,4483.846191,0.000000,0.000000,6.000000,,,,0.000000,4.000000,4.000000,4.000000,4.000000,4.000000,4.000000,4.000000,4.000000,4.000000,4.000000,4.000000,4.000000,4.000000,4.000000,100.000000,,,,,,,,,,,,,,,,,,,,,,,,,,,,,,,,,,,,,,,,,,,,,,,,,,,,,,,,,,,,,,,,,,,,,,,,,,,,,,,,,,,,,,,,,,,,,,,,,,,,,,,,,,,,,,,,,,,,,,,,,,,,,,,,,
1742213694.467599,1742213694.468448,35.000000,0.000000,4218.461426,4211.410156,4256.410156,4250.000000,4232.051270,4155.000000,4159.487305,4168.333496,4152.563965,4182.692383,4525.641113,4441.025879,4258.077148,4477.179688,0.000000,0.000000,6.000000,,,,0.000000,4.000000,4.000000,4.000000,4.000000,4.000000,4.000000,4.000000,4.000000,4.000000,4.000000,4.000000,4.000000,4.000000,4.000000,100.000000,,,,,,,,,,,,,,,,,,,,,,,,,,,,,,,,,,,,,,,,,,,,,,,,,,,,,,,,,,,,,,,,,,,,,,,,,,,,,,,,,,,,,,,,,,,,,,,,,,,,,,,,,,,,,,,,,,,,,,,,,,,,,,,,,
1742213694.475407,1742213694.476256,36.000000,0.000000,4221.794922,4220.000000,4256.153809,4259.743652,4244.487305,4170.128418,4161.922852,4180.128418,4167.692383,4187.948730,4527.820313,4443.846191,4260.000000,4475.897461,0.000000,0.000000,6.000000,,,,0.000000,4.000000,4.000000,4.000000,4.000000,4.000000,4.000000,4.000000,4.000000,4.000000,4.000000,4.000000,4.000000,4.000000,4.000000,100.000000,,,,,,,,,,,,,,,,,9.000000,0.000000,0.705276,0.062500,-0.692871,0.136414,0.986449,-0.101087,0.025882,-41.559242,-16.012993,42.305241,,,,,,,,,,,,,,,,,,,,,,,,,,,,,,,,,,,,,,,,,,,,,,,,,,,,,,,,,,,,,,,,,,,,,,,,,,,,,,,,,,,,,,,,,,,,,,,,,,,,,
1742213694.483215,1742213694.483964,37.000000,0.000000,4229.871582,4235.384766,4262.179688,4268.846191,4235.000000,4203.077148,4178.205078,4197.307617,4201.922852,4178.846191,4533.077148,4452.051270,4266.538574,4485.897461,0.000000,0.000000,6.000000,,,,0.000000,4.000000,4.000000,4.000000,4.000000,4.000000,4.000000,4.000000,4.000000,4.000000,4.000000,4.000000,4.000000,4.000000,4.000000,100.000000,,,,,,,,,,,,,,,,,,,,,,,,,,,,,,,,,,,,,,,,,,,,,,,,,,,,,,,,,,,,,,,,,,,,,,,,,,,,,,,,,,,,,,,,,,,,,,,,,,,,,,,,,,,,,,,,,,,,,,,,,,,,,,,,,
1742213694.491023,1742213694.491872,38.000000,0.000000,4234.871582,4235.384766,4264.230957,4267.563965,4236.794922,4209.487305,4192.307617,4201.666504,4193.205078,4167.948730,4543.077148,4458.589844,4273.461426,4493.461426,0.000000,0.000000,6.000000,,,,0.000000,4.000000,4.000000,4.000000,4.000000,4.000000,4.000000,4.000000,4.000000,4.000000,4.000000,4.000000,4.000000,4.000000,4.000000,100.000000,,,,,,,,,,,,,,,,,,,,,,,,,,,,,,,,,,,,,,,,,,,,,,,,,,,,,,,,,,,,,,,,,,,,,,,,,,,,,,,,,,,,,,,,,,,,,,,,,,,,,,,,,,,,,,,,,,,,,,,,,,,,,,,,,
1742213694.498831,1742213694.499680,39.000000,0.000000,4227.436035,4226.025879,4252.051270,4257.692383,4235.128418,4170.000000,4168.846191,4182.563965,4147.436035,4174.358887,4535.256348,4442.563965,4263.333496,4478.205078,0.000000,0.000000,6.000000,,,,0.000000,4.000000,4.000000,4.000000,4.000000,4.000000,4.000000,4.000000,4.000000,4.000000,4.000000,4.000000,4.000000,4.000000,4.000000,100.000000,,,,,,,,,,,,,,,,,,,,,,,,,,,,,,,,,,,,,,,,,,,,,,,,,,,,,,,,,,,,,,,,,,,,,,,,,,,,,,,,,,,,,,,,,,,,,,,,,,,,,,,,,,,,,,,,,,,,,,,,,,,,,,,,,
1742213694.506639,1742213694.507488,40.000000,0.000000,4234.743652,4237.436035,4258.333496,4269.230957,4227.051270,4168.461426,4167.179688,4196.153809,4189.230957,4224.871582,4544.230957,4447.436035,4272.948730,4487.307617,0.000000,0.000000,6.000000,,,,0.000000,4.000000,4.000000,4.000000,4.000000,4.000000,4.000000,4.000000,4.000000,4.000000,4.000000,4.000000,4.000000,4.000000,4.000000,100.000000,,,,,,,,,,,,,,,,,10.000000,0.000000,0.705325,0.062500,-0.692810,0.136475,0.984984,-0.102552,0.034184,-41.619984,-16.095028,42.274715,,,,,,,,,,,,,,,,,,,,,,,,,,,,,,,,,,,,,,,,,,,,,,,,,,,,,,,,,,,,,,,,,,,,,,,,,,,,,,,,,,,,,,,,,,,,,,,,,,,,,
1742213694.514448,1742213694.515196,41.000000,0.000000,4246.025879,4245.384766,4272.307617,4282.179688,4231.922852,4206.282227,4200.000000,4223.077148,4241.666504,4258.205078,4564.871582,4470.000000,4295.384766,4507.179688,0.000000,0.000000,6.000000,,,,0.000000,4.000000,4.000000,4.000000,4.000000,4.000000,4.000000,4.000000,4.000000,4.000000,4.000000,4.000000,4.000000,4.000000,4.000000,100.000000,,,,,,,,,,,,,,,,,,,,,,,,,,,,,,,,,,,,,,,,,,,,,,,,,,,,,,,,,,,,,,,,,,,,,,,,,,,,,,,,,,,,,,,,,,,,,,,,,,,,,,,,,,,,,,,,,,,,,,,,,,,,,,,,,
1742213694.522256,1742213694.523104,42.000000,0.000000,4224.358887,4216.922852,4254.230957,4255.000000,4230.256348,4194.871582,4188.717773,4195.769043,4179.358887,4195.128418,4539.743652,4449.230957,4272.692383,4480.000000,0.000000,0.000000,6.000000,,,,0.000000,4.000000,4.000000,4.000000,4.000000,4.000000,4.000000,4.000000,4.000000,4.000000,4.000000,4.000000,4.000000,4.000000,4.000000,100.000000,,,,,,,,,,,,,,,,,,,,,,,,,,,,,,,,,,,,,,,,,,,,,,,,,,,,,,,,,,,,,,,,,,,,,,,,,,,,,,,,,,,,,,,,,,,,,,,,,,,,,,,,,,,,,,,,,,,,,,,,,,,,,,,,,
1742213694.530064,1742213694.530912,43.000000,0.000000,4206.794922,4198.846191,4239.487305,4236.922852,4225.641113,4171.794922,4165.384766,4168.974121,4131.538574,4133.589844,4515.000000,4425.128418,4247.692383,4456.282227,0.000000,0.000000,6.000000,,,,0.000000,4.000000,4.000000,4.000000,4.000000,4.000000,4.000000,4.000000,4.000000,4.000000,4.000000,4.000000,4.000000,4.000000,4.000000,100.000000,,,,,,,,,,,,,,,,,,,,,,,,,,,,,,,,,,,,,,,,,,,,,,,,,,,,,,,,,,,,,,,,,,,,,,,,,,,,,,,,,,,,,,,,,,,,,,,,,,,,,,,,,,,,,,,,,,,,,,,,,,,,,,,,,
1742213694.537872,1742213694.538820,44.000000,0.000000,4223.077148,4216.922852,4254.487305,4259.615234,4236.153809,4182.436035,4181.922852,4180.384766,4170.897461,4161.794922,4535.256348,4439.358887,4267.179688,4473.077148,0.000000,0.000000,6.000000,,,,0.000000,4.000000,4.000000,4.000000,4.000000,4.000000,4.000000,4.000000,4.000000,4.000000,4.000000,4.000000,4.000000,4.000000,4.000000,100.000000,,,,,,,,,,,,,,,,,11.000000,0.000000,0.705558,0.062439,-0.692566,0.136536,0.992309,-0.082041,0.038579,-41.791321,-16.102190,42.313911,,,,,,,,,,,,,,,,,,,,,,,,,,,,,,,,,,,,,,,,,,,,,,,,,,,,,,,,,,,,,,,,,,,,,,,,,,,,,,,,,,,,,,,,,,,,,,,,,,,,,
1742213694.545680,1742213694.546628,45.000000,0.000000,4236.025879,4229.230957,4259.743652,4269.230957,4239.487305,4185.641113,4195.512695,4186.410156,4194.871582,4205.384766,4547.563965,4449.615234,4285.512695,4485.128418,0.000000,0.000000,6.000000,,,,0.000000,4.000000,4.000000,4.000000,4.000000,4.000000,4.000000,4.000000,4.000000,4.000000,4.000000,4.000000,4.000000,4.000000,4.000000,100.000000,,,,,,,,,,,,,,,,,,,,,,,,,,,,,,,,,,,,,,,,,,,,,,,,,,,,,,,,,,,,,,,,,,,,,,,,,,,,,,,,,,,,,,,,,,,,,,,,,,,,,,,,,,,,,,,,,,,,,,,,,,,,,,,,,
1742213694.553488,1742213694.554536,46.000000,0.000000,4229.743652,4225.769043,4252.692383,4258.333496,4228.333496,4179.487305,4180.256348,4185.128418,4184.615234,4202.563965,4539.102539,4444.743652,4282.436035,4484.102539,0.000000,0.000000,6.000000,,,,0.000000,4.000000,4.000000,4.000000,4.000000,4.000000,4.000000,4.000000,4.000000,4.000000,4.000000,4.000000,4.000000,4.000000,4.000000,100.000000,,,,,,,,,,,,,,,,,,,,,,,,,,,,,,,,,,,,,,,,,,,,,,,,,,,,,,,,,,,,2.656786,2.080560,1.085038,0.956989,0.647191,7.503747,1.646244,1.580137,1.022370,0.766357,2.428276,1.980872,0.613740,0.722254,0.606806,2.244756,2.185894,1.734996,4.122221,2.052042,0.646455,0.318953,0.738415,0.510154,0.520773,1.319263,1.057727,2.748517,4.856163,3.514508,2.486209,1.912319,1.679749,2.634081,1.480963,3.151275,1.664957,1.115198,2.256376,1.513400,2.164937,1.867219,6.071380,6.404230,5.696609,16.353737,4.769628,3.834170,4.162739,2.585463,6.235303,3.061869,1.904512,2.518546,1.615949,3.649824,1.512329,1.138029,1.575215,1.254026,14.679614,0.617037,1.664686,1.190935,1.056139,2.931463,2.580463,1.228651,1.334014,0.950293
1742213694.561296,1742213694.562344,47.000000,0.000000,4235.000000,4229.358887,4258.974121,4265.641113,4224.358887,4182.179688,4169.102539,4186.922852,4170.897461,4184.743652,4544.615234,4451.282227,4289.615234,4489.358887,0.000000,0.000000,6.000000,,,,0.000000,4.000000,4.000000,4.000000,4.000000,4.000000,4.000000,4.000000,4.000000,4.000000,4.000000,4.000000,4.000000,4.000000,4.000000,100.000000,,,,,,,,,,,,,,,,,,,,,,,,,,,,,,,,,,,,,,,,,,,,,,,,,,,,,,,,,,,,,,,,,,,,,,,,,,,,,,,,,,,,,,,,,,,,,,,,,,,,,,,,,,,,,,,,,,,,,,,,,,,,,,,,,
1742213694.569104,1742213694.570052,48.000000,0.000000,4249.871582,4239.102539,4270.256348,4283.717773,4231.794922,4185.256348,4176.666504,4188.333496,4153.717773,4183.333496,4560.256348,4461.666504,4301.410156,4494.871582,0.000000,0.000000,6.000000,,,,0.000000,4.000000,4.000000,4.000000,4.000000,4.000000,4.000000,4.000000,4.000000,4.000000,4.000000,4.000000,4.000000,4.000000,4.000000,100.000000,,,,,,,,,,,,,,,,,12.000000,0.000000,0.705837,0.062256,-0.692322,0.136414,0.992309,-0.105970,0.039556,-41.778854,-16.125305,42.365852,,,,,,,,,,,,,,,,,,,,,,,,,,,,,,,,,,,,,,,,,,,,,,,,,,,,,,,,,,,,,,,,,,,,,,,,,,,,,,,,,,,,,,,,,,,,,,,,,,,,,
1742213694.576912,1742213694.577860,49.000000,0.000000,4243.589844,4233.974121,4265.512695,4272.820313,4233.589844,4184.743652,4175.769043,4192.820313,4157.179688,4183.333496,4553.974121,4455.641113,4292.692383,4490.897461,0.000000,0.000000,6.000000,,,,0.000000,4.000000,4.000000,4.000000,4.000000,4.000000,4.000000,4.000000,4.000000,4.000000,4.000000,4.000000,4.000000,4.000000,4.000000,100.000000,,,,,,,,,,,,,,,,,,,,,,,,,,,,,,,,,,,,,,,,,,,,,,,,,,,,,,,,,,,,,,,,,,,,,,,,,,,,,,,,,,,,,,,,,,,,,,,,,,,,,,,,,,,,,,,,,,,,,,,,,,,,,,,,,
1742213694.584720,1742213694.585568,50.000000,0.000000,4224.487305,4216.666504,4250.000000,4245.897461,4229.615234,4173.717773,4160.256348,4189.487305,4174.487305,4169.102539,4535.512695,4438.589844,4273.205078,4477.307617,0.000000,0.000000,6.000000,,,,0.000000,4.000000,4.000000,4.000000,4.000000,4.000000,4.000000,4.000000,4.000000,4.000000,4.000000,4.000000,4.000000,4.000000,4.000000,100.000000,,,,,,,,,,,,,,,,,,,,,,,,,,,,,,,,,,,,,,,,,,,,,,,,,,,,,,,,,,,,,,,,,,,,,,,,,,,,,,,,,,,,,,,,,,,,,,,,,,,,,,,,,,,,,,,,,,,,,,,,,,,,,,,,,
1742213694.592528,1742213694.593376,51.000000,0.000000,4236.282227,4225.256348,4254.743652,4254.615234,4230.897461,4178.461426,4166.922852,4191.282227,4189.743652,4174.358887,4550.128418,4444.102539,4280.641113,4480.769043,0.000000,0.000000,6.000000,,,,0.000000,4.000000,4.000000,4.000000,4.000000,4.000000,4.000000,4.000000,4.000000,4.000000,4.000000,4.000000,4.000000,4.000000,4.000000,100.000000,,,,,,,,,,,,,,,,,,,,,,,,,,,,,,,,,,,,,,,,,,,,,,,,,,,,,,,,,,,,,,,,,,,,,,,,,,,,,,,,,,,,,,,,,,,,,,,,,,,,,,,,,,,,,,,,,,,,,,,,,,,,,,,,,
1742213694.600337,1742213694.601084,52.000000,0.000000,4251.922852,4244.487305,4266.282227,4273.333496,4233.077148,4197.051270,4184.615234,4201.538574,4208.461426,4201.538574,4570.128418,4459.358887,4297.820313,4495.897461,0.000000,0.000000,6.000000,,,,0.000000,4.000000,4.000000,4.000000,4.000000,4.000000,4.000000,4.000000,4.000000,4.000000,4.000000,4.000000,4.000000,4.000000,4.000000,100.000000,,,,,,,,,,,,,,,,,13.000000,0.000000,0.706075,0.062134,-0.692078,0.136475,1.000610,-0.096691,0.035161,-41.684303,-16.062775,42.295937,,,,,,,,,,,,,,,,,,,,,,,,,,,,,,,,,,,,,,,,,,,,,,,,,,,,,,,,,,,,,,,,,,,,,,,,,,,,,,,,,,,,,,,,,,,,,,,,,,,,,
1742213694.608145,1742213694.608892,53.000000,0.000000,4236.922852,4236.666504,4258.589844,4265.384766,4229.102539,4191.794922,4185.256348,4197.563965,4197.820313,4201.282227,4558.846191,4450.512695,4292.820313,4491.282227,0.000000,0.000000,6.000000,,,,0.000000,4.000000,4.000000,4.000000,4.000000,4.000000,4.000000,4.000000,4.000000,4.000000,4.000000,4.000000,4.000000,4.000000,4.000000,100.000000,,,,,,,,,,,,,,,,,,,,,,,,,,,,,,,,,,,,,,,,,,,,,,,,,,,,,,,,,,,,,,,,,,,,,,,,,,,,,,,,,,,,,,,,,,,,,,,,,,,,,,,,,,,,,,,,,,,,,,,,,,,,,,,,,
1742213694.615953,1742213694.616600,54.000000,0.000000,4241.153809,4239.487305,4261.794922,4271.922852,4228.205078,4191.794922,4199.102539,4203.717773,4191.922852,4212.307617,4563.205078,4457.436035,4291.153809,4495.512695,0.000000,0.000000,6.000000,,,,0.000000,4.000000,4.000000,4.000000,4.000000,4.000000,4.000000,4.000000,4.000000,4.000000,4.000000,4.000000,4.000000,4.000000,4.000000,100.000000,,,,,,,,,,,,,,,,,,,,,,,,,,,,,,,,,,,,,,,,,,,,,,,,,,,,,,,,,,,,,,,,,,,,,,,,,,,,,,,,,,,,,,,,,,,,,,,,,,,,,,,,,,,,,,,,,,,,,,,,,,,,,,,,,
1742213694.623761,1742213694.624408,55.000000,0.000000,4249.871582,4252.051270,4266.538574,4280.000000,4231.282227,4199.615234,4201.410156,4206.794922,4202.307617,4224.102539,4566.282227,4464.743652,4284.743652,4498.974121,0.000000,0.000000,6.000000,,,,0.000000,4.000000,4.000000,4.000000,4.000000,4.000000,4.000000,4.000000,4.000000,4.000000,4.000000,4.000000,4.000000,4.000000,4.000000,100.000000,,,,,,,,,,,,,,,,,,,,,,,,,,,,,,,,,,,,,,,,,,,,,,,,,,,,,,,,,,,,,,,,,,,,,,,,,,,,,,,,,,,,,,,,,,,,,,,,,,,,,,,,,,,,,,,,,,,,,,,,,,,,,,,,,
1742213694.631569,1742213694.632116,56.000000,0.000000,4222.051270,4229.871582,4243.846191,4251.282227,4226.922852,4174.871582,4170.769043,4180.512695,4184.102539,4176.538574,4533.461426,4431.410156,4255.256348,4469.743652,0.000000,0.000000,6.000000,,,,0.000000,4.000000,4.000000,4.000000,4.000000,4.000000,4.000000,4.000000,4.000000,4.000000,4.000000,4.000000,4.000000,4.000000,4.000000,100.000000,,,,,,,,,,,,,,,,,14.000000,0.000000,0.706331,0.061951,-0.691833,0.136475,0.990844,-0.089366,0.033207,-41.682537,-16.056498,42.316341,,,,,,,,,,,,,,,,,,,,,,,,,,,,,,,,,,,,,,,,,,,,,,,,,,,,,,,,,,,,,,,,,,,,,,,,,,,,,,,,,,,,,,,,,,,,,,,,,,,,,
1742213694.639377,1742213694.639924,57.000000,0.000000,4213.589844,4213.461426,4236.922852,4240.512695,4216.282227,4165.641113,4170.128418,4188.461426,4194.230957,4163.205078,4535.641113,4429.615234,4251.538574,4467.436035,0.000000,0.000000,6.000000,,,,0.000000,4.000000,4.000000,4.000000,4.000000,4.000000,4.000000,4.000000,4.000000,4.000000,4.000000,4.000000,4.000000,4.000000,4.000000,100.000000,,,,,,,,,,,,,,,,,,,,,,,,,,,,,,,,,,,,,,,,,,,,,,,,,,,,,,,,,,,,,,,,,,,,,,,,,,,,,,,,,,,,,,,,,,,,,,,,,,,,,,,,,,,,,,,,,,,,,,,,,,,,,,,,,
1742213694.647185,1742213694.647632,58.000000,0.000000,4236.282227,4237.436035,4258.846191,4265.256348,4221.666504,4198.846191,4195.641113,4212.948730,4230.897461,4218.974121,4564.487305,4461.153809,4273.717773,4494.615234,0.000000,0.000000,6.000000,,,,0.000000,4.000000,4.000000,4.000000,4.000000,4.000000,4.000000,4.000000,4.000000,4.000000,4.000000,4.000000,4.000000,4.000000,4.000000,100.000000,,,,,,,,,,,,,,,,,,,,,,,,,,,,,,,,,,,,,,,,,,,,,,,,,,,,,,,,,,,,,,,,,,,,,,,,,,,,,,,,,,,,,,,,,,,,,,,,,,,,,,,,,,,,,,,,,,,,,,,,,,,,,,,,,
1742213694.654993,1742213694.655540,59.000000,0.000000,4231.538574,4251.410156,4261.025879,4270.256348,4233.077148,4200.000000,4192.563965,4185.256348,4184.102539,4213.333496,4549.743652,4446.153809,4269.487305,4487.307617,0.000000,0.000000,6.000000,,,,0.000000,4.000000,4.000000,4.000000,4.000000,4.000000,4.000000,4.000000,4.000000,4.000000,4.000000,4.000000,4.000000,4.000000,4.000000,100.000000,,,,,,,,,,,,,,,,,,,,,,,,,,,,,,,,,,,,,,,,,,,,,,,,,,,,,,,,,,,,,,,,,,,,,,,,,,,,,,,,,,,,,,,,,,,,,,,,,,,,,,,,,,,,,,,,,,,,,,,,,,,,,,,,,
1742213694.662801,1742213694.663448,60.000000,0.000000,4208.717773,4236.410156,4243.589844,4255.897461,4223.974121,4165.512695,4173.333496,4160.128418,4119.358887,4157.820313,4528.077148,4413.461426,4248.846191,4465.128418,0.000000,0.000000,6.000000,,,,0.000000,4.000000,4.000000,4.000000,4.000000,4.000000,4.000000,4.000000,4.000000,4.000000,4.000000,4.000000,4.000000,4.000000,4.000000,100.000000,,,,,,,,,,,,,,,,,15.000000,0.000000,0.706637,0.062134,-0.691528,0.136353,1.009889,-0.086436,0.039067,-41.597618,-16.000847,42.284706,,,,,,,,,,,,,,,,,,,,,,,,,,,,,,,,,,,,,,,,,,,,,,,,,,,,,,,,,,,,,,,,,,,,,,,,,,,,,,,,,,,,,,,,,,,,,,,,,,,,,
1742213694.670609,1742213694.671256,61.000000,0.000000,4211.666504,4231.538574,4243.333496,4260.128418,4214.102539,4167.051270,4175.256348,4183.077148,4168.205078,4169.230957,4538.717773,4427.436035,4250.256348,4472.179688,0.000000,0.000000,6.000000,,,,0.000000,4.000000,4.000000,4.000000,4.000000,4.000000,4.000000,4.000000,4.000000,4.000000,4.000000,4.000000,4.000000,4.000000,4.000000,100.000000,,,,,,,,,,,,,,,,,,,,,,,,,,,,,,,,,,,,,,,,,,,,,,,,,,,,,,,,,,,,,,,,,,,,,,,,,,,,,,,,,,,,,,,,,,,,,,,,,,,,,,,,,,,,,,,,,,,,,,,,,,,,,,,,,
1742213694.678418,1742213694.679065,62.000000,0.000000,4228.205078,4246.666504,4255.256348,4273.717773,4224.743652,4195.897461,4184.871582,4200.384766,4218.846191,4196.794922,4553.974121,4452.948730,4265.769043,4490.000000,0.000000,0.000000,6.000000,,,,0.000000,4.000000,4.000000,4.000000,4.000000,4.000000,4.000000,4.000000,4.000000,4.000000,4.000000,4.000000,4.000000,4.000000,4.000000,100.000000,,,,,,,,,,,,,,,,,,,,,,,,,,,,,,,,,,,,,,,,,,,,,,,,,,,,,,,,,,,,2.731895,2.092890,1.017910,0.898092,0.562056,7.097718,1.744025,1.565863,0.967391,0.633700,2.789910,2.089749,0.624666,0.622181,0.514182,1.994891,1.973651,1.503152,2.408266,1.250448,0.618279,0.273787,0.735116,0.396402,0.433374,1.549313,0.891200,1.948931,3.056168,2.409557,2.797635,1.962083,1.335820,2.017534,1.115171,2.881152,1.590552,1.094383,2.345378,1.563424,2.113447,1.788984,4.532671,6.821379,6.452907,12.913575,3.693700,3.853453,4.313714,2.635929,3.936669,2.002139,1.380223,1.722659,1.333029,3.600960,1.585253,0.993036,1.499038,1.145611,10.035479,0.794725,1.530422,1.184969,0.983289,2.709796,2.744769,1.144368,1.216788,0.828865
1742213694.686226,1742213694.686972,63.000000,0.000000,4228.077148,4250.641113,4252.820313,4270.897461,4230.256348,4188.717773,4177.436035,4183.077148,4164.487305,4175.256348,4549.102539,4444.743652,4263.589844,4490.512695,0.000000,0.000000,6.000000,,,,0.000000,4.000000,4.000000,4.000000,4.000000,4.000000,4.000000,4.000000,4.000000,4.000000,4.000000,4.000000,4.000000,4.000000,4.000000,100.000000,,,,,,,,,,,,,,,,,,,,,,,,,,,,,,,,,,,,,,,,,,,,,,,,,,,,,,,,,,,,,,,,,,,,,,,,,,,,,,,,,,,,,,,,,,,,,,,,,,,,,,,,,,,,,,,,,,,,,,,,,,,,,,,,,
1742213694.694034,1742213694.694780,64.000000,0.000000,4220.000000,4242.307617,4247.179688,4262.051270,4217.051270,4160.769043,4163.589844,4165.256348,4127.051270,4166.410156,4538.974121,4430.384766,4249.230957,4484.230957,4298.000000,0.000000,6.000000,,,,0.000000,4.000000,4.000000,4.000000,4.000000,4.000000,4.000000,4.000000,4.000000,4.000000,4.000000,4.000000,4.000000,4.000000,4.000000,100.000000,,,,,,,,,,,,,,,,,16.000000,0.000000,0.707021,0.062378,-0.691162,0.136108,0.982053,-0.084483,0.042486,-41.521191,-16.200762,42.389572,,,,,,,,,,,,,,,,,,,,,,,,,,,,,,,,,,,,,,,,,,,,,,,,,,,,,,,,,,,,,,,,,,,,,,,,,,,,,,,,,,,,,,,,,,,,,,,,,,,,,
1742213694.701842,1742213694.702688,65.000000,0.000000,4218.717773,4239.230957,4250.000000,4265.128418,4216.666504,4172.051270,4168.589844,4171.666504,4164.102539,4173.717773,4546.025879,4437.307617,4247.307617,4486.666504,5158.000000,0.000000,6.000000,,,,0.000000,4.000000,4.000000,4.000000,4.000000,4.000000,4.000000,4.000000,4.000000,4.000000,4.000000,4.000000,4.000000,4.000000,4.000000,100.000000,,,,,,,,,,,,,,,,,,,,,,,,,,,,,,,,,,,,,,,,,,,,,,,,,,,,,,,,,,,,,,,,,,,,,,,,,,,,,,,,,,,,,,,,,,,,,,,,,,,,,,,,,,,,,,,,,,,,,,,,,,,,,,,,,
1742213694.709650,1742213694.710496,66.000000,0.000000,4220.128418,4237.820313,4247.436035,4266.153809,4231.153809,4191.410156,4178.974121,4182.436035,4188.205078,4154.102539,4556.153809,4442.563965,4248.846191,4489.358887,4741.000000,0.000000,6.000000,,,,0.000000,4.000000,4.000000,4.000000,4.000000,4.000000,4.000000,4.000000,4.000000,4.000000,4.000000,4.000000,4.000000,4.000000,4.000000,100.000000,,,,,,,,,,,,,,,,,,,,,,,,,,,,,,,,,,,,,,,,,,,,,,,,,,,,,,,,,,,,,,,,,,,,,,,,,,,,,,,,,,,,,,,,,,,,,,,,,,,,,,,,,,,,,,,,,,,,,,,,,,,,,,,,,
1742213694.717458,1742213694.718404,67.000000,0.000000,4222.307617,4241.538574,4241.282227,4260.769043,4224.102539,4175.897461,4174.358887,4181.538574,4166.794922,4152.051270,4552.948730,4434.743652,4243.974121,4487.820313,5100.000000,0.000000,6.000000,,,,0.000000,4.000000,4.000000,4.000000,4.000000,4.000000,4.000000,4.000000,4.000000,4.000000,4.000000,4.000000,4.000000,4.000000,4.000000,100.000000,,,,,,,,,,,,,,,,,,,,,,,,,,,,,,,,,,,,,,,,,,,,,,,,,,,,,,,,,,,,,,,,,,,,,,,,,,,,,,,,,,,,,,,,,,,,,,,,,,,,,,,,,,,,,,,,,,,,,,,,,,,,,,,,,
1742213694.725266,1742213694.726212,68.000000,0.000000,4226.538574,4247.563965,4244.358887,4262.436035,4207.563965,4162.820313,4170.256348,4180.256348,4155.897461,4176.025879,4551.410156,4432.820313,4243.077148,4488.333496,2010.000000,0.000000,6.000000,,,,0.000000,4.000000,4.000000,4.000000,4.000000,4.000000,4.000000,4.000000,4.000000,4.000000,4.000000,4.000000,4.000000,4.000000,4.000000,100.000000,,,,,,,,,,,,,,,,,17.000000,0.000000,0.707543,0.062134,-0.690674,0.135986,0.995239,-0.107435,0.039556,-41.435738,-16.147352,42.333946,,,,,,,,,,,,,,,,,,,,,,,,,,,,,,,,,,,,,,,,,,,,,,,,,,,,,,,,,,,,,,,,,,,,,,,,,,,,,,,,,,,,,,,,,,,,,,,,,,,,,
1742213694.733074,1742213694.734120,69.000000,0.000000,4226.025879,4238.333496,4248.974121,4263.205078,4216.282227,4177.820313,4174.743652,4185.769043,4170.384766,4173.589844,4553.333496,4432.307617,4242.948730,4482.563965,4858.000000,0.000000,6.000000,,,,0.000000,4.000000,4.000000,4.000000,4.000000,4.000000,4.000000,4.000000,4.000000,4.000000,4.000000,4.000000,4.000000,4.000000,4.000000,100.000000,,,,,,,,,,,,,,,,,,,,,,,,,,,,,,,,,,,,,,,,,,,,,,,,,,,,,,,,,,,,,,,,,,,,,,,,,,,,,,,,,,,,,,,,,,,,,,,,,,,,,,,,,,,,,,,,,,,,,,,,,,,,,,,,,
1742213694.740882,1742213694.741928,70.000000,0.000000,4225.641113,4223.717773,4246.922852,4260.000000,4232.436035,4184.230957,4176.794922,4180.128418,4157.820313,4158.589844,4547.948730,4427.563965,4241.922852,4473.077148,5182.000000,0.000000,6.000000,,,,0.000000,4.000000,4.000000,4.000000,4.000000,4.000000,4.000000,4.000000,4.000000,4.000000,4.000000,4.000000,4.000000,4.000000,4.000000,100.000000,,,,,,,,,,,,,,,,,,,,,,,,,,,,,,,,,,,,,,,,,,,,,,,,,,,,,,,,,,,,,,,,,,,,,,,,,,,,,,,,,,,,,,,,,,,,,,,,,,,,,,,,,,,,,,,,,,,,,,,,,,,,,,,,,
1742213694.748690,1742213694.749836,71.000000,0.000000,4246.153809,4232.948730,4259.743652,4275.384766,4232.820313,4188.846191,4188.077148,4181.794922,4157.820313,4178.589844,4564.615234,4447.051270,4259.743652,4491.025879,5305.000000,0.000000,6.000000,,,,0.000000,4.000000,4.000000,4.000000,4.000000,4.000000,4.000000,4.000000,4.000000,4.000000,4.000000,4.000000,4.000000,4.000000,4.000000,100.000000,,,,,,,,,,,,,,,,,,,,,,,,,,,,,,,,,,,,,,,,,,,,,,,,,,,,,,,,,,,,,,,,,,,,,,,,,,,,,,,,,,,,,,,,,,,,,,,,,,,,,,,,,,,,,,,,,,,,,,,,,,,,,,,,,
1742213694.756498,1742213694.757644,72.000000,0.000000,4264.743652,4244.358887,4278.846191,4294.615234,4232.307617,4213.846191,4207.307617,4198.461426,4219.615234,4205.256348,4591.538574,4473.589844,4277.307617,4513.077148,5325.000000,0.000000,6.000000,,,,0.000000,4.000000,4.000000,4.000000,4.000000,4.000000,4.000000,4.000000,4.000000,4.000000,4.000000,4.000000,4.000000,4.000000,4.000000,100.000000,,,,,,,,,,,,,,,,,18.000000,0.000000,0.707594,0.061951,-0.690674,0.135803,0.983518,-0.088878,0.035161,-41.325497,-16.165951,42.300552,,,,,,,,,,,,,,,,,,,,,,,,,,,,,,,,,,,,,,,,,,,,,,,,,,,,,,,,,,,,,,,,,,,,,,,,,,,,,,,,,,,,,,,,,,,,,,,,,,,,,
1742213694.764306,1742213694.765452,73.000000,0.000000,4262.436035,4234.743652,4284.487305,4292.948730,4231.538574,4219.615234,4210.128418,4199.230957,4235.897461,4202.051270,4590.641113,4475.769043,4275.769043,4508.974121,5719.000000,0.000000,6.000000,,,,0.000000,4.000000,4.000000,4.000000,4.000000,4.000000,4.000000,4.000000,4.000000,4.000000,4.000000,4.000000,4.000000,4.000000,4.000000,100.000000,,,,,,,,,,,,,,,,,,,,,,,,,,,,,,,,,,,,,,,,,,,,,,,,,,,,,,,,,,,,,,,,,,,,,,,,,,,,,,,,,,,,,,,,,,,,,,,,,,,,,,,,,,,,,,,,,,,,,,,,,,,,,,,,,
1742213694.772115,1742213694.773260,74.000000,0.000000,4260.384766,4227.692383,4285.897461,4287.563965,4220.256348,4202.948730,4201.025879,4191.410156,4170.000000,4194.358887,4581.538574,4473.333496,4277.436035,4505.000000,5794.000000,0.000000,6.000000,,,,0.000000,4.000000,4.000000,4.000000,4.000000,4.000000,4.000000,4.000000,4.000000,4.000000,4.000000,4.000000,4.000000,4.000000,4.000000,100.000000,,,,,,,,,,,,,,,,,,,,,,,,,,,,,,,,,,,,,,,,,,,,,,,,,,,,,,,,,,,,,,,,,,,,,,,,,,,,,,,,,,,,,,,,,,,,,,,,,,,,,,,,,,,,,,,,,,,,,,,,,,,,,,,,,
1742213694.779923,1742213694.780968,75.000000,0.000000,4263.461426,4228.333496,4286.025879,4289.102539,4218.333496,4193.461426,4199.358887,4197.307617,4150.512695,4207.179688,4590.641113,4481.025879,4286.794922,4511.153809,5873.000000,0.000000,6.000000,,,,0.000000,4.000000,4.000000,4.000000,4.000000,4.000000,4.000000,4.000000,4.000000,4.000000,4.000000,4.000000,4.000000,4.000000,4.000000,100.000000,,,,,,,,,,,,,,,,,,,,,,,,,,,,,,,,,,,,,,,,,,,,,,,,,,,,,,,,,,,,,,,,,,,,,,,,,,,,,,,,,,,,,,,,,,,,,,,,,,,,,,,,,,,,,,,,,,,,,,,,,,,,,,,,,
1742213694.787731,1742213694.788776,76.000000,0.000000,4264.743652,4224.615234,4285.000000,4284.230957,4223.205078,4194.230957,4201.282227,4205.897461,4184.871582,4220.512695,4602.179688,4491.282227,4291.666504,4514.230957,6543.000000,0.000000,6.000000,,,,0.000000,4.000000,4.000000,4.000000,4.000000,4.000000,4.000000,4.000000,4.000000,4.000000,4.000000,4.000000,4.000000,4.000000,4.000000,100.000000,,,,,,,,,,,,,,,,,19.000000,0.000000,0.707894,0.061646,-0.690430,0.135620,0.984495,-0.086925,0.045904,-41.292946,-16.032690,42.453831,,,,,,,,,,,,,,,,,,,,,,,,,,,,,,,,,,,,,,,,,,,,,,,,,,,,,,,,,,,,,,,,,,,,,,,,,,,,,,,,,,,,,,,,,,,,,,,,,,,,,
1742213694.795539,1742213694.796484,77.000000,0.000000,4262.051270,4217.436035,4286.025879,4277.692383,4222.307617,4207.307617,4203.589844,4203.205078,4197.948730,4208.205078,4602.820313,4492.307617,4286.666504,4515.641113,6377.000000,0.000000,6.000000,,,,0.000000,4.000000,4.000000,4.000000,4.000000,4.000000,4.000000,4.000000,4.000000,4.000000,4.000000,4.000000,4.000000,4.000000,4.000000,100.000000,,,,,,,,,,,,,,,,,,,,,,,,,,,,,,,,,,,,,,,,,,,,,,,,,,,,,,,,,,,,,,,,,,,,,,,,,,,,,,,,,,,,,,,,,,,,,,,,,,,,,,,,,,,,,,,,,,,,,,,,,,,,,,,,,
1742213694.803347,1742213694.804292,78.000000,0.000000,4263.717773,4217.179688,4291.410156,4279.871582,4220.641113,4215.512695,4202.820313,4201.922852,4206.794922,4198.846191,4606.794922,4490.256348,4284.487305,4519.102539,5794.000000,0.000000,6.000000,,,,0.000000,4.000000,4.000000,4.000000,4.000000,4.000000,4.000000,4.000000,4.000000,4.000000,4.000000,4.000000,4.000000,4.000000,4.000000,100.000000,,,,,,,,,,,,,,,,,,,,,,,,,,,,,,,,,,,,,,,,,,,,,,,,,,,,,,,,,,,,2.959640,1.919265,1.008404,0.918066,0.564929,6.531195,1.715269,1.522034,0.970499,0.599360,3.107779,2.007051,0.657508,0.646467,0.503919,1.744350,1.662746,1.307473,1.538430,0.849591,0.607081,0.239928,0.711119,0.353346,0.401322,1.868920,0.800090,1.346033,2.171189,1.910288,3.016957,1.908886,1.083546,1.672877,1.009776,2.579558,1.450224,1.220736,2.333151,1.640525,2.250812,1.860437,3.282143,7.223734,7.192761,10.545210,2.875706,4.024943,4.441974,2.801304,3.566028,1.426021,1.155558,1.438765,1.304364,3.599958,1.618298,0.948133,1.551036,1.180702,7.920834,1.131525,1.576932,1.206839,1.022126,2.460135,2.635519,1.157206,1.223844,0.826374
1742213694.811155,1742213694.812000,79.000000,0.000000,4271.410156,4216.538574,4296.794922,4281.153809,4220.256348,4198.974121,4192.948730,4200.641113,4203.846191,4211.538574,4615.128418,4497.563965,4290.769043,4523.846191,5873.000000,0.000000,6.000000,,,,0.000000,4.000000,4.000000,4.000000,4.000000,4.000000,4.000000,4.000000,4.000000,4.000000,4.000000,4.000000,4.000000,4.000000,4.000000,100.000000,,,,,,,,,,,,,,,,,,,,,,,,,,,,,,,,,,,,,,,,,,,,,,,,,,,,,,,,,,,,,,,,,,,,,,,,,,,,,,,,,,,,,,,,,,,,,,,,,,,,,,,,,,,,,,,,,,,,,,,,,,,,,,,,,
1742213694.818963,1742213694.819808,80.000000,0.000000,4278.589844,4215.641113,4303.205078,4283.461426,4227.307617,4194.487305,4198.846191,4195.641113,4194.615234,4225.897461,4618.974121,4506.538574,4293.077148,4533.717773,6543.000000,0.000000,6.000000,,,,0.000000,4.000000,4.000000,4.000000,4.000000,4.000000,4.000000,4.000000,4.000000,4.000000,4.000000,4.000000,4.000000,4.000000,4.000000,100.000000,,,,,,,,,,,,,,,,,20.000000,0.000000,0.708082,0.061401,-0.690247,0.135681,0.996704,-0.092296,0.044439,-41.230320,-15.962753,42.508446,,,,,,,,,,,,,,,,,,,,,,,,,,,,,,,,,,,,,,,,,,,,,,,,,,,,,,,,,,,,,,,,,,,,,,,,,,,,,,,,,,,,,,,,,,,,,,,,,,,,,
1742213694.826771,1742213694.827516,81.000000,0.000000,4283.205078,4227.692383,4306.282227,4296.282227,4236.410156,4223.974121,4222.436035,4208.846191,4211.025879,4226.538574,4621.025879,4511.794922,4286.794922,4543.589844,6377.000000,0.000000,6.000000,,,,0.000000,4.000000,4.000000,4.000000,4.000000,4.000000,4.000000,4.000000,4.000000,4.000000,4.000000,4.000000,4.000000,4.000000,4.000000,100.000000,,,,,,,,,,,,,,,,,,,,,,,,,,,,,,,,,,,,,,,,,,,,,,,,,,,,,,,,,,,,,,,,,,,,,,,,,,,,,,,,,,,,,,,,,,,,,,,,,,,,,,,,,,,,,,,,,,,,,,,,,,,,,,,,,
1742213694.834579,1742213694.835324,82.000000,0.000000,4280.128418,4228.974121,4295.256348,4295.384766,4223.589844,4221.922852,4213.333496,4216.794922,4206.282227,4203.205078,4620.641113,4505.384766,4276.153809,4535.000000,5794.000000,0.000000,6.000000,,,,0.000000,4.000000,4.000000,4.000000,4.000000,4.000000,4.000000,4.000000,4.000000,4.000000,4.000000,4.000000,4.000000,4.000000,4.000000,100.000000,,,,,,,,,,,,,,,,,,,,,,,,,,,,,,,,,,,,,,,,,,,,,,,,,,,,,,,,,,,,,,,,,,,,,,,,,,,,,,,,,,,,,,,,,,,,,,,,,,,,,,,,,,,,,,,,,,,,,,,,,,,,,,,,,
1742213694.842388,1742213694.843032,83.000000,0.000000,4274.487305,4215.256348,4286.666504,4276.794922,4209.743652,4193.846191,4189.871582,4205.512695,4197.436035,4195.384766,4615.769043,4491.794922,4266.922852,4520.000000,5873.000000,0.000000,6.000000,,,,0.000000,4.000000,4.000000,4.000000,4.000000,4.000000,4.000000,4.000000,4.000000,4.000000,4.000000,4.000000,4.000000,4.000000,4.000000,100.000000,,,,,,,,,,,,,,,,,,,,,,,,,,,,,,,,,,,,,,,,,,,,,,,,,,,,,,,,,,,,,,,,,,,,,,,,,,,,,,,,,,,,,,,,,,,,,,,,,,,,,,,,,,,,,,,,,,,,,,,,,,,,,,,,,
1742213694.850196,1742213694.850940,84.000000,0.000000,4275.641113,4218.333496,4295.256348,4278.205078,4227.948730,4208.974121,4203.717773,4208.974121,4228.974121,4221.410156,4613.974121,4492.692383,4257.820313,4520.256348,6543.000000,0.000000,6.000000,,,,0.000000,4.000000,4.000000,4.000000,4.000000,4.000000,4.000000,4.000000,4.000000,4.000000,4.000000,4.000000,4.000000,4.000000,4.000000,100.000000,,,,,,,,,,,,,,,,,21.000000,0.000000,0.708101,0.061462,-0.690186,0.135864,0.999634,-0.092296,0.044927,-41.307289,-16.149811,42.474270,,,,,,,,,,,,,,,,,,,,,,,,,,,,,,,,,,,,,,,,,,,,,,,,,,,,,,,,,,,,,,,,,,,,,,,,,,,,,,,,,,,,,,,,,,,,,,,,,,,,,
1742213694.858004,1742213694.858748,85.000000,0.000000,4281.666504,4234.615234,4300.641113,4293.974121,4238.974121,4225.769043,4218.717773,4216.538574,4222.179688,4223.846191,4613.461426,4501.538574,4250.769043,4526.153809,6377.000000,0.000000,6.000000,,,,0.000000,4.000000,4.000000,4.000000,4.000000,4.000000,4.000000,4.000000,4.000000,4.000000,4.000000,4.000000,4.000000,4.000000,4.000000,100.000000,,,,,,,,,,,,,,,,,,,,,,,,,,,,,,,,,,,,,,,,,,,,,,,,,,,,,,,,,,,,,,,,,,,,,,,,,,,,,,,,,,,,,,,,,,,,,,,,,,,,,,,,,,,,,,,,,,,,,,,,,,,,,,,,,
1742213694.865812,1742213694.866656,86.000000,0.000000,4277.563965,4231.153809,4292.692383,4288.461426,4218.589844,4198.974121,4202.563965,4204.358887,4171.282227,4194.358887,4605.512695,4494.358887,4244.743652,4523.717773,5794.000000,0.000000,6.000000,,,,0.000000,4.000000,4.000000,4.000000,4.000000,4.000000,4.000000,4.000000,4.000000,4.000000,4.000000,4.000000,4.000000,4.000000,4.000000,100.000000,,,,,,,,,,,,,,,,,,,,,,,,,,,,,,,,,,,,,,,,,,,,,,,,,,,,,,,,,,,,,,,,,,,,,,,,,,,,,,,,,,,,,,,,,,,,,,,,,,,,,,,,,,,,,,,,,,,,,,,,,,,,,,,,,
1742213694.873620,1742213694.874464,87.000000,0.000000,4265.641113,4217.307617,4291.410156,4276.922852,4210.512695,4189.615234,4194.487305,4202.820313,4178.974121,4195.769043,4601.666504,4488.205078,4244.743652,4517.820313,5873.000000,0.000000,6.000000,,,,0.000000,4.000000,4.000000,4.000000,4.000000,4.000000,4.000000,4.000000,4.000000,4.000000,4.000000,4.000000,4.000000,4.000000,4.000000,100.000000,,,,,,,,,,,,,,,,,,,,,,,,,,,,,,,,,,,,,,,,,,,,,,,,,,,,,,,,,,,,,,,,,,,,,,,,,,,,,,,,,,,,,,,,,,,,,,,,,,,,,,,,,,,,,,,,,,,,,,,,,,,,,,,,,
1742213694.881428,1742213694.882371,88.000000,0.000000,4260.256348,4217.563965,4293.333496,4278.461426,4224.743652,4217.051270,4205.256348,4206.153809,4219.743652,4206.538574,4603.077148,4490.000000,4241.794922,4510.128418,6543.000000,0.000000,6.000000,,,,0.000000,4.000000,4.000000,4.000000,4.000000,4.000000,4.000000,4.000000,4.000000,4.000000,4.000000,4.000000,4.000000,4.000000,4.000000,100.000000,,,,,,,,,,,,,,,,,22.000000,0.000000,0.708039,0.061768,-0.690186,0.136047,0.990844,-0.099133,0.041997,-41.243225,-16.068165,42.360176,,,,,,,,,,,,,,,,,,,,,,,,,,,,,,,,,,,,,,,,,,,,,,,,,,,,,,,,,,,,,,,,,,,,,,,,,,,,,,,,,,,,,,,,,,,,,,,,,,,,,
1742213694.889236,1742213694.890179,89.000000,0.000000,4262.692383,4227.179688,4291.153809,4282.563965,4230.512695,4216.922852,4206.538574,4195.128418,4210.641113,4185.897461,4603.205078,4482.307617,4234.102539,4505.641113,6377.000000,0.000000,6.000000,,,,0.000000,4.000000,4.000000,4.000000,4.000000,4.000000,4.000000,4.000000,4.000000,4.000000,4.000000,4.000000,4.000000,4.000000,4.000000,100.000000,,,,,,,,,,,,,,,,,,,,,,,,,,,,,,,,,,,,,,,,,,,,,,,,,,,,,,,,,,,,,,,,,,,,,,,,,,,,,,,,,,,,,,,,,,,,,,,,,,,,,,,,,,,,,,,,,,,,,,,,,,,,,,,,,
1742213694.897044,1742213694.898087,90.000000,0.000000,4267.051270,4230.641113,4291.153809,4281.666504,4222.820313,4198.077148,4203.077148,4196.025879,4175.641113,4179.487305,4603.077148,4480.256348,4239.871582,4512.563965,5794.000000,0.000000,6.000000,,,,0.000000,4.000000,4.000000,4.000000,4.000000,4.000000,4.000000,4.000000,4.000000,4.000000,4.000000,4.000000,4.000000,4.000000,4.000000,100.000000,,,,,,,,,,,,,,,,,,,,,,,,,,,,,,,,,,,,,,,,,,,,,,,,,,,,,,,,,,,,,,,,,,,,,,,,,,,,,,,,,,,,,,,,,,,,,,,,,,,,,,,,,,,,,,,,,,,,,,,,,,,,,,,,,
1742213694.904852,1742213694.905895,91.000000,0.000000,4256.025879,4216.922852,4279.743652,4265.128418,4213.461426,4194.743652,4197.820313,4194.743652,4166.282227,4186.666504,4590.256348,4475.897461,4236.666504,4505.000000,5873.000000,0.000000,6.000000,,,,0.000000,4.000000,4.000000,4.000000,4.000000,4.000000,4.000000,4.000000,4.000000,4.000000,4.000000,4.000000,4.000000,4.000000,4.000000,100.000000,,,,,,,,,,,,,,,,,,,,,,,,,,,,,,,,,,,,,,,,,,,,,,,,,,,,,,,,,,,,,,,,,,,,,,,,,,,,,,,,,,,,,,,,,,,,,,,,,,,,,,,,,,,,,,,,,,,,,,,,,,,,,,,,,
1742213694.912660,1742213694.913803,92.000000,0.000000,4242.563965,4208.717773,4271.410156,4250.512695,4213.205078,4194.615234,4191.025879,4185.128418,4181.666504,4174.487305,4579.358887,4466.282227,4222.948730,4492.948730,6543.000000,0.000000,6.000000,,,,0.000000,4.000000,4.000000,4.000000,4.000000,4.000000,4.000000,4.000000,4.000000,4.000000,4.000000,4.000000,4.000000,4.000000,4.000000,100.000000,,,,,,,,,,,,,,,,,23.000000,0.000000,0.707876,0.062012,-0.690247,0.136475,0.988890,-0.105482,0.041509,-41.118904,-16.061348,42.407490,,,,,,,,,,,,,,,,,,,,,,,,,,,,,,,,,,,,,,,,,,,,,,,,,,,,,,,,,,,,,,,,,,,,,,,,,,,,,,,,,,,,,,,,,,,,,,,,,,,,,
1742213694.920468,1742213694.921611,93.000000,0.000000,4258.974121,4228.974121,4292.563965,4272.436035,4228.077148,4203.974121,4207.307617,4205.769043,4207.436035,4171.282227,4607.179688,4485.641113,4240.897461,4516.153809,6377.000000,0.000000,6.000000,,,,0.000000,4.000000,4.000000,4.000000,4.000000,4.000000,4.000000,4.000000,4.000000,4.000000,4.000000,4.000000,4.000000,4.000000,4.000000,100.000000,,,,,,,,,,,,,,,,,,,,,,,,,,,,,,,,,,,,,,,,,,,,,,,,,,,,,,,,,,,,,,,,,,,,,,,,,,,,,,,,,,,,,,,,,,,,,,,,,,,,,,,,,,,,,,,,,,,,,,,,,,,,,,,,,
1742213694.928276,1742213694.929519,94.000000,0.000000,4275.512695,4242.179688,4300.641113,4287.179688,4227.948730,4199.487305,4209.102539,4210.769043,4208.205078,4186.153809,4624.358887,4496.282227,4257.307617,4533.205078,5794.000000,0.000000,6.000000,,,,0.000000,4.000000,4.000000,4.000000,4.000000,4.000000,4.000000,4.000000,4.000000,4.000000,4.000000,4.000000,4.000000,4.000000,4.000000,100.000000,1.000000,8.333333,4.000000,4.000000,3.000000,1.000000,4.000000,1.000000,1.000000,3.000000,3.000000,1.000000,0.000000,3.000000,0.000000,3.000000,,,,,,,,,,,,,,,,,,,,,,,,,,,,,,,,,,,,,,,,,,,,3.280423,1.588537,1.043970,0.977512,0.628975,5.981698,1.561502,1.448258,1.006225,0.645426,3.343281,1.743764,0.707050,0.732794,0.547978,1.521213,1.310682,1.165302,1.303945,0.789426,0.612769,0.216366,0.660364,0.374775,0.416176,2.259142,0.751676,0.992248,1.912477,1.875398,3.216349,1.774152,0.968747,1.494971,1.089105,2.299430,1.296303,1.461798,2.207707,1.714319,2.531548,1.981803,2.478307,7.493848,7.775817,9.161187,2.441115,4.212141,4.597870,3.029321,3.558098,1.157329,1.148554,1.440427,1.417323,3.690306,1.560974,1.014283,1.639584,1.306470,7.649541,1.472314,1.738290,1.256094,1.142549,2.211152,2.280616,1.265716,1.290060,0.916647
1742213694.936085,1742213694.937327,95.000000,0.000000,4258.205078,4226.153809,4277.820313,4262.436035,4206.538574,4179.871582,4177.051270,4177.051270,4173.717773,4193.717773,4592.948730,4464.358887,4237.051270,4510.512695,5873.000000,0.000000,6.000000,,,,0.000000,4.000000,4.000000,4.000000,4.000000,4.000000,4.000000,4.000000,4.000000,4.000000,4.000000,4.000000,4.000000,4.000000,4.000000,100.000000,,,,,,,,,,,,,,,,,,,,,,,,,,,,,,,,,,,,,,,,,,,,,,,,,,,,,,,,,,,,,,,,,,,,,,,,,,,,,,,,,,,,,,,,,,,,,,,,,,,,,,,,,,,,,,,,,,,,,,,,,,,,,,,,,
1742213694.943893,1742213694.945235,96.000000,0.000000,4243.589844,4217.179688,4274.230957,4254.615234,4206.153809,4188.589844,4172.307617,4171.922852,4149.102539,4182.179688,4577.692383,4448.333496,4227.051270,4500.384766,6543.000000,0.000000,6.000000,,,,0.000000,4.000000,4.000000,4.000000,4.000000,4.000000,4.000000,4.000000,4.000000,4.000000,4.000000,4.000000,4.000000,4.000000,4.000000,100.000000,,,,,,,,,,,,,,,,,24.000000,0.000000,0.707885,0.062195,-0.690125,0.136963,0.990844,-0.099622,0.035161,-41.223679,-16.055212,42.366741,,,,,,,,,,,,,,,,,,,,,,,,,,,,,,,,,,,,,,,,,,,,,,,,,,,,,,,,,,,,,,,,,,,,,,,,,,,,,,,,,,,,,,,,,,,,,,,,,,,,,
1742213694.951701,1742213694.953043,97.000000,0.000000,4250.256348,4221.538574,4279.230957,4263.846191,4222.563965,4193.333496,4184.743652,4187.820313,4167.692383,4164.102539,4591.282227,4463.717773,4235.256348,4509.743652,6377.000000,0.000000,6.000000,,,,0.000000,4.000000,4.000000,4.000000,4.000000,4.000000,4.000000,4.000000,4.000000,4.000000,4.000000,4.000000,4.000000,4.000000,4.000000,100.000000,,,,,,,,,,,,,,,,,,,,,,,,,,,,,,,,,,,,,,,,,,,,,,,,,,,,,,,,,,,,,,,,,,,,,,,,,,,,,,,,,,,,,,,,,,,,,,,,,,,,,,,,,,,,,,,,,,,,,,,,,,,,,,,,,
1742213694.959509,1742213694.960751,98.000000,0.000000,4247.436035,4216.538574,4264.487305,4250.384766,4216.922852,4170.897461,4171.025879,4181.282227,4190.641113,4166.282227,4589.871582,4459.102539,4231.794922,4497.820313,5794.000000,0.000000,6.000000,,,,0.000000,4.000000,4.000000,4.000000,4.000000,4.000000,4.000000,4.000000,4.000000,4.000000,4.000000,4.000000,4.000000,4.000000,4.000000,100.000000,,,,,,,,,,,,,,,,,,,,,,,,,,,,,,,,,,,,,,,,,,,,,,,,,,,,,,,,,,,,,,,,,,,,,,,,,,,,,,,,,,,,,,,,,,,,,,,,,,,,,,,,,,,,,,,,,,,,,,,,,,,,,,,,,
1742213694.967317,1742213694.968559,99.000000,0.000000,4242.307617,4220.128418,4267.307617,4247.692383,4210.256348,4183.333496,4177.692383,4182.436035,4187.307617,4187.820313,4589.487305,4451.538574,4239.487305,4492.051270,5873.000000,0.000000,6.000000,,,,0.000000,4.000000,4.000000,4.000000,4.000000,4.000000,4.000000,4.000000,4.000000,4.000000,4.000000,4.000000,4.000000,4.000000,4.000000,100.000000,,,,,,,,,,,,,,,,,,,,,,,,,,,,,,,,,,,,,,,,,,,,,,,,,,,,,,,,,,,,,,,,,,,,,,,,,,,,,,,,,,,,,,,,,,,,,,,,,,,,,,,,,,,,,,,,,,,,,,,,,,,,,,,,,
1742213694.975125,1742213694.976267,100.000000,0.000000,4248.461426,4235.897461,4286.410156,4265.128418,4223.846191,4209.487305,4205.384766,4201.410156,4193.974121,4182.179688,4601.025879,4467.948730,4248.974121,4507.948730,6543.000000,0.000000,6.000000,,,,0.000000,4.000000,4.000000,4.000000,4.000000,4.000000,4.000000,4.000000,4.000000,4.000000,4.000000,4.000000,4.000000,4.000000,4.000000,100.000000,,,,,,,,,,,,,,,,,25.000000,0.000000,0.707941,0.062378,-0.690002,0.137207,0.983030,-0.097668,0.053229,-41.117977,-16.016357,42.346733,,,,,,,,,,,,,,,,,,,,,,,,,,,,,,,,,,,,,,,,,,,,,,,,,,,,,,,,,,,,,,,,,,,,,,,,,,,,,,,,,,,,,,,,,,,,,,,,,,,,,
1742213694.982933,1742213694.984175,101.000000,0.000000,4246.282227,4233.077148,4284.230957,4264.615234,4220.769043,4191.538574,4196.666504,4199.871582,4198.846191,4159.230957,4594.102539,4470.512695,4235.128418,4506.025879,6377.000000,0.000000,6.000000,,,,0.000000,4.000000,4.000000,4.000000,4.000000,4.000000,4.000000,4.000000,4.000000,4.000000,4.000000,4.000000,4.000000,4.000000,4.000000,100.000000,,,,,,,,,,,,,,,,,,,,,,,,,,,,,,,,,,,,,,,,,,,,,,,,,,,,,,,,,,,,,,,,,,,,,,,,,,,,,,,,,,,,,,,,,,,,,,,,,,,,,,,,,,,,,,,,,,,,,,,,,,,,,,,,,
1742213694.990741,1742213694.991983,102.000000,0.000000,4246.153809,4231.794922,4280.769043,4263.846191,4210.128418,4185.641113,4188.589844,4193.717773,4188.205078,4183.974121,4595.256348,4468.461426,4241.153809,4508.333496,5794.000000,0.000000,6.000000,,,,0.000000,4.000000,4.000000,4.000000,4.000000,4.000000,4.000000,4.000000,4.000000,4.000000,4.000000,4.000000,4.000000,4.000000,4.000000,100.000000,,,,,,,,,,,,,,,,,,,,,,,,,,,,,,,,,,,,,,,,,,,,,,,,,,,,,,,,,,,,,,,,,,,,,,,,,,,,,,,,,,,,,,,,,,,,,,,,,,,,,,,,,,,,,,,,,,,,,,,,,,,,,,,,,
1742213694.998549,1742213694.999891,103.000000,0.000000,4258.333496,4247.820313,4291.410156,4278.205078,4217.307617,4206.794922,4204.102539,4198.717773,4189.871582,4221.538574,4617.948730,4482.563965,4271.538574,4529.102539,5873.000000,0.000000,6.000000,,,,0.000000,4.000000,4.000000,4.000000,4.000000,4.000000,4.000000,4.000000,4.000000,4.000000,4.000000,4.000000,4.000000,4.000000,4.000000,100.000000,,,,,,,,,,,,,,,,,,,,,,,,,,,,,,,,,,,,,,,,,,,,,,,,,,,,,,,,,,,,,,,,,,,,,,,,,,,,,,,,,,,,,,,,,,,,,,,,,,,,,,,,,,,,,,,,,,,,,,,,,,,,,,,,,
1742213695.006357,1742213695.007700,104.000000,0.000000,4265.384766,4250.641113,4294.358887,4282.051270,4221.153809,4200.256348,4201.410156,4194.743652,4193.717773,4206.410156,4622.692383,4485.128418,4278.717773,4531.666504,6543.000000,0.000000,6.000000,,,,0.000000,4.000000,4.000000,4.000000,4.000000,4.000000,4.000000,4.000000,4.000000,4.000000,4.000000,4.000000,4.000000,4.000000,4.000000,100.000000,,,,,,,,,,,,,,,,,26.000000,0.000000,0.707923,0.062439,-0.690002,0.137268,0.990844,-0.093761,0.052741,-41.206181,-15.898056,42.212063,,,,,,,,,,,,,,,,,,,,,,,,,,,,,,,,,,,,,,,,,,,,,,,,,,,,,,,,,,,,,,,,,,,,,,,,,,,,,,,,,,,,,,,,,,,,,,,,,,,,,
1742213695.014166,1742213695.015608,105.000000,0.000000,4269.871582,4246.410156,4293.974121,4282.563965,4217.179688,4187.820313,4195.384766,4192.436035,4185.384766,4186.922852,4623.846191,4484.487305,4279.358887,4527.563965,6377.000000,0.000000,6.000000,,,,0.000000,4.000000,4.000000,4.000000,4.000000,4.000000,4.000000,4.000000,4.000000,4.000000,4.000000,4.000000,4.000000,4.000000,4.000000,100.000000,,,,,,,,,,,,,,,,,,,,,,,,,,,,,,,,,,,,,,,,,,,,,,,,,,,,,,,,,,,,,,,,,,,,,,,,,,,,,,,,,,,,,,,,,,,,,,,,,,,,,,,,,,,,,,,,,,,,,,,,,,,,,,,,,
1742213695.021973,1742213695.023416,106.000000,0.000000,4269.615234,4245.641113,4292.179688,4281.794922,4217.563965,4194.743652,4201.538574,4198.717773,4188.077148,4196.666504,4634.358887,4490.897461,4291.025879,4533.974121,5794.000000,0.000000,6.000000,,,,0.000000,4.000000,4.000000,4.000000,4.000000,4.000000,4.000000,4.000000,4.000000,4.000000,4.000000,4.000000,4.000000,4.000000,4.000000,100.000000,,,,,,,,,,,,,,,,,,,,,,,,,,,,,,,,,,,,,,,,,,,,,,,,,,,,,,,,,,,,,,,,,,,,,,,,,,,,,,,,,,,,,,,,,,,,,,,,,,,,,,,,,,,,,,,,,,,,,,,,,,,,,,,,,
1742213695.029782,1742213695.031224,107.000000,0.000000,4256.666504,4235.384766,4281.538574,4267.307617,4218.205078,4204.871582,4200.000000,4205.769043,4225.769043,4200.897461,4627.948730,4483.077148,4287.307617,4524.358887,5873.000000,0.000000,6.000000,,,,0.000000,4.000000,4.000000,4.000000,4.000000,4.000000,4.000000,4.000000,4.000000,4.000000,4.000000,4.000000,4.000000,4.000000,4.000000,100.000000,,,,,,,,,,,,,,,,,,,,,,,,,,,,,,,,,,,,,,,,,,,,,,,,,,,,,,,,,,,,,,,,,,,,,,,,,,,,,,,,,,,,,,,,,,,,,,,,,,,,,,,,,,,,,,,,,,,,,,,,,,,,,,,,,
1742213695.037590,1742213695.038932,108.000000,0.000000,4257.692383,4236.025879,4281.538574,4266.922852,4217.051270,4204.487305,4199.358887,4216.666504,4252.179688,4208.717773,4622.820313,4480.128418,4284.487305,4518.077148,6543.000000,0.000000,6.000000,,,,0.000000,4.000000,4.000000,4.000000,4.000000,4.000000,4.000000,4.000000,4.000000,4.000000,4.000000,4.000000,4.000000,4.000000,4.000000,100.000000,,,,,,,,,,,,,,,,,27.000000,0.000000,0.708019,0.062439,-0.689880,0.137390,0.991332,-0.108412,0.051764,-41.185562,-15.958250,42.257523,,,,,,,,,,,,,,,,,,,,,,,,,,,,,,,,,,,,,,,,,,,,,,,,,,,,,,,,,,,,,,,,,,,,,,,,,,,,,,,,,,,,,,,,,,,,,,,,,,,,,
1742213695.045398,1742213695.046740,109.000000,0.000000,4272.948730,4250.384766,4292.179688,4282.563965,4214.102539,4185.000000,4202.307617,4222.307617,4219.230957,4217.179688,4633.717773,4494.743652,4299.358887,4532.179688,6377.000000,0.000000,6.000000,,,,0.000000,4.000000,4.000000,4.000000,4.000000,4.000000,4.000000,4.000000,4.000000,4.000000,4.000000,4.000000,4.000000,4.000000,4.000000,100.000000,,,,,,,,,,,,,,,,,,,,,,,,,,,,,,,,,,,,,,,,,,,,,,,,,,,,,,,,,,,,,,,,,,,,,,,,,,,,,,,,,,,,,,,,,,,,,,,,,,,,,,,,,,,,,,,,,,,,,,,,,,,,,,,,,
1742213695.053206,1742213695.054448,110.000000,0.000000,4268.333496,4246.794922,4287.179688,4281.538574,4214.230957,4181.282227,4204.230957,4200.256348,4161.794922,4189.615234,4623.461426,4485.641113,4295.897461,4528.461426,5794.000000,0.000000,6.000000,,,,0.000000,4.000000,4.000000,4.000000,4.000000,4.000000,4.000000,4.000000,4.000000,4.000000,4.000000,4.000000,4.000000,4.000000,4.000000,100.000000,,,,,,,,,,,,,,,,,,,,,,,,,,,,,,,,,,,,,,,,,,,,,,,,,,,,,,,,,,,,3.582951,1.203156,1.095220,1.026889,0.722939,5.377203,1.338422,1.342555,1.045992,0.744926,3.363576,1.384090,0.758461,0.808325,0.613104,1.329326,0.993747,1.075433,1.327365,0.929407,0.620594,0.197038,0.583965,0.427245,0.459997,2.574395,0.724320,0.848189,1.858269,2.064506,3.214745,1.620891,0.984094,1.359475,1.247705,1.989443,1.177702,1.717072,1.977778,1.773062,2.841732,2.103456,2.050827,7.546656,8.142106,8.033872,2.344701,4.249548,4.808922,3.295124,3.452305,1.079111,1.272565,1.497085,1.577685,3.812986,1.411652,1.149694,1.672579,1.470227,6.078895,1.737368,1.928401,1.314499,1.293618,1.938618,1.791701,1.418295,1.345652,1.062057
1742213695.061014,1742213695.062356,111.000000,0.000000,4258.077148,4237.820313,4278.717773,4280.000000,4225.769043,4212.307617,4216.025879,4186.666504,4168.333496,4166.922852,4606.410156,4470.897461,4280.000000,4518.205078,5873.000000,0.000000,6.000000,,,,0.000000,4.000000,4.000000,4.000000,4.000000,4.000000,4.000000,4.000000,4.000000,4.000000,4.000000,4.000000,4.000000,4.000000,4.000000,100.000000,,,,,,,,,,,,,,,,,,,,,,,,,,,,,,,,,,,,,,,,,,,,,,,,,,,,,,,,,,,,,,,,,,,,,,,,,,,,,,,,,,,,,,,,,,,,,,,,,,,,,,,,,,,,,,,,,,,,,,,,,,,,,,,,,
1742213695.068822,1742213695.070164,112.000000,0.000000,4258.974121,4238.205078,4277.820313,4281.282227,4224.102539,4213.205078,4209.487305,4202.692383,4218.846191,4173.589844,4614.487305,4480.384766,4277.820313,4523.333496,6543.000000,0.000000,6.000000,,,,0.000000,4.000000,4.000000,4.000000,4.000000,4.000000,4.000000,4.000000,4.000000,4.000000,4.000000,4.000000,4.000000,4.000000,4.000000,100.000000,,,,,,,,,,,,,,,,,28.000000,0.000000,0.708043,0.062439,-0.689819,0.137573,0.994262,-0.101087,0.047857,-41.200340,-16.079092,42.365105,,,,,,,,,,,,,,,,,,,,,,,,,,,,,,,,,,,,,,,,,,,,,,,,,,,,,,,,,,,,,,,,,,,,,,,,,,,,,,,,,,,,,,,,,,,,,,,,,,,,,
1742213695.076630,1742213695.077972,113.000000,0.000000,4251.410156,4230.641113,4272.179688,4267.051270,4205.641113,4178.589844,4184.743652,4203.846191,4217.563965,4181.794922,4617.179688,4478.205078,4276.922852,4514.615234,6377.000000,0.000000,6.000000,,,,0.000000,4.000000,4.000000,4.000000,4.000000,4.000000,4.000000,4.000000,4.000000,4.000000,4.000000,4.000000,4.000000,4.000000,4.000000,100.000000,,,,,,,,,,,,,,,,,,,,,,,,,,,,,,,,,,,,,,,,,,,,,,,,,,,,,,,,,,,,,,,,,,,,,,,,,,,,,,,,,,,,,,,,,,,,,,,,,,,,,,,,,,,,,,,,,,,,,,,,,,,,,,,,,
1742213695.084438,1742213695.085680,114.000000,0.000000,4242.563965,4226.922852,4268.589844,4263.846191,4207.179688,4181.025879,4189.743652,4197.692383,4204.871582,4200.128418,4610.384766,4468.589844,4278.461426,4503.846191,5794.000000,0.000000,6.000000,,,,0.000000,4.000000,4.000000,4.000000,4.000000,4.000000,4.000000,4.000000,4.000000,4.000000,4.000000,4.000000,4.000000,4.000000,4.000000,100.000000,,,,,,,,,,,,,,,,,,,,,,,,,,,,,,,,,,,,,,,,,,,,,,,,,,,,,,,,,,,,,,,,,,,,,,,,,,,,,,,,,,,,,,,,,,,,,,,,,,,,,,,,,,,,,,,,,,,,,,,,,,,,,,,,,
1742213695.092246,1742213695.093588,115.000000,0.000000,4251.153809,4242.307617,4274.871582,4286.538574,4221.538574,4206.922852,4210.128418,4205.641113,4221.410156,4222.179688,4618.589844,4475.128418,4293.205078,4517.307617,5873.000000,0.000000,6.000000,,,,0.000000,4.000000,4.000000,4.000000,4.000000,4.000000,4.000000,4.000000,4.000000,4.000000,4.000000,4.000000,4.000000,4.000000,4.000000,100.000000,,,,,,,,,,,,,,,,,,,,,,,,,,,,,,,,,,,,,,,,,,,,,,,,,,,,,,,,,,,,,,,,,,,,,,,,,,,,,,,,,,,,,,,,,,,,,,,,,,,,,,,,,,,,,,,,,,,,,,,,,,,,,,,,,
1742213695.100054,1742213695.101396,116.000000,0.000000,4260.128418,4250.769043,4277.563965,4293.461426,4222.692383,4203.333496,4206.153809,4202.436035,4209.743652,4212.051270,4623.461426,4478.205078,4297.436035,4525.512695,6543.000000,0.000000,6.000000,,,,0.000000,4.000000,4.000000,4.000000,4.000000,4.000000,4.000000,4.000000,4.000000,4.000000,4.000000,4.000000,4.000000,4.000000,4.000000,100.000000,,,,,,,,,,,,,,,,,29.000000,0.000000,0.708152,0.062683,-0.689636,0.137817,0.987425,-0.095226,0.048346,-41.246971,-16.071182,42.545258,,,,,,,,,,,,,,,,,,,,,,,,,,,,,,,,,,,,,,,,,,,,,,,,,,,,,,,,,,,,,,,,,,,,,,,,,,,,,,,,,,,,,,,,,,,,,,,,,,,,,
1742213695.107863,1742213695.109304,117.000000,0.000000,4256.666504,4237.948730,4274.358887,4279.230957,4214.102539,4187.948730,4195.769043,4191.153809,4178.461426,4185.384766,4611.153809,4470.641113,4284.615234,4513.974121,6377.000000,0.000000,6.000000,,,,0.000000,4.000000,4.000000,4.000000,4.000000,4.000000,4.000000,4.000000,4.000000,4.000000,4.000000,4.000000,4.000000,4.000000,4.000000,100.000000,,,,,,,,,,,,,,,,,,,,,,,,,,,,,,,,,,,,,,,,,,,,,,,,,,,,,,,,,,,,,,,,,,,,,,,,,,,,,,,,,,,,,,,,,,,,,,,,,,,,,,,,,,,,,,,,,,,,,,,,,,,,,,,,,
1742213695.115671,1742213695.117112,118.000000,0.000000,4250.641113,4226.666504,4270.000000,4276.025879,4207.820313,4192.563965,4198.205078,4191.666504,4183.846191,4169.871582,4601.153809,4464.871582,4275.641113,4504.487305,5794.000000,0.000000,6.000000,,,,0.000000,4.000000,4.000000,4.000000,4.000000,4.000000,4.000000,4.000000,4.000000,4.000000,4.000000,4.000000,4.000000,4.000000,4.000000,100.000000,,,,,,,,,,,,,,,,,,,,,,,,,,,,,,,,,,,,,,,,,,,,,,,,,,,,,,,,,,,,,,,,,,,,,,,,,,,,,,,,,,,,,,,,,,,,,,,,,,,,,,,,,,,,,,,,,,,,,,,,,,,,,,,,,
1742213695.123479,1742213695.125020,119.000000,0.000000,4244.230957,4232.563965,4267.563965,4275.769043,4207.692383,4205.512695,4200.512695,4193.333496,4194.487305,4163.717773,4601.153809,4461.282227,4278.717773,4499.871582,5873.000000,0.000000,6.000000,,,,0.000000,4.000000,4.000000,4.000000,4.000000,4.000000,4.000000,4.000000,4.000000,4.000000,4.000000,4.000000,4.000000,4.000000,4.000000,100.000000,,,,,,,,,,,,,,,,,,,,,,,,,,,,,,,,,,,,,,,,,,,,,,,,,,,,,,,,,,,,,,,,,,,,,,,,,,,,,,,,,,,,,,,,,,,,,,,,,,,,,,,,,,,,,,,,,,,,,,,,,,,,,,,,,
1742213695.131287,1742213695.132828,120.000000,0.000000,4235.512695,4234.230957,4265.512695,4265.384766,4211.794922,4200.769043,4197.307617,4190.128418,4186.666504,4167.820313,4602.436035,4456.282227,4283.333496,4496.025879,6543.000000,0.000000,6.000000,,,,0.000000,4.000000,4.000000,4.000000,4.000000,4.000000,4.000000,4.000000,4.000000,4.000000,4.000000,4.000000,4.000000,4.000000,4.000000,100.000000,,,,,,,,,,,,,,,,,30.000000,0.000000,0.708207,0.062866,-0.689514,0.138062,1.006959,-0.102063,0.042974,-41.222275,-16.080730,42.590733,,,,,,,,,,,,,,,,,,,,,,,,,,,,,,,,,,,,,,,,,,,,,,,,,,,,,,,,,,,,,,,,,,,,,,,,,,,,,,,,,,,,,,,,,,,,,,,,,,,,,
1742213695.139095,1742213695.140735,121.000000,0.000000,4235.384766,4229.743652,4265.641113,4266.282227,4216.410156,4185.769043,4199.230957,4199.487305,4201.025879,4176.922852,4609.871582,4462.307617,4290.897461,4502.692383,6377.000000,0.000000,6.000000,,,,0.000000,4.000000,4.000000,4.000000,4.000000,4.000000,4.000000,4.000000,4.000000,4.000000,4.000000,4.000000,4.000000,4.000000,4.000000,100.000000,,,,,,,,,,,,,,,,,,,,,,,,,,,,,,,,,,,,,,,,,,,,,,,,,,,,,,,,,,,,,,,,,,,,,,,,,,,,,,,,,,,,,,,,,,,,,,,,,,,,,,,,,,,,,,,,,,,,,,,,,,,,,,,,,
1742213695.146903,1742213695.148543,122.000000,0.000000,4247.692383,4243.077148,4271.410156,4282.436035,4214.358887,4200.641113,4212.179688,4208.205078,4204.358887,4181.538574,4622.051270,4476.922852,4302.179688,4515.384766,5794.000000,0.000000,6.000000,,,,0.000000,4.000000,4.000000,4.000000,4.000000,4.000000,4.000000,4.000000,4.000000,4.000000,4.000000,4.000000,4.000000,4.000000,4.000000,100.000000,,,,,,,,,,,,,,,,,,,,,,,,,,,,,,,,,,,,,,,,,,,,,,,,,,,,,,,,,,,,,,,,,,,,,,,,,,,,,,,,,,,,,,,,,,,,,,,,,,,,,,,,,,,,,,,,,,,,,,,,,,,,,,,,,
1742213695.154711,1742213695.156251,123.000000,0.000000,4251.282227,4248.974121,4273.846191,4284.871582,4204.230957,4211.666504,4214.615234,4203.846191,4193.205078,4185.769043,4615.897461,4474.487305,4299.871582,4515.128418,5873.000000,0.000000,6.000000,,,,0.000000,4.000000,4.000000,4.000000,4.000000,4.000000,4.000000,4.000000,4.000000,4.000000,4.000000,4.000000,4.000000,4.000000,4.000000,100.000000,,,,,,,,,,,,,,,,,,,,,,,,,,,,,,,,,,,,,,,,,,,,,,,,,,,,,,,,,,,,,,,,,,,,,,,,,,,,,,,,,,,,,,,,,,,,,,,,,,,,,,,,,,,,,,,,,,,,,,,,,,,,,,,,,
1742213695.162519,1742213695.164059,124.000000,0.000000,4242.179688,4235.897461,4270.384766,4273.077148,4199.743652,4185.384766,4198.205078,4202.692383,4215.897461,4194.230957,4601.922852,4462.436035,4291.282227,4505.512695,6543.000000,0.000000,6.000000,,,,0.000000,4.000000,4.000000,4.000000,4.000000,4.000000,4.000000,4.000000,4.000000,4.000000,4.000000,4.000000,4.000000,4.000000,4.000000,100.000000,,,,,,,,,,,,,,,,,31.000000,0.000000,0.708198,0.063232,-0.689453,0.138245,0.997192,-0.078623,0.040044,-41.383381,-16.122658,42.548328,,,,,,,,,,,,,,,,,,,,,,,,,,,,,,,,,,,,,,,,,,,,,,,,,,,,,,,,,,,,,,,,,,,,,,,,,,,,,,,,,,,,,,,,,,,,,,,,,,,,,
1742213695.170327,1742213695.171768,125.000000,0.000000,4242.179688,4238.974121,4271.282227,4276.922852,4212.307617,4189.871582,4196.794922,4199.230957,4206.794922,4187.307617,4601.025879,4460.384766,4292.820313,4500.256348,6377.000000,0.000000,6.000000,,,,0.000000,4.000000,4.000000,4.000000,4.000000,4.000000,4.000000,4.000000,4.000000,4.000000,4.000000,4.000000,4.000000,4.000000,4.000000,100.000000,,,,,,,,,,,,,,,,,,,,,,,,,,,,,,,,,,,,,,,,,,,,,,,,,,,,,,,,,,,,,,,,,,,,,,,,,,,,,,,,,,,,,,,,,,,,,,,,,,,,,,,,,,,,,,,,,,,,,,,,,,,,,,,,,
1742213695.178136,1742213695.179575,126.000000,0.000000,4242.563965,4248.077148,4266.410156,4280.256348,4220.769043,4220.384766,4206.922852,4182.307617,4136.666504,4147.563965,4592.436035,4450.128418,4287.436035,4494.871582,5794.000000,0.000000,6.000000,,,,0.000000,4.000000,4.000000,4.000000,4.000000,4.000000,4.000000,4.000000,4.000000,4.000000,4.000000,4.000000,4.000000,4.000000,4.000000,100.000000,,,,,,,,,,,,,,,,,,,,,,,,,,,,,,,,,,,,,,,,,,,,,,,,,,,,,,,,,,,,3.925763,0.866525,1.126262,1.031203,0.817672,4.752748,1.106983,1.211482,1.065449,0.863678,3.360193,1.021651,0.786569,0.833610,0.672129,1.178020,0.764432,1.023459,1.346331,1.118949,0.601305,0.176960,0.495976,0.474043,0.517012,2.808190,0.720874,0.843892,1.765214,2.288031,3.228544,1.518247,1.074937,1.219966,1.400752,1.863581,1.117251,1.863846,1.680111,1.814242,3.367001,2.230655,1.801519,7.377572,8.296500,7.542385,2.407317,3.982441,5.022913,3.573687,3.517040,1.080783,1.383219,1.488142,1.717678,4.210660,1.200155,1.277544,1.605462,1.625401,6.324470,1.877006,2.006154,1.355076,1.415196,1.811949,1.303784,1.529834,1.348927,1.216180
1742213695.185943,1742213695.187284,127.000000,0.000000,4231.410156,4241.410156,4257.179688,4271.538574,4209.615234,4211.666504,4200.384766,4178.589844,4142.436035,4127.948730,4582.179688,4437.051270,4278.974121,4490.000000,6.000000,0.000000,6.000000,,,,0.000000,4.000000,4.000000,4.000000,4.000000,4.000000,4.000000,4.000000,4.000000,4.000000,4.000000,4.000000,4.000000,4.000000,4.000000,100.000000,,,,,,,,,,,,,,,,,,,,,,,,,,,,,,,,,,,,,,,,,,,,,,,,,,,,,,,,,,,,,,,,,,,,,,,,,,,,,,,,,,,,,,,,,,,,,,,,,,,,,,,,,,,,,,,,,,,,,,,,,,,,,,,,,
1742213695.193752,1742213695.195092,0.000000,0.000000,4230.641113,4242.179688,4263.333496,4271.153809,4200.512695,4191.153809,4192.692383,4190.384766,4219.871582,4158.077148,4591.794922,4450.769043,4285.000000,4492.179688,4300.000000,0.000000,6.000000,,,,0.000000,4.000000,4.000000,4.000000,4.000000,4.000000,4.000000,4.000000,4.000000,4.000000,4.000000,4.000000,4.000000,4.000000,4.000000,100.000000,,,,,,,,,,,,,,,,,0.000000,0.000000,0.708294,0.063354,-0.689331,0.138306,0.971798,-0.099133,0.053717,-41.478374,-16.210392,42.510162,,,,,,,,,,,,,,,,,,,,,,,,,,,,,,,,,,,,,,,,,,,,,,,,,,,,,,,,,,,,,,,,,,,,,,,,,,,,,,,,,,,,,,,,,,,,,,,,,,,,,
1742213695.201560,1742213695.202800,1.000000,0.000000,4241.538574,4250.384766,4272.436035,4279.230957,4207.307617,4196.666504,4199.743652,4188.974121,4206.666504,4171.538574,4598.589844,4460.641113,4288.461426,4496.410156,5168.000000,0.000000,6.000000,,,,0.000000,4.000000,4.000000,4.000000,4.000000,4.000000,4.000000,4.000000,4.000000,4.000000,4.000000,4.000000,4.000000,4.000000,4.000000,100.000000,,,,,,,,,,,,,,,,,,,,,,,,,,,,,,,,,,,,,,,,,,,,,,,,,,,,,,,,,,,,,,,,,,,,,,,,,,,,,,,,,,,,,,,,,,,,,,,,,,,,,,,,,,,,,,,,,,,,,,,,,,,,,,,,,
1742213695.209368,1742213695.210608,2.000000,0.000000,4239.358887,4238.205078,4263.974121,4277.179688,4218.846191,4200.897461,4203.589844,4178.846191,4141.282227,4149.102539,4586.153809,4445.512695,4282.179688,4492.820313,4741.000000,0.000000,6.000000,,,,0.000000,4.000000,4.000000,4.000000,4.000000,4.000000,4.000000,4.000000,4.000000,4.000000,4.000000,4.000000,4.000000,4.000000,4.000000,100.000000,,,,,,,,,,,,,,,,,,,,,,,,,,,,,,,,,,,,,,,,,,,,,,,,,,,,,,,,,,,,,,,,,,,,,,,,,,,,,,,,,,,,,,,,,,,,,,,,,,,,,,,,,,,,,,,,,,,,,,,,,,,,,,,,,
1742213695.217176,1742213695.218316,3.000000,0.000000,4235.256348,4227.948730,4261.025879,4273.461426,4217.948730,4194.487305,4196.282227,4182.307617,4151.025879,4146.666504,4582.436035,4445.512695,4286.282227,4490.128418,5103.000000,0.000000,6.000000,,,,0.000000,4.000000,4.000000,4.000000,4.000000,4.000000,4.000000,4.000000,4.000000,4.000000,4.000000,4.000000,4.000000,4.000000,4.000000,100.000000,,,,,,,,,,,,,,,,,,,,,,,,,,,,,,,,,,,,,,,,,,,,,,,,,,,,,,,,,,,,,,,,,,,,,,,,,,,,,,,,,,,,,,,,,,,,,,,,,,,,,,,,,,,,,,,,,,,,,,,,,,,,,,,,,
1742213695.224984,1742213695.226124,4.000000,0.000000,4246.282227,4231.282227,4271.666504,4278.974121,4213.333496,4195.128418,4194.743652,4191.794922,4183.974121,4165.000000,4593.846191,4460.384766,4296.410156,4494.743652,2025.000000,0.000000,6.000000,,,,0.000000,4.000000,4.000000,4.000000,4.000000,4.000000,4.000000,4.000000,4.000000,4.000000,4.000000,4.000000,4.000000,4.000000,4.000000,100.000000,,,,,,,,,,,,,,,,,1.000000,0.000000,0.708656,0.063293,-0.688965,0.138306,0.990844,-0.090343,0.053229,-41.430538,-16.156019,42.442478,,,,,,,,,,,,,,,,,,,,,,,,,,,,,,,,,,,,,,,,,,,,,,,,,,,,,,,,,,,,,,,,,,,,,,,,,,,,,,,,,,,,,,,,,,,,,,,,,,,,,
1742213695.232792,1742213695.233832,5.000000,0.000000,4253.077148,4228.077148,4276.025879,4284.487305,4219.743652,4203.974121,4209.743652,4199.102539,4187.563965,4170.641113,4601.538574,4463.846191,4308.846191,4503.974121,4858.000000,0.000000,6.000000,,,,0.000000,4.000000,4.000000,4.000000,4.000000,4.000000,4.000000,4.000000,4.000000,4.000000,4.000000,4.000000,4.000000,4.000000,4.000000,100.000000,,,,,,,,,,,,,,,,,,,,,,,,,,,,,,,,,,,,,,,,,,,,,,,,,,,,,,,,,,,,,,,,,,,,,,,,,,,,,,,,,,,,,,,,,,,,,,,,,,,,,,,,,,,,,,,,,,,,,,,,,,,,,,,,,
1742213695.240600,1742213695.241640,6.000000,0.000000,4247.820313,4214.487305,4274.615234,4282.051270,4218.846191,4218.461426,4220.769043,4204.230957,4197.436035,4168.974121,4604.358887,4465.769043,4324.615234,4507.563965,5161.000000,0.000000,6.000000,,,,0.000000,4.000000,4.000000,4.000000,4.000000,4.000000,4.000000,4.000000,4.000000,4.000000,4.000000,4.000000,4.000000,4.000000,4.000000,100.000000,,,,,,,,,,,,,,,,,,,,,,,,,,,,,,,,,,,,,,,,,,,,,,,,,,,,,,,,,,,,,,,,,,,,,,,,,,,,,,,,,,,,,,,,,,,,,,,,,,,,,,,,,,,,,,,,,,,,,,,,,,,,,,,,,
1742213695.248408,1742213695.249348,7.000000,0.000000,4246.666504,4201.794922,4277.820313,4274.615234,4209.487305,4213.974121,4212.948730,4200.384766,4197.820313,4168.461426,4604.743652,4471.025879,4329.743652,4506.025879,5302.000000,0.000000,6.000000,,,,0.000000,4.000000,4.000000,4.000000,4.000000,4.000000,4.000000,4.000000,4.000000,4.000000,4.000000,4.000000,4.000000,4.000000,4.000000,100.000000,,,,,,,,,,,,,,,,,,,,,,,,,,,,,,,,,,,,,,,,,,,,,,,,,,,,,,,,,,,,,,,,,,,,,,,,,,,,,,,,,,,,,,,,,,,,,,,,,,,,,,,,,,,,,,,,,,,,,,,,,,,,,,,,,
1742213695.256216,1742213695.257156,8.000000,0.000000,4260.128418,4211.025879,4288.717773,4282.820313,4221.153809,4206.153809,4215.512695,4194.487305,4178.717773,4175.641113,4613.333496,4478.461426,4339.358887,4514.871582,5287.000000,0.000000,6.000000,,,,0.000000,4.000000,4.000000,4.000000,4.000000,4.000000,4.000000,4.000000,4.000000,4.000000,4.000000,4.000000,4.000000,4.000000,4.000000,100.000000,,,,,,,,,,,,,,,,,2.000000,0.000000,0.708671,0.062988,-0.689026,0.138062,0.986449,-0.087413,0.058113,-41.454151,-16.340418,42.314896,,,,,,,,,,,,,,,,,,,,,,,,,,,,,,,,,,,,,,,,,,,,,,,,,,,,,,,,,,,,,,,,,,,,,,,,,,,,,,,,,,,,,,,,,,,,,,,,,,,,,
1742213695.264024,1742213695.264864,9.000000,0.000000,4272.563965,4225.512695,4297.307617,4301.025879,4233.974121,4226.922852,4236.153809,4199.871582,4195.256348,4196.922852,4630.769043,4490.641113,4359.102539,4532.307617,5721.000000,0.000000,6.000000,,,,0.000000,4.000000,4.000000,4.000000,4.000000,4.000000,4.000000,4.000000,4.000000,4.000000,4.000000,4.000000,4.000000,4.000000,4.000000,100.000000,,,,,,,,,,,,,,,,,,,,,,,,,,,,,,,,,,,,,,,,,,,,,,,,,,,,,,,,,,,,,,,,,,,,,,,,,,,,,,,,,,,,,,,,,,,,,,,,,,,,,,,,,,,,,,,,,,,,,,,,,,,,,,,,,
1742213695.271833,1742213695.272772,10.000000,0.000000,4261.153809,4206.282227,4285.769043,4287.307617,4214.615234,4222.436035,4226.666504,4205.000000,4216.538574,4204.487305,4626.538574,4486.666504,4355.000000,4526.922852,5784.000000,0.000000,6.000000,,,,0.000000,4.000000,4.000000,4.000000,4.000000,4.000000,4.000000,4.000000,4.000000,4.000000,4.000000,4.000000,4.000000,4.000000,4.000000,100.000000,,,,,,,,,,,,,,,,,,,,,,,,,,,,,,,,,,,,,,,,,,,,,,,,,,,,,,,,,,,,,,,,,,,,,,,,,,,,,,,,,,,,,,,,,,,,,,,,,,,,,,,,,,,,,,,,,,,,,,,,,,,,,,,,,
1742213695.279641,1742213695.280580,11.000000,0.000000,4243.974121,4178.974121,4266.666504,4258.077148,4200.769043,4183.333496,4196.538574,4199.743652,4198.205078,4191.153809,4605.897461,4468.589844,4338.077148,4506.025879,5865.000000,0.000000,6.000000,,,,0.000000,4.000000,4.000000,4.000000,4.000000,4.000000,4.000000,4.000000,4.000000,4.000000,4.000000,4.000000,4.000000,4.000000,4.000000,100.000000,,,,,,,,,,,,,,,,,,,,,,,,,,,,,,,,,,,,,,,,,,,,,,,,,,,,,,,,,,,,,,,,,,,,,,,,,,,,,,,,,,,,,,,,,,,,,,,,,,,,,,,,,,,,,,,,,,,,,,,,,,,,,,,,,
1742213695.287449,1742213695.288487,12.000000,0.000000,4252.692383,4181.025879,4270.641113,4258.974121,4214.230957,4188.717773,4201.922852,4203.717773,4205.256348,4195.000000,4609.743652,4476.282227,4342.563965,4509.743652,6526.000000,0.000000,6.000000,,,,0.000000,4.000000,4.000000,4.000000,4.000000,4.000000,4.000000,4.000000,4.000000,4.000000,4.000000,4.000000,4.000000,4.000000,4.000000,100.000000,,,,,,,,,,,,,,,,,3.000000,0.000000,0.708697,0.062561,-0.689026,0.138123,0.994262,-0.097180,0.043462,-41.325401,-16.239710,42.350075,,,,,,,,,,,,,,,,,,,,,,,,,,,,,,,,,,,,,,,,,,,,,,,,,,,,,,,,,,,,,,,,,,,,,,,,,,,,,,,,,,,,,,,,,,,,,,,,,,,,,
1742213695.295257,1742213695.296295,13.000000,0.000000,4265.512695,4188.077148,4285.769043,4272.179688,4223.205078,4222.179688,4222.692383,4218.717773,4231.538574,4208.846191,4624.615234,4493.589844,4355.256348,4525.641113,6367.000000,0.000000,6.000000,,,,0.000000,4.000000,4.000000,4.000000,4.000000,4.000000,4.000000,4.000000,4.000000,4.000000,4.000000,4.000000,4.000000,4.000000,4.000000,100.000000,,,,,,,,,,,,,,,,,,,,,,,,,,,,,,,,,,,,,,,,,,,,,,,,,,,,,,,,,,,,,,,,,,,,,,,,,,,,,,,,,,,,,,,,,,,,,,,,,,,,,,,,,,,,,,,,,,,,,,,,,,,,,,,,,
1742213695.303065,1742213695.304203,14.000000,0.000000,4264.230957,4186.666504,4287.948730,4276.282227,4220.512695,4221.922852,4219.358887,4214.102539,4213.461426,4202.179688,4623.461426,4492.307617,4354.615234,4526.666504,5784.000000,0.000000,6.000000,,,,0.000000,4.000000,4.000000,4.000000,4.000000,4.000000,4.000000,4.000000,4.000000,4.000000,4.000000,4.000000,4.000000,4.000000,4.000000,100.000000,,,,,,,,,,,,,,,,,,,,,,,,,,,,,,,,,,,,,,,,,,,,,,,,,,,,,,,,,,,,4.234107,0.647779,1.114093,0.979436,0.886948,4.136765,0.909724,1.062250,1.047166,0.964381,3.236945,0.737270,0.778491,0.808516,0.707204,1.064652,0.641879,1.002107,1.303592,1.261266,0.547373,0.156184,0.417269,0.495360,0.577897,2.854336,0.750049,0.881085,1.603219,2.459491,3.151287,1.500163,1.163843,1.089882,1.498494,1.894355,1.089532,1.819414,1.369669,1.825255,4.061471,2.342846,1.585673,7.093524,8.266912,7.396571,2.419791,3.381405,5.119159,3.808177,3.559613,1.066530,1.379032,1.397264,1.787663,4.791551,0.989119,1.339418,1.445209,1.727303,6.549122,1.925934,1.901244,1.349889,1.457633,1.826463,0.935381,1.546865,1.290787,1.328119
1742213695.310873,1742213695.312011,15.000000,0.000000,4264.487305,4187.820313,4284.615234,4278.461426,4222.948730,4212.307617,4212.179688,4199.615234,4186.282227,4196.025879,4621.282227,4489.102539,4348.589844,4523.333496,5865.000000,0.000000,6.000000,,,,0.000000,4.000000,4.000000,4.000000,4.000000,4.000000,4.000000,4.000000,4.000000,4.000000,4.000000,4.000000,4.000000,4.000000,4.000000,100.000000,,,,,,,,,,,,,,,,,,,,,,,,,,,,,,,,,,,,,,,,,,,,,,,,,,,,,,,,,,,,,,,,,,,,,,,,,,,,,,,,,,,,,,,,,,,,,,,,,,,,,,,,,,,,,,,,,,,,,,,,,,,,,,,,,
1742213695.318681,1742213695.319919,16.000000,0.000000,4260.769043,4184.743652,4281.410156,4270.512695,4219.871582,4207.820313,4212.051270,4205.000000,4194.615234,4199.230957,4625.512695,4489.102539,4350.512695,4521.410156,0.000000,0.000000,6.000000,,,,0.000000,4.000000,4.000000,4.000000,4.000000,4.000000,4.000000,4.000000,4.000000,4.000000,4.000000,4.000000,4.000000,4.000000,4.000000,100.000000,,,,,,,,,,,,,,,,,4.000000,0.000000,0.708706,0.062195,-0.689026,0.138245,1.010866,-0.098645,0.055183,-41.276196,-16.249071,42.315067,,,,,,,,,,,,,,,,,,,,,,,,,,,,,,,,,,,,,,,,,,,,,,,,,,,,,,,,,,,,,,,,,,,,,,,,,,,,,,,,,,,,,,,,,,,,,,,,,,,,,
1742213695.326489,1742213695.327727,17.000000,0.000000,4257.692383,4186.666504,4285.128418,4267.563965,4212.051270,4198.461426,4215.128418,4219.871582,4220.769043,4197.563965,4636.794922,4495.897461,4365.769043,4524.358887,0.000000,0.000000,6.000000,,,,0.000000,4.000000,4.000000,4.000000,4.000000,4.000000,4.000000,4.000000,4.000000,4.000000,4.000000,4.000000,4.000000,4.000000,4.000000,100.000000,,,,,,,,,,,,,,,,,,,,,,,,,,,,,,,,,,,,,,,,,,,,,,,,,,,,,,,,,,,,,,,,,,,,,,,,,,,,,,,,,,,,,,,,,,,,,,,,,,,,,,,,,,,,,,,,,,,,,,,,,,,,,,,,,
1742213695.334297,1742213695.335435,18.000000,0.000000,4272.948730,4201.410156,4300.256348,4287.436035,4224.230957,4213.461426,4229.615234,4221.153809,4241.153809,4206.922852,4655.000000,4510.641113,4383.077148,4539.615234,0.000000,0.000000,6.000000,,,,0.000000,4.000000,4.000000,4.000000,4.000000,4.000000,4.000000,4.000000,4.000000,4.000000,4.000000,4.000000,4.000000,4.000000,4.000000,100.000000,,,,,,,,,,,,,,,,,,,,,,,,,,,,,,,,,,,,,,,,,,,,,,,,,,,,,,,,,,,,,,,,,,,,,,,,,,,,,,,,,,,,,,,,,,,,,,,,,,,,,,,,,,,,,,,,,,,,,,,,,,,,,,,,,
1742213695.342105,1742213695.343243,19.000000,0.000000,4277.563965,4208.077148,4304.487305,4297.692383,4234.487305,4229.615234,4234.487305,4209.615234,4238.589844,4223.589844,4649.487305,4506.153809,4373.333496,4540.384766,0.000000,0.000000,6.000000,,,,0.000000,4.000000,4.000000,4.000000,4.000000,4.000000,4.000000,4.000000,4.000000,4.000000,4.000000,4.000000,4.000000,4.000000,4.000000,100.000000,,,,,,,,,,,,,,,,,,,,,,,,,,,,,,,,,,,,,,,,,,,,,,,,,,,,,,,,,,,,,,,,,,,,,,,,,,,,,,,,,,,,,,,,,,,,,,,,,,,,,,,,,,,,,,,,,,,,,,,,,,,,,,,,,
1742213695.349913,1742213695.350951,20.000000,0.000000,4257.436035,4202.948730,4292.948730,4278.974121,4222.820313,4209.487305,4219.871582,4201.794922,4203.333496,4209.487305,4617.436035,4482.051270,4347.820313,4518.077148,0.000000,0.000000,6.000000,,,,0.000000,4.000000,4.000000,4.000000,4.000000,4.000000,4.000000,4.000000,4.000000,4.000000,4.000000,4.000000,4.000000,4.000000,4.000000,100.000000,,,,,,,,,,,,,,,,,5.000000,0.000000,0.708586,0.062073,-0.689148,0.138306,1.001099,-0.090831,0.054206,-41.298576,-16.190830,42.466892,,,,,,,,,,,,,,,,,,,,,,,,,,,,,,,,,,,,,,,,,,,,,,,,,,,,,,,,,,,,,,,,,,,,,,,,,,,,,,,,,,,,,,,,,,,,,,,,,,,,,
1742213695.357721,1742213695.358759,21.000000,0.000000,4244.743652,4197.179688,4280.128418,4261.666504,4211.538574,4196.666504,4207.563965,4194.230957,4174.871582,4178.461426,4596.025879,4463.974121,4336.410156,4500.000000,0.000000,0.000000,6.000000,,,,0.000000,4.000000,4.000000,4.000000,4.000000,4.000000,4.000000,4.000000,4.000000,4.000000,4.000000,4.000000,4.000000,4.000000,4.000000,100.000000,,,,,,,,,,,,,,,,,,,,,,,,,,,,,,,,,,,,,,,,,,,,,,,,,,,,,,,,,,,,,,,,,,,,,,,,,,,,,,,,,,,,,,,,,,,,,,,,,,,,,,,,,,,,,,,,,,,,,,,,,,,,,,,,,
1742213695.365530,1742213695.366467,22.000000,0.000000,4252.307617,4199.487305,4277.436035,4270.769043,4215.256348,4214.102539,4212.820313,4189.743652,4181.410156,4182.692383,4597.820313,4462.563965,4344.871582,4499.102539,0.000000,0.000000,6.000000,,,,0.000000,4.000000,4.000000,4.000000,4.000000,4.000000,4.000000,4.000000,4.000000,4.000000,4.000000,4.000000,4.000000,4.000000,4.000000,100.000000,,,,,,,,,,,,,,,,,,,,,,,,,,,,,,,,,,,,,,,,,,,,,,,,,,,,,,,,,,,,,,,,,,,,,,,,,,,,,,,,,,,,,,,,,,,,,,,,,,,,,,,,,,,,,,,,,,,,,,,,,,,,,,,,,
1742213695.373338,1742213695.374275,23.000000,0.000000,4265.256348,4216.666504,4288.077148,4287.948730,4224.230957,4225.897461,4227.563965,4203.974121,4196.282227,4207.820313,4616.666504,4478.717773,4362.179688,4511.282227,0.000000,0.000000,6.000000,,,,0.000000,4.000000,4.000000,4.000000,4.000000,4.000000,4.000000,4.000000,4.000000,4.000000,4.000000,4.000000,4.000000,4.000000,4.000000,100.000000,,,,,,,,,,,,,,,,,,,,,,,,,,,,,,,,,,,,,,,,,,,,,,,,,,,,,,,,,,,,,,,,,,,,,,,,,,,,,,,,,,,,,,,,,,,,,,,,,,,,,,,,,,,,,,,,,,,,,,,,,,,,,,,,,
1742213695.381146,1742213695.381983,24.000000,0.000000,4264.487305,4222.820313,4290.897461,4283.589844,4225.512695,4217.563965,4226.153809,4216.410156,4208.205078,4202.820313,4627.436035,4490.256348,4367.179688,4516.282227,0.000000,0.000000,6.000000,,,,0.000000,4.000000,4.000000,4.000000,4.000000,4.000000,4.000000,4.000000,4.000000,4.000000,4.000000,4.000000,4.000000,4.000000,4.000000,100.000000,,,,,,,,,,,,,,,,,6.000000,0.000000,0.708282,0.062012,-0.689453,0.138367,0.990844,-0.081553,0.047857,-41.202053,-16.288414,42.386871,,,,,,,,,,,,,,,,,,,,,,,,,,,,,,,,,,,,,,,,,,,,,,,,,,,,,,,,,,,,,,,,,,,,,,,,,,,,,,,,,,,,,,,,,,,,,,,,,,,,,
1742213695.388954,1742213695.389791,25.000000,0.000000,4246.794922,4203.589844,4275.512695,4262.563965,4219.102539,4205.641113,4208.077148,4208.717773,4228.205078,4186.025879,4618.717773,4476.538574,4358.333496,4506.410156,0.000000,0.000000,6.000000,,,,0.000000,4.000000,4.000000,4.000000,4.000000,4.000000,4.000000,4.000000,4.000000,4.000000,4.000000,4.000000,4.000000,4.000000,4.000000,100.000000,,,,,,,,,,,,,,,,,,,,,,,,,,,,,,,,,,,,,,,,,,,,,,,,,,,,,,,,,,,,,,,,,,,,,,,,,,,,,,,,,,,,,,,,,,,,,,,,,,,,,,,,,,,,,,,,,,,,,,,,,,,,,,,,,
1742213695.396762,1742213695.397499,26.000000,0.000000,4231.794922,4192.051270,4264.358887,4251.410156,4214.358887,4193.461426,4192.436035,4201.153809,4231.153809,4189.487305,4611.282227,4463.461426,4352.179688,4498.717773,0.000000,0.000000,6.000000,,,,0.000000,4.000000,4.000000,4.000000,4.000000,4.000000,4.000000,4.000000,4.000000,4.000000,4.000000,4.000000,4.000000,4.000000,4.000000,100.000000,,,,,,,,,,,,,,,,,,,,,,,,,,,,,,,,,,,,,,,,,,,,,,,,,,,,,,,,,,,,,,,,,,,,,,,,,,,,,,,,,,,,,,,,,,,,,,,,,,,,,,,,,,,,,,,,,,,,,,,,,,,,,,,,,
1742213695.404570,1742213695.405407,27.000000,0.000000,4230.769043,4201.282227,4268.205078,4253.077148,4215.128418,4182.948730,4191.153809,4196.282227,4188.589844,4184.102539,4608.461426,4462.436035,4349.871582,4495.512695,0.000000,0.000000,6.000000,,,,0.000000,4.000000,4.000000,4.000000,4.000000,4.000000,4.000000,4.000000,4.000000,4.000000,4.000000,4.000000,4.000000,4.000000,4.000000,100.000000,,,,,,,,,,,,,,,,,,,,,,,,,,,,,,,,,,,,,,,,,,,,,,,,,,,,,,,,,,,,,,,,,,,,,,,,,,,,,,,,,,,,,,,,,,,,,,,,,,,,,,,,,,,,,,,,,,,,,,,,,,,,,,,,,
1742213695.412378,1742213695.413215,28.000000,0.000000,4233.461426,4210.128418,4269.102539,4256.538574,4214.871582,4189.743652,4194.871582,4181.153809,4158.589844,4166.153809,4596.794922,4457.307617,4342.179688,4489.230957,0.000000,0.000000,6.000000,,,,0.000000,4.000000,4.000000,4.000000,4.000000,4.000000,4.000000,4.000000,4.000000,4.000000,4.000000,4.000000,4.000000,4.000000,4.000000,100.000000,,,,,,,,,,,,,,,,,7.000000,0.000000,0.708276,0.061951,-0.689453,0.138428,0.988890,-0.107923,0.041997,-41.148514,-16.309574,42.364849,,,,,,,,,,,,,,,,,,,,,,,,,,,,,,,,,,,,,,,,,,,,,,,,,,,,,,,,,,,,,,,,,,,,,,,,,,,,,,,,,,,,,,,,,,,,,,,,,,,,,
1742213695.420186,1742213695.421123,29.000000,0.000000,4239.615234,4213.717773,4269.102539,4265.256348,4222.692383,4197.948730,4198.333496,4181.282227,4194.871582,4178.333496,4595.128418,4458.461426,4341.282227,4493.974121,0.000000,0.000000,6.000000,,,,0.000000,4.000000,4.000000,4.000000,4.000000,4.000000,4.000000,4.000000,4.000000,4.000000,4.000000,4.000000,4.000000,4.000000,4.000000,100.000000,,,,,,,,,,,,,,,,,,,,,,,,,,,,,,,,,,,,,,,,,,,,,,,,,,,,,,,,,,,,,,,,,,,,,,,,,,,,,,,,,,,,,,,,,,,,,,,,,,,,,,,,,,,,,,,,,,,,,,,,,,,,,,,,,
1742213695.427994,1742213695.428931,30.000000,0.000000,4250.897461,4222.563965,4276.410156,4274.358887,4230.000000,4200.384766,4211.282227,4188.589844,4211.794922,4190.384766,4607.436035,4469.871582,4349.358887,4509.615234,0.000000,0.000000,6.000000,,,,0.000000,4.000000,4.000000,4.000000,4.000000,4.000000,4.000000,4.000000,4.000000,4.000000,4.000000,4.000000,4.000000,4.000000,4.000000,100.000000,1.000000,25.000000,4.000000,4.000000,3.000000,4.000000,4.000000,3.000000,3.000000,3.000000,3.000000,1.000000,1.000000,3.000000,1.000000,4.000000,,,,,,,,,,,,,,,,,,,,,,,,,,,,,,,,,,,,,,,,,,,,4.646442,0.563025,1.061198,0.882333,0.910690,3.658891,0.764366,0.908824,0.987799,1.015463,3.283933,0.577709,0.741412,0.751278,0.708405,1.038860,0.620562,1.019441,1.215305,1.310865,0.460517,0.136494,0.357597,0.484540,0.633658,2.779053,0.798694,0.904225,1.386050,2.537673,3.152679,1.546130,1.207582,0.972824,1.515497,2.206948,1.052720,1.596133,1.096170,1.780465,5.033145,2.398464,1.396824,6.821954,8.067700,7.733960,2.298483,2.626441,4.987818,3.913873,4.293386,1.024429,1.255306,1.246473,1.755165,5.793859,0.843601,1.321801,1.225644,1.738473,8.492839,1.953520,1.630186,1.283471,1.396598,2.190474,0.747992,1.476316,1.182248,1.356858
1742213695.435802,1742213695.436839,31.000000,0.000000,4258.589844,4231.794922,4282.307617,4280.512695,4223.205078,4213.077148,4227.436035,4186.025879,4183.461426,4174.230957,4615.256348,4482.179688,4357.563965,4519.871582,0.000000,0.000000,6.000000,,,,0.000000,4.000000,4.000000,4.000000,4.000000,4.000000,4.000000,4.000000,4.000000,4.000000,4.000000,4.000000,4.000000,4.000000,4.000000,100.000000,,,,,,,,,,,,,,,,,,,,,,,,,,,,,,,,,,,,,,,,,,,,,,,,,,,,,,,,,,,,,,,,,,,,,,,,,,,,,,,,,,,,,,,,,,,,,,,,,,,,,,,,,,,,,,,,,,,,,,,,,,,,,,,,,
1742213695.443611,1742213695.444647,32.000000,0.000000,4266.153809,4237.051270,4287.307617,4285.897461,4221.025879,4221.282227,4227.563965,4195.000000,4191.922852,4180.384766,4625.641113,4493.974121,4373.333496,4530.128418,0.000000,0.000000,6.000000,,,,0.000000,4.000000,4.000000,4.000000,4.000000,4.000000,4.000000,4.000000,4.000000,4.000000,4.000000,4.000000,4.000000,4.000000,4.000000,100.000000,,,,,,,,,,,,,,,,,8.000000,0.000000,0.708293,0.061890,-0.689453,0.138367,0.986937,-0.112807,0.056159,-41.116997,-16.228617,42.411697,,,,,,,,,,,,,,,,,,,,,,,,,,,,,,,,,,,,,,,,,,,,,,,,,,,,,,,,,,,,,,,,,,,,,,,,,,,,,,,,,,,,,,,,,,,,,,,,,,,,,
1742213695.451419,1742213695.452555,33.000000,0.000000,4267.051270,4236.153809,4286.538574,4279.487305,4220.769043,4197.179688,4202.179688,4193.205078,4202.563965,4189.615234,4617.436035,4481.794922,4368.461426,4524.871582,0.000000,0.000000,6.000000,,,,0.000000,4.000000,4.000000,4.000000,4.000000,4.000000,4.000000,4.000000,4.000000,4.000000,4.000000,4.000000,4.000000,4.000000,4.000000,100.000000,,,,,,,,,,,,,,,,,,,,,,,,,,,,,,,,,,,,,,,,,,,,,,,,,,,,,,,,,,,,,,,,,,,,,,,,,,,,,,,,,,,,,,,,,,,,,,,,,,,,,,,,,,,,,,,,,,,,,,,,,,,,,,,,,
1742213695.459227,1742213695.460363,34.000000,0.000000,4260.384766,4230.512695,4280.384766,4271.794922,4214.358887,4177.051270,4186.025879,4169.358887,4162.820313,4164.487305,4590.128418,4458.974121,4343.717773,4505.000000,0.000000,0.000000,6.000000,,,,0.000000,4.000000,4.000000,4.000000,4.000000,4.000000,4.000000,4.000000,4.000000,4.000000,4.000000,4.000000,4.000000,4.000000,4.000000,100.000000,,,,,,,,,,,,,,,,,,,,,,,,,,,,,,,,,,,,,,,,,,,,,,,,,,,,,,,,,,,,,,,,,,,,,,,,,,,,,,,,,,,,,,,,,,,,,,,,,,,,,,,,,,,,,,,,,,,,,,,,,,,,,,,,,
1742213695.467035,1742213695.468271,35.000000,0.000000,4261.282227,4232.179688,4279.615234,4277.436035,4216.538574,4191.922852,4192.563965,4170.128418,4146.410156,4149.615234,4591.794922,4464.743652,4345.641113,4503.589844,0.000000,0.000000,6.000000,,,,0.000000,4.000000,4.000000,4.000000,4.000000,4.000000,4.000000,4.000000,4.000000,4.000000,4.000000,4.000000,4.000000,4.000000,4.000000,100.000000,,,,,,,,,,,,,,,,,,,,,,,,,,,,,,,,,,,,,,,,,,,,,,,,,,,,,,,,,,,,,,,,,,,,,,,,,,,,,,,,,,,,,,,,,,,,,,,,,,,,,,,,,,,,,,,,,,,,,,,,,,,,,,,,,
1742213695.474843,1742213695.476079,36.000000,0.000000,4266.282227,4240.256348,4283.846191,4281.666504,4224.615234,4201.922852,4197.563965,4193.974121,4177.948730,4160.897461,4611.410156,4478.333496,4365.128418,4514.743652,0.000000,0.000000,6.000000,,,,0.000000,4.000000,4.000000,4.000000,4.000000,4.000000,4.000000,4.000000,4.000000,4.000000,4.000000,4.000000,4.000000,4.000000,4.000000,100.000000,,,,,,,,,,,,,,,,,9.000000,0.000000,0.708341,0.061890,-0.689514,0.137817,0.988890,-0.094738,0.045904,-41.071964,-16.172421,42.437195,,,,,,,,,,,,,,,,,,,,,,,,,,,,,,,,,,,,,,,,,,,,,,,,,,,,,,,,,,,,,,,,,,,,,,,,,,,,,,,,,,,,,,,,,,,,,,,,,,,,,
1742213695.482651,1742213695.483986,37.000000,0.000000,4267.563965,4246.410156,4285.384766,4279.230957,4225.128418,4198.461426,4198.589844,4202.051270,4195.128418,4174.358887,4613.974121,4478.589844,4372.179688,4518.846191,0.000000,0.000000,6.000000,,,,0.000000,4.000000,4.000000,4.000000,4.000000,4.000000,4.000000,4.000000,4.000000,4.000000,4.000000,4.000000,4.000000,4.000000,4.000000,100.000000,,,,,,,,,,,,,,,,,,,,,,,,,,,,,,,,,,,,,,,,,,,,,,,,,,,,,,,,,,,,,,,,,,,,,,,,,,,,,,,,,,,,,,,,,,,,,,,,,,,,,,,,,,,,,,,,,,,,,,,,,,,,,,,,,
1742213695.490459,1742213695.491794,38.000000,0.000000,4275.641113,4248.846191,4289.230957,4288.846191,4221.922852,4206.025879,4202.692383,4206.153809,4206.410156,4195.641113,4620.641113,4488.077148,4379.871582,4528.974121,0.000000,0.000000,6.000000,,,,0.000000,4.000000,4.000000,4.000000,4.000000,4.000000,4.000000,4.000000,4.000000,4.000000,4.000000,4.000000,4.000000,4.000000,4.000000,100.000000,,,,,,,,,,,,,,,,,,,,,,,,,,,,,,,,,,,,,,,,,,,,,,,,,,,,,,,,,,,,,,,,,,,,,,,,,,,,,,,,,,,,,,,,,,,,,,,,,,,,,,,,,,,,,,,,,,,,,,,,,,,,,,,,,
1742213695.498267,1742213695.499702,39.000000,0.000000,4282.051270,4251.922852,4297.820313,4300.769043,4220.512695,4219.743652,4207.179688,4214.871582,4217.179688,4206.025879,4636.666504,4498.974121,4390.384766,4536.794922,0.000000,0.000000,6.000000,,,,0.000000,4.000000,4.000000,4.000000,4.000000,4.000000,4.000000,4.000000,4.000000,4.000000,4.000000,4.000000,4.000000,4.000000,4.000000,100.000000,,,,,,,,,,,,,,,,,,,,,,,,,,,,,,,,,,,,,,,,,,,,,,,,,,,,,,,,,,,,,,,,,,,,,,,,,,,,,,,,,,,,,,,,,,,,,,,,,,,,,,,,,,,,,,,,,,,,,,,,,,,,,,,,,
1742213695.506075,1742213695.507510,40.000000,0.000000,4270.897461,4250.384766,4294.230957,4293.846191,4217.051270,4214.230957,4203.717773,4211.153809,4202.820313,4190.641113,4629.871582,4488.974121,4382.307617,4525.000000,0.000000,0.000000,6.000000,,,,0.000000,4.000000,4.000000,4.000000,4.000000,4.000000,4.000000,4.000000,4.000000,4.000000,4.000000,4.000000,4.000000,4.000000,4.000000,100.000000,,,,,,,,,,,,,,,,,10.000000,0.000000,0.708464,0.061829,-0.689514,0.137207,0.979123,-0.093761,0.041997,-41.048100,-16.238512,42.526810,,,,,,,,,,,,,,,,,,,,,,,,,,,,,,,,,,,,,,,,,,,,,,,,,,,,,,,,,,,,,,,,,,,,,,,,,,,,,,,,,,,,,,,,,,,,,,,,,,,,,
1742213695.513883,1742213695.515218,41.000000,0.000000,4266.410156,4248.589844,4289.743652,4289.487305,4222.563965,4201.794922,4200.384766,4206.666504,4204.487305,4196.666504,4625.256348,4485.769043,4384.487305,4525.128418,0.000000,0.000000,6.000000,,,,0.000000,4.000000,4.000000,4.000000,4.000000,4.000000,4.000000,4.000000,4.000000,4.000000,4.000000,4.000000,4.000000,4.000000,4.000000,100.000000,,,,,,,,,,,,,,,,,,,,,,,,,,,,,,,,,,,,,,,,,,,,,,,,,,,,,,,,,,,,,,,,,,,,,,,,,,,,,,,,,,,,,,,,,,,,,,,,,,,,,,,,,,,,,,,,,,,,,,,,,,,,,,,,,
1742213695.521691,1742213695.523026,42.000000,0.000000,4274.358887,4252.179688,4292.948730,4296.410156,4230.128418,4205.769043,4203.461426,4210.256348,4224.743652,4217.948730,4638.589844,4496.025879,4400.384766,4540.128418,0.000000,0.000000,6.000000,,,,0.000000,4.000000,4.000000,4.000000,4.000000,4.000000,4.000000,4.000000,4.000000,4.000000,4.000000,4.000000,4.000000,4.000000,4.000000,100.000000,,,,,,,,,,,,,,,,,,,,,,,,,,,,,,,,,,,,,,,,,,,,,,,,,,,,,,,,,,,,,,,,,,,,,,,,,,,,,,,,,,,,,,,,,,,,,,,,,,,,,,,,,,,,,,,,,,,,,,,,,,,,,,,,,
1742213695.529500,1742213695.530734,43.000000,0.000000,4270.256348,4250.641113,4287.436035,4290.512695,4221.922852,4208.717773,4203.333496,4207.692383,4214.743652,4204.615234,4632.563965,4489.743652,4395.128418,4531.025879,0.000000,0.000000,6.000000,,,,0.000000,4.000000,4.000000,4.000000,4.000000,4.000000,4.000000,4.000000,4.000000,4.000000,4.000000,4.000000,4.000000,4.000000,4.000000,100.000000,,,,,,,,,,,,,,,,,,,,,,,,,,,,,,,,,,,,,,,,,,,,,,,,,,,,,,,,,,,,,,,,,,,,,,,,,,,,,,,,,,,,,,,,,,,,,,,,,,,,,,,,,,,,,,,,,,,,,,,,,,,,,,,,,
1742213695.537308,1742213695.538542,44.000000,0.000000,4258.589844,4246.922852,4276.025879,4279.230957,4216.922852,4203.461426,4202.307617,4205.128418,4198.846191,4186.666504,4616.153809,4476.666504,4380.512695,4511.153809,0.000000,0.000000,6.000000,,,,0.000000,4.000000,4.000000,4.000000,4.000000,4.000000,4.000000,4.000000,4.000000,4.000000,4.000000,4.000000,4.000000,4.000000,4.000000,100.000000,,,,,,,,,,,,,,,,,11.000000,0.000000,0.708662,0.061462,-0.689453,0.136658,0.992797,-0.103040,0.047857,-41.009956,-16.231327,42.740795,,,,,,,,,,,,,,,,,,,,,,,,,,,,,,,,,,,,,,,,,,,,,,,,,,,,,,,,,,,,,,,,,,,,,,,,,,,,,,,,,,,,,,,,,,,,,,,,,,,,,
1742213695.545116,1742213695.546250,45.000000,0.000000,4250.897461,4247.179688,4272.436035,4279.615234,4224.487305,4201.282227,4202.179688,4203.461426,4198.333496,4185.256348,4613.589844,4469.487305,4377.563965,4506.538574,0.000000,0.000000,6.000000,,,,0.000000,4.000000,4.000000,4.000000,4.000000,4.000000,4.000000,4.000000,4.000000,4.000000,4.000000,4.000000,4.000000,4.000000,4.000000,100.000000,,,,,,,,,,,,,,,,,,,,,,,,,,,,,,,,,,,,,,,,,,,,,,,,,,,,,,,,,,,,,,,,,,,,,,,,,,,,,,,,,,,,,,,,,,,,,,,,,,,,,,,,,,,,,,,,,,,,,,,,,,,,,,,,,
1742213695.552924,1742213695.554058,46.000000,0.000000,4244.615234,4245.256348,4274.102539,4280.128418,4227.436035,4200.128418,4200.769043,4183.205078,4181.410156,4172.692383,4606.794922,4460.769043,4373.333496,4502.179688,0.000000,0.000000,6.000000,,,,0.000000,4.000000,4.000000,4.000000,4.000000,4.000000,4.000000,4.000000,4.000000,4.000000,4.000000,4.000000,4.000000,4.000000,4.000000,100.000000,,,,,,,,,,,,,,,,,,,,,,,,,,,,,,,,,,,,,,,,,,,,,,,,,,,,,,,,,,,,5.163921,0.576048,0.986140,0.769874,0.881158,3.308176,0.661119,0.769828,0.903926,1.003006,3.444901,0.545380,0.690066,0.687711,0.674462,1.130413,0.667868,1.063459,1.116009,1.260432,0.373376,0.120525,0.318030,0.451224,0.675015,2.620186,0.838746,0.910501,1.145922,2.512042,3.186458,1.604368,1.203784,0.864907,1.452139,2.714737,0.985134,1.281860,0.895848,1.654595,6.120465,2.339805,1.282557,6.658713,7.690796,8.682776,2.104990,1.994484,4.597341,3.818731,5.581388,1.007874,1.082990,1.083111,1.615942,7.098599,0.793287,1.243046,0.998719,1.641872,11.022223,2.047529,1.301939,1.169150,1.241965,2.856848,0.729637,1.362926,1.051640,1.286991
1742213695.560732,1742213695.561766,47.000000,0.000000,4252.051270,4245.769043,4275.897461,4282.307617,4220.000000,4204.230957,4206.794922,4171.538574,4171.666504,4158.461426,4598.333496,4460.769043,4365.384766,4501.410156,0.000000,0.000000,6.000000,,,,0.000000,4.000000,4.000000,4.000000,4.000000,4.000000,4.000000,4.000000,4.000000,4.000000,4.000000,4.000000,4.000000,4.000000,4.000000,100.000000,,,,,,,,,,,,,,,,,,,,,,,,,,,,,,,,,,,,,,,,,,,,,,,,,,,,,,,,,,,,,,,,,,,,,,,,,,,,,,,,,,,,,,,,,,,,,,,,,,,,,,,,,,,,,,,,,,,,,,,,,,,,,,,,,
1742213695.568540,1742213695.569574,48.000000,0.000000,4264.615234,4247.051270,4280.128418,4289.487305,4221.538574,4219.743652,4220.897461,4191.794922,4184.102539,4161.794922,4604.358887,4475.256348,4370.256348,4510.384766,0.000000,0.000000,6.000000,,,,0.000000,4.000000,4.000000,4.000000,4.000000,4.000000,4.000000,4.000000,4.000000,4.000000,4.000000,4.000000,4.000000,4.000000,4.000000,100.000000,,,,,,,,,,,,,,,,,12.000000,0.000000,0.708787,0.061096,-0.689453,0.136169,0.987914,-0.080088,0.050299,-41.075626,-16.208195,42.666714,,,,,,,,,,,,,,,,,,,,,,,,,,,,,,,,,,,,,,,,,,,,,,,,,,,,,,,,,,,,,,,,,,,,,,,,,,,,,,,,,,,,,,,,,,,,,,,,,,,,,
1742213695.576348,1742213695.577282,49.000000,0.000000,4254.615234,4235.256348,4275.128418,4283.717773,4224.743652,4214.230957,4219.102539,4205.128418,4184.230957,4168.717773,4605.128418,4476.153809,4370.641113,4508.205078,0.000000,0.000000,6.000000,,,,0.000000,4.000000,4.000000,4.000000,4.000000,4.000000,4.000000,4.000000,4.000000,4.000000,4.000000,4.000000,4.000000,4.000000,4.000000,100.000000,,,,,,,,,,,,,,,,,,,,,,,,,,,,,,,,,,,,,,,,,,,,,,,,,,,,,,,,,,,,,,,,,,,,,,,,,,,,,,,,,,,,,,,,,,,,,,,,,,,,,,,,,,,,,,,,,,,,,,,,,,,,,,,,,
1742213695.584156,1742213695.585090,50.000000,0.000000,4243.205078,4230.256348,4267.692383,4277.820313,4217.307617,4197.436035,4212.820313,4209.871582,4199.230957,4185.641113,4605.000000,4469.615234,4369.743652,4501.794922,0.000000,0.000000,6.000000,,,,0.000000,4.000000,4.000000,4.000000,4.000000,4.000000,4.000000,4.000000,4.000000,4.000000,4.000000,4.000000,4.000000,4.000000,4.000000,100.000000,,,,,,,,,,,,,,,,,,,,,,,,,,,,,,,,,,,,,,,,,,,,,,,,,,,,,,,,,,,,,,,,,,,,,,,,,,,,,,,,,,,,,,,,,,,,,,,,,,,,,,,,,,,,,,,,,,,,,,,,,,,,,,,,,
1742213695.591964,1742213695.592799,51.000000,0.000000,4249.358887,4247.563965,4272.563965,4284.743652,4218.461426,4209.358887,4221.410156,4225.769043,4231.794922,4210.769043,4617.820313,4477.692383,4380.769043,4507.563965,0.000000,0.000000,6.000000,,,,0.000000,4.000000,4.000000,4.000000,4.000000,4.000000,4.000000,4.000000,4.000000,4.000000,4.000000,4.000000,4.000000,4.000000,4.000000,100.000000,,,,,,,,,,,,,,,,,,,,,,,,,,,,,,,,,,,,,,,,,,,,,,,,,,,,,,,,,,,,,,,,,,,,,,,,,,,,,,,,,,,,,,,,,,,,,,,,,,,,,,,,,,,,,,,,,,,,,,,,,,,,,,,,,
1742213695.599772,1742213695.600606,52.000000,0.000000,4248.333496,4248.589844,4272.436035,4282.436035,4223.846191,4221.410156,4224.615234,4223.846191,4221.922852,4200.512695,4615.128418,4478.846191,4379.230957,4507.948730,0.000000,0.000000,6.000000,,,,0.000000,4.000000,4.000000,4.000000,4.000000,4.000000,4.000000,4.000000,4.000000,4.000000,4.000000,4.000000,4.000000,4.000000,4.000000,100.000000,,,,,,,,,,,,,,,,,13.000000,0.000000,0.708911,0.061157,-0.689453,0.135498,1.007447,-0.079600,0.058113,-41.101398,-16.220709,42.733376,,,,,,,,,,,,,,,,,,,,,,,,,,,,,,,,,,,,,,,,,,,,,,,,,,,,,,,,,,,,,,,,,,,,,,,,,,,,,,,,,,,,,,,,,,,,,,,,,,,,,
1742213695.607581,1742213695.608315,53.000000,0.000000,4240.769043,4237.307617,4267.051270,4274.615234,4221.666504,4209.743652,4213.974121,4203.077148,4192.179688,4177.563965,4601.538574,4470.641113,4370.000000,4502.307617,0.000000,0.000000,6.000000,,,,0.000000,4.000000,4.000000,4.000000,4.000000,4.000000,4.000000,4.000000,4.000000,4.000000,4.000000,4.000000,4.000000,4.000000,4.000000,100.000000,,,,,,,,,,,,,,,,,,,,,,,,,,,,,,,,,,,,,,,,,,,,,,,,,,,,,,,,,,,,,,,,,,,,,,,,,,,,,,,,,,,,,,,,,,,,,,,,,,,,,,,,,,,,,,,,,,,,,,,,,,,,,,,,,
1742213695.615389,1742213695.616123,54.000000,0.000000,4247.307617,4242.307617,4270.769043,4280.256348,4219.102539,4195.897461,4205.128418,4201.794922,4197.563965,4187.051270,4605.128418,4474.487305,4374.487305,4507.948730,0.000000,0.000000,6.000000,,,,0.000000,4.000000,4.000000,4.000000,4.000000,4.000000,4.000000,4.000000,4.000000,4.000000,4.000000,4.000000,4.000000,4.000000,4.000000,100.000000,,,,,,,,,,,,,,,,,,,,,,,,,,,,,,,,,,,,,,,,,,,,,,,,,,,,,,,,,,,,,,,,,,,,,,,,,,,,,,,,,,,,,,,,,,,,,,,,,,,,,,,,,,,,,,,,,,,,,,,,,,,,,,,,,
1742213695.623197,1742213695.623831,55.000000,0.000000,4249.743652,4243.717773,4272.692383,4283.077148,4218.205078,4197.563965,4209.871582,4209.358887,4207.692383,4190.512695,4605.769043,4472.692383,4375.128418,4506.922852,0.000000,0.000000,6.000000,,,,0.000000,4.000000,4.000000,4.000000,4.000000,4.000000,4.000000,4.000000,4.000000,4.000000,4.000000,4.000000,4.000000,4.000000,4.000000,100.000000,,,,,,,,,,,,,,,,,,,,,,,,,,,,,,,,,,,,,,,,,,,,,,,,,,,,,,,,,,,,,,,,,,,,,,,,,,,,,,,,,,,,,,,,,,,,,,,,,,,,,,,,,,,,,,,,,,,,,,,,,,,,,,,,,
1742213695.631005,1742213695.631639,56.000000,0.000000,4236.794922,4236.666504,4266.410156,4277.436035,4216.282227,4208.077148,4219.487305,4197.179688,4187.436035,4169.230957,4592.307617,4456.410156,4361.922852,4492.436035,0.000000,0.000000,6.000000,,,,0.000000,4.000000,4.000000,4.000000,4.000000,4.000000,4.000000,4.000000,4.000000,4.000000,4.000000,4.000000,4.000000,4.000000,4.000000,100.000000,,,,,,,,,,,,,,,,,14.000000,0.000000,0.708992,0.061157,-0.689453,0.135071,1.007447,-0.082041,0.053229,-41.191257,-16.348639,42.676704,,,,,,,,,,,,,,,,,,,,,,,,,,,,,,,,,,,,,,,,,,,,,,,,,,,,,,,,,,,,,,,,,,,,,,,,,,,,,,,,,,,,,,,,,,,,,,,,,,,,,
1742213695.638813,1742213695.639347,57.000000,0.000000,4241.025879,4241.153809,4269.230957,4279.487305,4217.436035,4210.256348,4213.589844,4184.358887,4165.897461,4164.230957,4597.051270,4460.256348,4366.282227,4497.436035,0.000000,0.000000,6.000000,,,,0.000000,4.000000,4.000000,4.000000,4.000000,4.000000,4.000000,4.000000,4.000000,4.000000,4.000000,4.000000,4.000000,4.000000,4.000000,100.000000,,,,,,,,,,,,,,,,,,,,,,,,,,,,,,,,,,,,,,,,,,,,,,,,,,,,,,,,,,,,,,,,,,,,,,,,,,,,,,,,,,,,,,,,,,,,,,,,,,,,,,,,,,,,,,,,,,,,,,,,,,,,,,,,,
1742213695.646621,1742213695.647255,58.000000,0.000000,4249.358887,4245.769043,4277.820313,4281.538574,4216.794922,4195.384766,4197.820313,4192.563965,4171.282227,4170.384766,4612.307617,4474.871582,4380.512695,4512.179688,0.000000,0.000000,6.000000,,,,0.000000,4.000000,4.000000,4.000000,4.000000,4.000000,4.000000,4.000000,4.000000,4.000000,4.000000,4.000000,4.000000,4.000000,4.000000,100.000000,,,,,,,,,,,,,,,,,,,,,,,,,,,,,,,,,,,,,,,,,,,,,,,,,,,,,,,,,,,,,,,,,,,,,,,,,,,,,,,,,,,,,,,,,,,,,,,,,,,,,,,,,,,,,,,,,,,,,,,,,,,,,,,,,
