Timestamp,OriginalTimestamp,EEG.Counter,EEG.Interpolated,EEG.AF3,EEG.F7,EEG.F3,EEG.FC5,EEG.T7,EEG.P7,EEG.O1,EEG.O2,EEG.P8,EEG.T8,EEG.FC6,EEG.F4,EEG.F8,EEG.AF4,EEG.RawCq,EEG.Battery,EEG.BatteryPercent,MarkerIndex,MarkerType,MarkerValueInt,EEG.MarkerHardware,CQ.AF3,CQ.F7,CQ.F3,CQ.FC5,CQ.T7,CQ.P7,CQ.O1,CQ.O2,CQ.P8,CQ.T8,CQ.FC6,CQ.F4,CQ.F8,CQ.AF4,CQ.Overall,EQ.SampleRateQuality,EQ.OVERALL,EQ.AF3,EQ.F7,EQ.F3,EQ.FC5,EQ.T7,EQ.P7,EQ.O1,EQ.O2,EQ.P8,EQ.T8,EQ.FC6,EQ.F4,EQ.F8,EQ.AF4,MOT.CounterMems,MOT.InterpolatedMems,MOT.Q0,MOT.Q1,MOT.Q2,MOT.Q3,MOT.AccX,MOT.AccY,MOT.AccZ,MOT.MagX,MOT.MagY,MOT.MagZ,PM.Attention.IsActive,PM.Attention.Scaled,PM.Attention.Raw,PM.Attention.Min,PM.Attention.Max,PM.Engagement.IsActive,PM.Engagement.Scaled,PM.Engagement.Raw,PM.Engagement.Min,PM.Engagement.Max,PM.Excitement.IsActive,PM.Excitement.Scaled,PM.Excitement.Raw,PM.Excitement.Min,PM.Excitement.Max,PM.LongTermExcitement,PM.Stress.IsActive,PM.Stress.Scaled,PM.Stress.Raw,PM.Stress.Min,PM.Stress.Max,PM.Relaxation.IsActive,PM.Relaxation.Scaled,PM.Relaxation.Raw,PM.Relaxation.Min,PM.Relaxation.Max,PM.Interest.IsActive,PM.Interest.Scaled,PM.Interest.Raw,PM.Interest.Min,PM.Interest.Max,POW.AF3.Theta,POW.AF3.Alpha,POW.AF3.BetaL,POW.AF3.BetaH,POW.AF3.Gamma,POW.F7.Theta,POW.F7.Alpha,POW.F7.BetaL,POW.F7.BetaH,POW.F7.Gamma,POW.F3.Theta,POW.F3.Alpha,POW.F3.BetaL,POW.F3.BetaH,POW.F3.Gamma,POW.FC5.Theta,POW.FC5.Alpha,POW.FC5.BetaL,POW.FC5.BetaH,POW.FC5.Gamma,POW.T7.Theta,POW.T7.Alpha,POW.T7.BetaL,POW.T7.BetaH,POW.T7.Gamma,POW.P7.Theta,POW.P7.Alpha,POW.P7.BetaL,POW.P7.BetaH,POW.P7.Gamma,POW.O1.Theta,POW.O1.Alpha,POW.O1.BetaL,POW.O1.BetaH,POW.O1.Gamma,POW.O2.Theta,POW.O2.Alpha,POW.O2.BetaL,POW.O2.BetaH,POW.O2.Gamma,POW.P8.Theta,POW.P8.Alpha,POW.P8.BetaL,POW.P8.BetaH,POW.P8.Gamma,POW.T8.Theta,POW.T8.Alpha,POW.T8.BetaL,POW.T8.BetaH,POW.T8.Gamma,POW.FC6.Theta,POW.FC6.Alpha,POW.FC6.BetaL,POW.FC6.BetaH,POW.FC6.Gamma,POW.F4.Theta,POW.F4.Alpha,POW.F4.BetaL,POW.F4.BetaH,POW.F4.Gamma,POW.F8.Theta,POW.F8.Alpha,POW.F8.BetaL,POW.F8.BetaH,POW.F8.Gamma,POW.AF4.Theta,POW.AF4.Alpha,POW.AF4.BetaL,POW.AF4.BetaH,POW.AF4.Gamma
1742897132.414615,1742897132.415566,102.000000,0.000000,4232.948730,4202.820313,4249.358887,4261.282227,4191.794922,4211.025879,4186.794922,4189.102539,4187.563965,4173.846191,4493.461426,4419.487305,4323.589844,4423.589844,5799.000000,0.000000,11.000000,,,,0.000000,4.000000,4.000000,4.000000,4.000000,4.000000,4.000000,4.000000,4.000000,4.000000,4.000000,4.000000,4.000000,4.000000,4.000000,100.000000,,,,,,,,,,,,,,,,,,,,,,,,,,,,,,,,,,,,,,,,,,,,,,,,,,,,,,,,,,,,,,,,,,,,,,,,,,,,,,,,,,,,,,,,,,,,,,,,,,,,,,,,,,,,,,,,,,,,,,,,,,,,,,,,,
1742897132.422423,1742897132.423474,103.000000,0.000000,4226.922852,4203.461426,4250.000000,4261.153809,4186.282227,4208.461426,4192.179688,4193.974121,4187.948730,4173.589844,4494.230957,4419.487305,4323.461426,4425.769043,6153.000000,0.000000,11.000000,,,,0.000000,4.000000,4.000000,4.000000,4.000000,4.000000,4.000000,4.000000,4.000000,4.000000,4.000000,4.000000,4.000000,4.000000,4.000000,100.000000,,,,,,,,,,,,,,,,,,,,,,,,,,,,,,,,,,,,,,,,,,,,,,,,,,,,,,,,,,,,,,,,,,,,,,,,,,,,,,,,,,,,,,,,,,,,,,,,,,,,,,,,,,,,,,,,,,,,,,,,,,,,,,,,,
1742897132.430231,1742897132.431282,104.000000,0.000000,4218.974121,4202.051270,4250.128418,4249.871582,4183.974121,4205.256348,4189.615234,4192.820313,4186.410156,4170.256348,4486.410156,4420.128418,4320.384766,4422.820313,6416.000000,0.000000,11.000000,,,,0.000000,4.000000,4.000000,4.000000,4.000000,4.000000,4.000000,4.000000,4.000000,4.000000,4.000000,4.000000,4.000000,4.000000,4.000000,100.000000,,,,,,,,,,,,,,,,,26.000000,0.000000,0.679355,-0.212524,-0.682190,-0.167114,0.984984,-0.062996,-0.020510,-42.218056,-5.748181,38.996616,,,,,,,,,,,,,,,,,,,,,,,,,,,,,,,,,,,,,,,,,,,,,,,,,,,,,,,,,,,,,,,,,,,,,,,,,,,,,,,,,,,,,,,,,,,,,,,,,,,,,
1742897132.438039,1742897132.439190,105.000000,0.000000,4216.794922,4207.051270,4247.563965,4253.077148,4185.641113,4201.666504,4179.487305,4188.461426,4183.846191,4166.410156,4482.820313,4417.563965,4313.717773,4416.410156,5532.000000,0.000000,11.000000,,,,0.000000,4.000000,4.000000,4.000000,4.000000,4.000000,4.000000,4.000000,4.000000,4.000000,4.000000,4.000000,4.000000,4.000000,4.000000,100.000000,,,,,,,,,,,,,,,,,,,,,,,,,,,,,,,,,,,,,,,,,,,,,,,,,,,,,,,,,,,,,,,,,,,,,,,,,,,,,,,,,,,,,,,,,,,,,,,,,,,,,,,,,,,,,,,,,,,,,,,,,,,,,,,,,
1742897132.445847,1742897132.446998,106.000000,0.000000,4218.846191,4213.846191,4252.307617,4263.717773,4184.871582,4202.307617,4175.000000,4188.205078,4185.384766,4168.205078,4486.410156,4417.820313,4308.974121,4418.589844,5799.000000,0.000000,11.000000,,,,0.000000,4.000000,4.000000,4.000000,4.000000,4.000000,4.000000,4.000000,4.000000,4.000000,4.000000,4.000000,4.000000,4.000000,4.000000,100.000000,,,,,,,,,,,,,,,,,,,,,,,,,,,,,,,,,,,,,,,,,,,,,,,,,,,,,,,,,,,,,,,,,,,,,,,,,,,,,,,,,,,,,,,,,,,,,,,,,,,,,,,,,,,,,,,,,,,,,,,,,,,,,,,,,
1742897132.453656,1742897132.454806,107.000000,0.000000,4225.512695,4216.922852,4261.410156,4260.512695,4192.051270,4202.307617,4177.436035,4187.692383,4189.487305,4171.538574,4488.333496,4418.846191,4310.769043,4425.641113,6153.000000,0.000000,11.000000,,,,0.000000,4.000000,4.000000,4.000000,4.000000,4.000000,4.000000,4.000000,4.000000,4.000000,4.000000,4.000000,4.000000,4.000000,4.000000,100.000000,,,,,,,,,,,,,,,,,,,,,,,,,,,,,,,,,,,,,,,,,,,,,,,,,,,,,,,,,,,,,,,,,,,,,,,,,,,,,,,,,,,,,,,,,,,,,,,,,,,,,,,,,,,,,,,,,,,,,,,,,,,,,,,,,
1742897132.461464,1742897132.462514,108.000000,0.000000,4230.769043,4222.692383,4258.077148,4261.153809,4200.128418,4204.102539,4184.487305,4188.846191,4190.256348,4171.538574,4486.794922,4416.666504,4315.256348,4426.666504,6416.000000,0.000000,11.000000,,,,0.000000,4.000000,4.000000,4.000000,4.000000,4.000000,4.000000,4.000000,4.000000,4.000000,4.000000,4.000000,4.000000,4.000000,4.000000,100.000000,,,,,,,,,,,,,,,,,27.000000,0.000000,0.678858,-0.214966,-0.682129,-0.166260,0.983518,-0.054694,-0.023929,-42.262917,-5.723363,39.030289,,,,,,,,,,,,,,,,,,,,,,,,,,,,,,,,,,,,,,,,,,,,,,,,,,,,,,,,,,,,,,,,,,,,,,,,,,,,,,,,,,,,,,,,,,,,,,,,,,,,,
1742897132.469272,1742897132.470322,109.000000,0.000000,4218.077148,4216.282227,4250.000000,4265.256348,4193.589844,4211.666504,4192.563965,4193.461426,4189.102539,4167.692383,4476.538574,4411.410156,4302.051270,4415.512695,5532.000000,0.000000,11.000000,,,,0.000000,4.000000,4.000000,4.000000,4.000000,4.000000,4.000000,4.000000,4.000000,4.000000,4.000000,4.000000,4.000000,4.000000,4.000000,100.000000,,,,,,,,,,,,,,,,,,,,,,,,,,,,,,,,,,,,,,,,,,,,,,,,,,,,,,,,,,,,,,,,,,,,,,,,,,,,,,,,,,,,,,,,,,,,,,,,,,,,,,,,,,,,,,,,,,,,,,,,,,,,,,,,,
1742897132.477080,1742897132.478030,110.000000,0.000000,4201.025879,4201.153809,4246.282227,4254.102539,4188.205078,4212.563965,4188.205078,4193.077148,4191.153809,4167.307617,4469.743652,4407.051270,4287.051270,4401.538574,5799.000000,0.000000,11.000000,,,,0.000000,4.000000,4.000000,4.000000,4.000000,4.000000,4.000000,4.000000,4.000000,4.000000,4.000000,4.000000,4.000000,4.000000,4.000000,100.000000,,,,,,,,,,,,,,,,,,,,,,,,,,,,,,,,,,,,,,,,,,,,,,,,,,,,,,,,,,,,,,,,,,,,,,,,,,,,,,,,,,,,,,,,,,,,,,,,,,,,,,,,,,,,,,,,,,,,,,,,,,,,,,,,,
1742897132.484888,1742897132.485838,111.000000,0.000000,4201.538574,4202.563965,4239.615234,4245.384766,4191.794922,4201.794922,4175.256348,4184.230957,4191.025879,4170.128418,4478.333496,4401.922852,4302.563965,4398.846191,6153.000000,0.000000,11.000000,,,,0.000000,4.000000,4.000000,4.000000,4.000000,4.000000,4.000000,4.000000,4.000000,4.000000,4.000000,4.000000,4.000000,4.000000,4.000000,100.000000,,,,,,,,,,,,,,,,,,,,,,,,,,,,,,,,,,,,,,,,,,,,,,,,,,,,,,,,,,,,,,,,,,,,,,,,,,,,,,,,,,,,,,,,,,,,,,,,,,,,,,,,,,,,,,,,,,,,,,,,,,,,,,,,,
1742897132.492696,1742897132.493546,112.000000,0.000000,4209.102539,4211.666504,4237.307617,4249.487305,4190.897461,4201.666504,4174.102539,4180.769043,4184.102539,4171.666504,4487.692383,4396.410156,4328.974121,4404.743652,6416.000000,0.000000,11.000000,,,,0.000000,4.000000,4.000000,4.000000,4.000000,4.000000,4.000000,4.000000,4.000000,4.000000,4.000000,4.000000,4.000000,4.000000,4.000000,100.000000,,,,,,,,,,,,,,,,,28.000000,0.000000,0.678334,-0.216248,-0.682556,-0.164978,0.977658,-0.060066,-0.031742,-42.219959,-5.917694,38.927258,,,,,,,,,,,,,,,,,,,,,,,,,,,,,,,,,,,,,,,,,,,,,,,,,,,,,,,,,,,,,,,,,,,,,,,,,,,,,,,,,,,,,,,,,,,,,,,,,,,,,
1742897132.500504,1742897132.501354,113.000000,0.000000,4211.666504,4203.333496,4242.692383,4249.487305,4186.922852,4207.563965,4179.615234,4185.512695,4182.692383,4178.589844,4492.948730,4398.589844,4345.641113,4410.769043,5532.000000,0.000000,11.000000,,,,0.000000,4.000000,4.000000,4.000000,4.000000,4.000000,4.000000,4.000000,4.000000,4.000000,4.000000,4.000000,4.000000,4.000000,4.000000,100.000000,1.000000,91.666664,4.000000,4.000000,3.000000,4.000000,4.000000,4.000000,4.000000,4.000000,4.000000,4.000000,4.000000,4.000000,4.000000,4.000000,,,,,,,,,,,,,,,,,,,,,,,,,,,,,,,,,,,,,,,,,,,,45.994049,4.031332,0.799760,0.337209,0.264868,21.747158,4.455226,0.658809,0.255807,0.296688,10.335449,2.093765,0.473330,0.278633,0.263358,8.659448,3.782530,0.768285,0.343578,0.454517,1.342266,1.252777,0.313754,0.302697,0.197206,0.459512,0.264243,0.402985,0.176484,0.168189,1.179204,1.367532,0.601048,0.552391,0.400340,2.381166,2.298836,0.832386,0.717633,0.522887,0.746978,0.773121,0.205215,0.194338,0.279479,1.869612,1.287224,0.273548,0.293860,0.391527,9.612614,2.310285,0.657120,0.495720,0.354546,8.618360,2.712177,0.617657,0.395665,0.295933,32.037685,2.766258,0.959476,0.464525,0.352411,51.125519,3.800057,0.945514,0.484537,0.336769
1742897132.508312,1742897132.509062,114.000000,0.000000,4212.307617,4191.794922,4244.487305,4246.153809,4187.307617,4200.256348,4177.307617,4184.487305,4187.436035,4187.948730,4502.948730,4404.358887,4358.589844,4416.282227,5799.000000,0.000000,11.000000,,,,0.000000,4.000000,4.000000,4.000000,4.000000,4.000000,4.000000,4.000000,4.000000,4.000000,4.000000,4.000000,4.000000,4.000000,4.000000,100.000000,,,,,,,,,,,,,,,,,,,,,,,,,,,,,,,,,,,,,,,,,,,,,,,,,,,,,,,,,,,,,,,,,,,,,,,,,,,,,,,,,,,,,,,,,,,,,,,,,,,,,,,,,,,,,,,,,,,,,,,,,,,,,,,,,
1742897132.516120,1742897132.516870,115.000000,0.000000,4210.512695,4186.282227,4244.230957,4244.743652,4186.922852,4192.820313,4173.205078,4179.358887,4187.563965,4189.487305,4510.769043,4404.615234,4370.512695,4420.641113,6153.000000,0.000000,11.000000,,,,0.000000,4.000000,4.000000,4.000000,4.000000,4.000000,4.000000,4.000000,4.000000,4.000000,4.000000,4.000000,4.000000,4.000000,4.000000,100.000000,,,,,,,,,,,,,,,,,,,,,,,,,,,,,,,,,,,,,,,,,,,,,,,,,,,,,,,,,,,,,,,,,,,,,,,,,,,,,,,,,,,,,,,,,,,,,,,,,,,,,,,,,,,,,,,,,,,,,,,,,,,,,,,,,
1742897132.523928,1742897132.524578,116.000000,0.000000,4210.641113,4176.538574,4247.692383,4242.436035,4186.538574,4198.333496,4177.948730,4185.128418,4187.307617,4187.051270,4514.743652,4409.230957,4380.000000,4425.000000,6416.000000,0.000000,11.000000,,,,0.000000,4.000000,4.000000,4.000000,4.000000,4.000000,4.000000,4.000000,4.000000,4.000000,4.000000,4.000000,4.000000,4.000000,4.000000,100.000000,,,,,,,,,,,,,,,,,29.000000,0.000000,0.678245,-0.216858,-0.682861,-0.163269,0.972287,-0.081065,-0.025882,-42.164627,-6.025924,38.901199,,,,,,,,,,,,,,,,,,,,,,,,,,,,,,,,,,,,,,,,,,,,,,,,,,,,,,,,,,,,,,,,,,,,,,,,,,,,,,,,,,,,,,,,,,,,,,,,,,,,,
1742897132.531736,1742897132.532386,117.000000,0.000000,4209.743652,4169.102539,4248.974121,4238.589844,4189.102539,4208.461426,4191.025879,4189.358887,4186.922852,4186.794922,4519.487305,4417.051270,4381.538574,4427.051270,5532.000000,0.000000,11.000000,,,,0.000000,4.000000,4.000000,4.000000,4.000000,4.000000,4.000000,4.000000,4.000000,4.000000,4.000000,4.000000,4.000000,4.000000,4.000000,100.000000,,,,,,,,,,,,,,,,,,,,,,,,,,,,,,,,,,,,,,,,,,,,,,,,,,,,,,,,,,,,,,,,,,,,,,,,,,,,,,,,,,,,,,,,,,,,,,,,,,,,,,,,,,,,,,,,,,,,,,,,,,,,,,,,,
1742897132.539544,1742897132.540094,118.000000,0.000000,4202.307617,4167.436035,4247.563965,4231.153809,4189.230957,4210.000000,4194.358887,4183.205078,4186.410156,4185.000000,4510.769043,4411.922852,4371.538574,4419.230957,5799.000000,0.000000,11.000000,,,,0.000000,4.000000,4.000000,4.000000,4.000000,4.000000,4.000000,4.000000,4.000000,4.000000,4.000000,4.000000,4.000000,4.000000,4.000000,100.000000,,,,,,,,,,,,,,,,,,,,,,,,,,,,,,,,,,,,,,,,,,,,,,,,,,,,,,,,,,,,,,,,,,,,,,,,,,,,,,,,,,,,,,,,,,,,,,,,,,,,,,,,,,,,,,,,,,,,,,,,,,,,,,,,,
1742897132.547353,1742897132.548002,119.000000,0.000000,4203.333496,4169.871582,4247.436035,4230.512695,4186.410156,4202.563965,4180.128418,4181.153809,4188.205078,4183.589844,4504.102539,4406.922852,4364.615234,4416.025879,6153.000000,0.000000,11.000000,,,,0.000000,4.000000,4.000000,4.000000,4.000000,4.000000,4.000000,4.000000,4.000000,4.000000,4.000000,4.000000,4.000000,4.000000,4.000000,100.000000,,,,,,,,,,,,,,,,,,,,,,,,,,,,,,,,,,,,,,,,,,,,,,,,,,,,,,,,,,,,,,,,,,,,,,,,,,,,,,,,,,,,,,,,,,,,,,,,,,,,,,,,,,,,,,,,,,,,,,,,,,,,,,,,,
1742897132.555161,1742897132.555810,120.000000,0.000000,4209.358887,4179.230957,4248.461426,4242.563965,4182.563965,4195.128418,4169.615234,4179.358887,4187.307617,4185.256348,4512.692383,4412.948730,4369.487305,4420.641113,6416.000000,0.000000,11.000000,,,,0.000000,4.000000,4.000000,4.000000,4.000000,4.000000,4.000000,4.000000,4.000000,4.000000,4.000000,4.000000,4.000000,4.000000,4.000000,100.000000,,,,,,,,,,,,,,,,,30.000000,0.000000,0.678834,-0.217224,-0.682739,-0.160828,1.000610,-0.095715,-0.017580,-42.298164,-6.006665,38.977745,,,,,,,,,,,,,,,,,,,,,,,,,,,,,,,,,,,,,,,,,,,,,,,,,,,,,,,,,,,,,,,,,,,,,,,,,,,,,,,,,,,,,,,,,,,,,,,,,,,,,
1742897132.562969,1742897132.563718,121.000000,0.000000,4206.794922,4186.794922,4250.256348,4244.487305,4184.102539,4195.384766,4173.974121,4174.102539,4182.436035,4185.769043,4512.307617,4413.333496,4369.743652,4417.436035,5532.000000,0.000000,11.000000,,,,0.000000,4.000000,4.000000,4.000000,4.000000,4.000000,4.000000,4.000000,4.000000,4.000000,4.000000,4.000000,4.000000,4.000000,4.000000,100.000000,,,,,,,,,,,,,,,,,,,,,,,,,,,,,,,,,,,,,,,,,,,,,,,,,,,,,,,,,,,,,,,,,,,,,,,,,,,,,,,,,,,,,,,,,,,,,,,,,,,,,,,,,,,,,,,,,,,,,,,,,,,,,,,,,
1742897132.570777,1742897132.571526,122.000000,0.000000,4204.615234,4183.077148,4247.307617,4233.717773,4187.051270,4202.436035,4177.436035,4177.307617,4181.538574,4184.615234,4503.077148,4409.102539,4363.846191,4413.077148,5799.000000,0.000000,11.000000,,,,0.000000,4.000000,4.000000,4.000000,4.000000,4.000000,4.000000,4.000000,4.000000,4.000000,4.000000,4.000000,4.000000,4.000000,4.000000,100.000000,,,,,,,,,,,,,,,,,,,,,,,,,,,,,,,,,,,,,,,,,,,,,,,,,,,,,,,,,,,,,,,,,,,,,,,,,,,,,,,,,,,,,,,,,,,,,,,,,,,,,,,,,,,,,,,,,,,,,,,,,,,,,,,,,
1742897132.578585,1742897132.579434,123.000000,0.000000,4205.897461,4172.948730,4245.512695,4231.666504,4185.512695,4208.717773,4181.282227,4185.000000,4187.051270,4183.077148,4505.769043,4413.589844,4361.410156,4414.358887,6153.000000,0.000000,11.000000,,,,0.000000,4.000000,4.000000,4.000000,4.000000,4.000000,4.000000,4.000000,4.000000,4.000000,4.000000,4.000000,4.000000,4.000000,4.000000,100.000000,,,,,,,,,,,,,,,,,,,,,,,,,,,,,,,,,,,,,,,,,,,,,,,,,,,,,,,,,,,,,,,,,,,,,,,,,,,,,,,,,,,,,,,,,,,,,,,,,,,,,,,,,,,,,,,,,,,,,,,,,,,,,,,,,
1742897132.586393,1742897132.587242,124.000000,0.000000,4205.384766,4174.358887,4251.538574,4238.205078,4184.743652,4207.692383,4190.641113,4186.666504,4190.384766,4183.461426,4515.897461,4420.512695,4364.743652,4416.538574,6416.000000,0.000000,11.000000,,,,0.000000,4.000000,4.000000,4.000000,4.000000,4.000000,4.000000,4.000000,4.000000,4.000000,4.000000,4.000000,4.000000,4.000000,4.000000,100.000000,,,,,,,,,,,,,,,,,31.000000,0.000000,0.679342,-0.217041,-0.682678,-0.159180,0.995239,-0.106458,-0.013674,-42.235016,-6.055998,39.079971,,,,,,,,,,,,,,,,,,,,,,,,,,,,,,,,,,,,,,,,,,,,,,,,,,,,,,,,,,,,,,,,,,,,,,,,,,,,,,,,,,,,,,,,,,,,,,,,,,,,,
1742897132.594201,1742897132.595050,125.000000,0.000000,4203.461426,4179.358887,4251.922852,4236.153809,4183.846191,4202.820313,4193.461426,4184.743652,4186.666504,4181.410156,4512.179688,4417.179688,4364.102539,4414.487305,5532.000000,0.000000,11.000000,,,,0.000000,4.000000,4.000000,4.000000,4.000000,4.000000,4.000000,4.000000,4.000000,4.000000,4.000000,4.000000,4.000000,4.000000,4.000000,100.000000,,,,,,,,,,,,,,,,,,,,,,,,,,,,,,,,,,,,,,,,,,,,,,,,,,,,,,,,,,,,,,,,,,,,,,,,,,,,,,,,,,,,,,,,,,,,,,,,,,,,,,,,,,,,,,,,,,,,,,,,,,,,,,,,,
1742897132.602009,1742897132.602858,126.000000,0.000000,4202.563965,4173.974121,4247.948730,4228.974121,4179.871582,4204.743652,4191.666504,4187.692383,4184.487305,4178.974121,4503.077148,4415.384766,4355.641113,4410.512695,5799.000000,0.000000,11.000000,,,,0.000000,4.000000,4.000000,4.000000,4.000000,4.000000,4.000000,4.000000,4.000000,4.000000,4.000000,4.000000,4.000000,4.000000,4.000000,100.000000,,,,,,,,,,,,,,,,,,,,,,,,,,,,,,,,,,,,,,,,,,,,,,,,,,,,,,,,,,,,,,,,,,,,,,,,,,,,,,,,,,,,,,,,,,,,,,,,,,,,,,,,,,,,,,,,,,,,,,,,,,,,,,,,,
1742897132.609817,1742897132.610566,127.000000,0.000000,4201.410156,4169.358887,4253.846191,4235.769043,4180.897461,4210.000000,4197.563965,4195.256348,4189.871582,4184.230957,4505.769043,4422.563965,4356.153809,4411.794922,11.000000,0.000000,11.000000,,,,0.000000,4.000000,4.000000,4.000000,4.000000,4.000000,4.000000,4.000000,4.000000,4.000000,4.000000,4.000000,4.000000,4.000000,4.000000,100.000000,,,,,,,,,,,,,,,,,,,,,,,,,,,,,,,,,,,,,,,,,,,,,,,,,,,,,,,,,,,,,,,,,,,,,,,,,,,,,,,,,,,,,,,,,,,,,,,,,,,,,,,,,,,,,,,,,,,,,,,,,,,,,,,,,
1742897132.617625,1742897132.618374,0.000000,0.000000,4200.641113,4170.128418,4255.384766,4239.871582,4183.974121,4209.102539,4202.563965,4200.256348,4191.282227,4188.205078,4511.538574,4425.256348,4361.410156,4415.128418,5085.000000,0.000000,11.000000,,,,0.000000,4.000000,4.000000,4.000000,4.000000,4.000000,4.000000,4.000000,4.000000,4.000000,4.000000,4.000000,4.000000,4.000000,4.000000,100.000000,,,,,,,,,,,,,,,,,0.000000,0.000000,0.679931,-0.216736,-0.682373,-0.158386,0.984007,-0.089366,-0.003907,-42.278183,-6.217065,39.055309,,,,,,,,,,,,,,,,,,,,,,,,,,,,,,,,,,,,,,,,,,,,,,,,,,,,,,,,,,,,,,,,,,,,,,,,,,,,,,,,,,,,,,,,,,,,,,,,,,,,,
1742897132.625434,1742897132.626082,1.000000,0.000000,4205.512695,4171.666504,4253.333496,4233.974121,4182.820313,4206.922852,4198.846191,4197.820313,4189.487305,4187.179688,4513.846191,4423.974121,4358.717773,4413.717773,5455.000000,0.000000,11.000000,,,,0.000000,4.000000,4.000000,4.000000,4.000000,4.000000,4.000000,4.000000,4.000000,4.000000,4.000000,4.000000,4.000000,4.000000,4.000000,100.000000,,,,,,,,,,,,,,,,,,,,,,,,,,,,,,,,,,,,,,,,,,,,,,,,,,,,,,,,,,,,30.818785,3.735979,0.562463,0.279220,0.261931,14.067562,4.497292,0.445277,0.224781,0.269991,7.361161,2.006853,0.377131,0.227288,0.246738,6.014122,3.954178,0.625970,0.306917,0.395050,1.072836,1.451042,0.183803,0.285129,0.181036,0.378423,0.255642,0.393926,0.169947,0.178124,0.938648,1.285042,0.586499,0.519790,0.407688,2.568805,2.206849,0.833984,0.643069,0.525362,0.720715,0.756058,0.277454,0.181162,0.266683,1.527655,1.214635,0.295898,0.219575,0.358309,6.831297,2.261223,0.623266,0.409577,0.348856,6.161390,2.516426,0.674114,0.330413,0.287308,22.153893,2.702113,0.712650,0.332876,0.349684,34.810333,3.795832,0.660605,0.387856,0.316521
1742897132.633242,1742897132.633890,2.000000,0.000000,4214.358887,4176.666504,4264.358887,4237.051270,4182.436035,4210.256348,4198.461426,4196.666504,4192.051270,4188.077148,4516.666504,4427.436035,4357.563965,4414.487305,5439.000000,0.000000,11.000000,,,,0.000000,4.000000,4.000000,4.000000,4.000000,4.000000,4.000000,4.000000,4.000000,4.000000,4.000000,4.000000,4.000000,4.000000,4.000000,100.000000,,,,,,,,,,,,,,,,,,,,,,,,,,,,,,,,,,,,,,,,,,,,,,,,,,,,,,,,,,,,,,,,,,,,,,,,,,,,,,,,,,,,,,,,,,,,,,,,,,,,,,,,,,,,,,,,,,,,,,,,,,,,,,,,,
1742897132.641050,1742897132.641598,3.000000,0.000000,4219.230957,4179.871582,4273.333496,4241.794922,4185.897461,4217.948730,4206.410156,4202.563965,4194.102539,4190.256348,4520.641113,4432.307617,4361.538574,4422.179688,5318.000000,0.000000,11.000000,,,,0.000000,4.000000,4.000000,4.000000,4.000000,4.000000,4.000000,4.000000,4.000000,4.000000,4.000000,4.000000,4.000000,4.000000,4.000000,100.000000,,,,,,,,,,,,,,,,,,,,,,,,,,,,,,,,,,,,,,,,,,,,,,,,,,,,,,,,,,,,,,,,,,,,,,,,,,,,,,,,,,,,,,,,,,,,,,,,,,,,,,,,,,,,,,,,,,,,,,,,,,,,,,,,,
1742897132.648858,1742897132.649406,4.000000,0.000000,4215.128418,4178.077148,4267.179688,4236.538574,4186.922852,4218.974121,4205.384766,4201.794922,4191.410156,4189.487305,4517.436035,4430.769043,4364.358887,4422.051270,5190.000000,0.000000,11.000000,,,,0.000000,4.000000,4.000000,4.000000,4.000000,4.000000,4.000000,4.000000,4.000000,4.000000,4.000000,4.000000,4.000000,4.000000,4.000000,100.000000,,,,,,,,,,,,,,,,,1.000000,0.000000,0.680043,-0.216858,-0.682251,-0.158264,0.988890,-0.092785,-0.019534,-42.200363,-6.362025,38.949776,,,,,,,,,,,,,,,,,,,,,,,,,,,,,,,,,,,,,,,,,,,,,,,,,,,,,,,,,,,,,,,,,,,,,,,,,,,,,,,,,,,,,,,,,,,,,,,,,,,,,
1742897132.656666,1742897132.657114,5.000000,0.000000,4211.282227,4178.974121,4262.307617,4234.743652,4181.025879,4210.769043,4195.641113,4195.128418,4185.000000,4182.179688,4511.666504,4425.641113,4359.743652,4418.205078,3358.000000,0.000000,11.000000,,,,0.000000,4.000000,4.000000,4.000000,4.000000,4.000000,4.000000,4.000000,4.000000,4.000000,4.000000,4.000000,4.000000,4.000000,4.000000,100.000000,,,,,,,,,,,,,,,,,,,,,,,,,,,,,,,,,,,,,,,,,,,,,,,,,,,,,,,,,,,,,,,,,,,,,,,,,,,,,,,,,,,,,,,,,,,,,,,,,,,,,,,,,,,,,,,,,,,,,,,,,,,,,,,,,
1742897132.664474,1742897132.664922,6.000000,0.000000,4212.692383,4185.128418,4265.000000,4237.307617,4177.692383,4207.179688,4196.282227,4195.897461,4181.666504,4176.282227,4511.538574,4423.717773,4353.077148,4421.538574,4465.000000,0.000000,11.000000,,,,0.000000,4.000000,4.000000,4.000000,4.000000,4.000000,4.000000,4.000000,4.000000,4.000000,4.000000,4.000000,4.000000,4.000000,4.000000,100.000000,,,,,,,,,,,,,,,,,,,,,,,,,,,,,,,,,,,,,,,,,,,,,,,,,,,,,,,,,,,,,,,,,,,,,,,,,,,,,,,,,,,,,,,,,,,,,,,,,,,,,,,,,,,,,,,,,,,,,,,,,,,,,,,,,
1742897132.672282,1742897132.672630,7.000000,0.000000,4211.282227,4185.769043,4262.820313,4232.692383,4182.307617,4210.769043,4202.436035,4201.282227,4184.871582,4181.025879,4512.820313,4423.589844,4354.230957,4420.128418,4246.000000,0.000000,11.000000,,,,0.000000,4.000000,4.000000,4.000000,4.000000,4.000000,4.000000,4.000000,4.000000,4.000000,4.000000,4.000000,4.000000,4.000000,4.000000,100.000000,,,,,,,,,,,,,,,,,,,,,,,,,,,,,,,,,,,,,,,,,,,,,,,,,,,,,,,,,,,,,,,,,,,,,,,,,,,,,,,,,,,,,,,,,,,,,,,,,,,,,,,,,,,,,,,,,,,,,,,,,,,,,,,,,
1742897132.680090,1742897132.680438,8.000000,0.000000,4203.205078,4178.589844,4254.102539,4232.179688,4183.974121,4209.358887,4199.615234,4204.487305,4190.769043,4184.743652,4510.384766,4419.358887,4354.358887,4412.692383,3627.000000,0.000000,11.000000,,,,0.000000,4.000000,4.000000,4.000000,4.000000,4.000000,4.000000,4.000000,4.000000,4.000000,4.000000,4.000000,4.000000,4.000000,4.000000,100.000000,,,,,,,,,,,,,,,,,2.000000,0.000000,0.680116,-0.217468,-0.681885,-0.158691,0.992309,-0.104505,0.000977,-42.313660,-6.459156,39.004799,,,,,,,,,,,,,,,,,,,,,,,,,,,,,,,,,,,,,,,,,,,,,,,,,,,,,,,,,,,,,,,,,,,,,,,,,,,,,,,,,,,,,,,,,,,,,,,,,,,,,
1742897132.687898,1742897132.688146,9.000000,0.000000,4195.256348,4174.615234,4246.410156,4233.589844,4180.256348,4202.436035,4191.666504,4201.538574,4190.000000,4177.307617,4504.487305,4413.846191,4350.512695,4410.256348,5173.000000,0.000000,11.000000,,,,0.000000,4.000000,4.000000,4.000000,4.000000,4.000000,4.000000,4.000000,4.000000,4.000000,4.000000,4.000000,4.000000,4.000000,4.000000,100.000000,,,,,,,,,,,,,,,,,,,,,,,,,,,,,,,,,,,,,,,,,,,,,,,,,,,,,,,,,,,,,,,,,,,,,,,,,,,,,,,,,,,,,,,,,,,,,,,,,,,,,,,,,,,,,,,,,,,,,,,,,,,,,,,,,
1742897132.695706,1742897132.695954,10.000000,0.000000,4196.025879,4180.000000,4245.256348,4228.846191,4182.563965,4201.666504,4193.205078,4197.307617,4187.692383,4175.384766,4505.000000,4413.589844,4350.641113,4412.307617,5784.000000,0.000000,11.000000,,,,0.000000,4.000000,4.000000,4.000000,4.000000,4.000000,4.000000,4.000000,4.000000,4.000000,4.000000,4.000000,4.000000,4.000000,4.000000,100.000000,,,,,,,,,,,,,,,,,,,,,,,,,,,,,,,,,,,,,,,,,,,,,,,,,,,,,,,,,,,,,,,,,,,,,,,,,,,,,,,,,,,,,,,,,,,,,,,,,,,,,,,,,,,,,,,,,,,,,,,,,,,,,,,,,
1742897132.703514,1742897132.703662,11.000000,0.000000,4201.666504,4187.307617,4247.563965,4229.230957,4190.128418,4206.538574,4201.025879,4200.897461,4192.563965,4184.743652,4510.384766,4416.410156,4350.384766,4416.282227,6140.000000,0.000000,11.000000,,,,0.000000,4.000000,4.000000,4.000000,4.000000,4.000000,4.000000,4.000000,4.000000,4.000000,4.000000,4.000000,4.000000,4.000000,4.000000,100.000000,,,,,,,,,,,,,,,,,,,,,,,,,,,,,,,,,,,,,,,,,,,,,,,,,,,,,,,,,,,,,,,,,,,,,,,,,,,,,,,,,,,,,,,,,,,,,,,,,,,,,,,,,,,,,,,,,,,,,,,,,,,,,,,,,
1742897132.711323,1742897132.711470,12.000000,0.000000,4206.282227,4185.256348,4251.282227,4233.974121,4189.743652,4210.641113,4207.307617,4202.692383,4193.077148,4187.179688,4512.307617,4418.333496,4350.897461,4419.230957,6407.000000,0.000000,11.000000,,,,0.000000,4.000000,4.000000,4.000000,4.000000,4.000000,4.000000,4.000000,4.000000,4.000000,4.000000,4.000000,4.000000,4.000000,4.000000,100.000000,,,,,,,,,,,,,,,,,3.000000,0.000000,0.679795,-0.218628,-0.681763,-0.158997,0.991820,-0.072274,-0.028324,-42.398960,-6.446574,38.987652,,,,,,,,,,,,,,,,,,,,,,,,,,,,,,,,,,,,,,,,,,,,,,,,,,,,,,,,,,,,,,,,,,,,,,,,,,,,,,,,,,,,,,,,,,,,,,,,,,,,,
1742897132.719131,1742897132.719178,13.000000,0.000000,4211.666504,4186.153809,4258.077148,4241.794922,4185.512695,4211.922852,4208.974121,4197.948730,4190.000000,4185.256348,4514.615234,4420.641113,4360.256348,4420.897461,5516.000000,0.000000,11.000000,,,,0.000000,4.000000,4.000000,4.000000,4.000000,4.000000,4.000000,4.000000,4.000000,4.000000,4.000000,4.000000,4.000000,4.000000,4.000000,100.000000,,,,,,,,,,,,,,,,,,,,,,,,,,,,,,,,,,,,,,,,,,,,,,,,,,,,,,,,,,,,,,,,,,,,,,,,,,,,,,,,,,,,,,,,,,,,,,,,,,,,,,,,,,,,,,,,,,,,,,,,,,,,,,,,,
1742897132.726939,1742897132.727086,14.000000,0.000000,4217.820313,4197.051270,4265.384766,4248.846191,4190.769043,4209.358887,4203.589844,4196.538574,4192.307617,4189.230957,4520.128418,4424.230957,4367.948730,4428.333496,5784.000000,0.000000,11.000000,,,,0.000000,4.000000,4.000000,4.000000,4.000000,4.000000,4.000000,4.000000,4.000000,4.000000,4.000000,4.000000,4.000000,4.000000,4.000000,100.000000,,,,,,,,,,,,,,,,,,,,,,,,,,,,,,,,,,,,,,,,,,,,,,,,,,,,,,,,,,,,,,,,,,,,,,,,,,,,,,,,,,,,,,,,,,,,,,,,,,,,,,,,,,,,,,,,,,,,,,,,,,,,,,,,,
1742897132.734747,1742897132.734894,15.000000,0.000000,4226.794922,4204.743652,4274.743652,4249.743652,4198.717773,4211.922852,4209.230957,4198.846191,4192.820313,4196.410156,4526.282227,4433.205078,4366.282227,4437.436035,6140.000000,0.000000,11.000000,,,,0.000000,4.000000,4.000000,4.000000,4.000000,4.000000,4.000000,4.000000,4.000000,4.000000,4.000000,4.000000,4.000000,4.000000,4.000000,100.000000,,,,,,,,,,,,,,,,,,,,,,,,,,,,,,,,,,,,,,,,,,,,,,,,,,,,,,,,,,,,,,,,,,,,,,,,,,,,,,,,,,,,,,,,,,,,,,,,,,,,,,,,,,,,,,,,,,,,,,,,,,,,,,,,,
1742897132.742555,1742897132.742802,16.000000,0.000000,4230.641113,4203.461426,4281.538574,4249.102539,4194.487305,4215.384766,4219.743652,4201.282227,4189.230957,4197.692383,4528.333496,4441.666504,4365.897461,4439.743652,0.000000,0.000000,11.000000,,,,0.000000,4.000000,4.000000,4.000000,4.000000,4.000000,4.000000,4.000000,4.000000,4.000000,4.000000,4.000000,4.000000,4.000000,4.000000,100.000000,,,,,,,,,,,,,,,,,4.000000,0.000000,0.679703,-0.219849,-0.681519,-0.158752,0.984984,-0.070321,-0.023440,-42.409065,-6.451917,38.955555,,,,,,,,,,,,,,,,,,,,,,,,,,,,,,,,,,,,,,,,,,,,,,,,,,,,,,,,,,,,,,,,,,,,,,,,,,,,,,,,,,,,,,,,,,,,,,,,,,,,,
1742897132.750363,1742897132.750610,17.000000,0.000000,4222.692383,4199.743652,4278.717773,4250.128418,4182.692383,4206.538574,4206.153809,4199.871582,4190.256348,4191.153809,4527.692383,4435.256348,4360.384766,4437.307617,0.000000,0.000000,11.000000,,,,0.000000,4.000000,4.000000,4.000000,4.000000,4.000000,4.000000,4.000000,4.000000,4.000000,4.000000,4.000000,4.000000,4.000000,4.000000,100.000000,,,,,,,,,,,,,,,,,,,,,,,,,,,,,,,,,,,,,,,,,,,,,,,,,,,,,,,,,,,,17.415291,3.260265,0.554920,0.246692,0.249877,7.840188,4.127763,0.369495,0.209139,0.247310,4.595050,1.936812,0.425646,0.209755,0.226759,3.685164,3.784726,0.595696,0.272561,0.332152,0.771172,1.581912,0.099416,0.261964,0.164624,0.319721,0.268666,0.373563,0.157906,0.181040,0.708262,1.189567,0.566481,0.496290,0.411044,2.513878,1.948192,0.824192,0.538869,0.493691,0.640855,0.681893,0.341568,0.165947,0.233038,1.124336,1.112535,0.347201,0.169640,0.307121,4.298936,2.253042,0.615543,0.319460,0.328223,3.860722,2.335041,0.739275,0.261584,0.261894,13.261556,2.525196,0.570501,0.227693,0.339025,20.194820,3.593602,0.539167,0.307888,0.291902
1742897132.758171,1742897132.758518,18.000000,0.000000,4217.307617,4197.307617,4267.307617,4248.717773,4177.051270,4198.717773,4184.615234,4190.128418,4188.333496,4186.282227,4524.230957,4422.436035,4350.897461,4432.179688,0.000000,0.000000,11.000000,,,,0.000000,4.000000,4.000000,4.000000,4.000000,4.000000,4.000000,4.000000,4.000000,4.000000,4.000000,4.000000,4.000000,4.000000,4.000000,100.000000,,,,,,,,,,,,,,,,,,,,,,,,,,,,,,,,,,,,,,,,,,,,,,,,,,,,,,,,,,,,,,,,,,,,,,,,,,,,,,,,,,,,,,,,,,,,,,,,,,,,,,,,,,,,,,,,,,,,,,,,,,,,,,,,,
1742897132.765979,1742897132.766326,19.000000,0.000000,4215.897461,4190.641113,4256.410156,4242.307617,4179.487305,4203.205078,4189.487305,4185.769043,4185.128418,4186.922852,4519.358887,4423.077148,4352.436035,4423.461426,0.000000,0.000000,11.000000,,,,0.000000,4.000000,4.000000,4.000000,4.000000,4.000000,4.000000,4.000000,4.000000,4.000000,4.000000,4.000000,4.000000,4.000000,4.000000,100.000000,,,,,,,,,,,,,,,,,,,,,,,,,,,,,,,,,,,,,,,,,,,,,,,,,,,,,,,,,,,,,,,,,,,,,,,,,,,,,,,,,,,,,,,,,,,,,,,,,,,,,,,,,,,,,,,,,,,,,,,,,,,,,,,,,
1742897132.773787,1742897132.774233,20.000000,0.000000,4208.077148,4186.025879,4254.487305,4237.051270,4184.230957,4209.230957,4204.102539,4196.794922,4192.307617,4187.179688,4513.077148,4426.666504,4352.307617,4417.820313,0.000000,0.000000,11.000000,,,,0.000000,4.000000,4.000000,4.000000,4.000000,4.000000,4.000000,4.000000,4.000000,4.000000,4.000000,4.000000,4.000000,4.000000,4.000000,100.000000,,,,,,,,,,,,,,,,,5.000000,0.000000,0.679788,-0.220825,-0.681274,-0.158081,0.980100,-0.068368,-0.019045,-42.351490,-6.473392,39.076664,,,,,,,,,,,,,,,,,,,,,,,,,,,,,,,,,,,,,,,,,,,,,,,,,,,,,,,,,,,,,,,,,,,,,,,,,,,,,,,,,,,,,,,,,,,,,,,,,,,,,
1742897132.781595,1742897132.782041,21.000000,0.000000,4199.487305,4183.846191,4255.384766,4234.743652,4188.205078,4208.205078,4205.641113,4201.410156,4196.025879,4186.153809,4505.000000,4421.538574,4343.333496,4414.358887,0.000000,0.000000,11.000000,,,,0.000000,4.000000,4.000000,4.000000,4.000000,4.000000,4.000000,4.000000,4.000000,4.000000,4.000000,4.000000,4.000000,4.000000,4.000000,100.000000,,,,,,,,,,,,,,,,,,,,,,,,,,,,,,,,,,,,,,,,,,,,,,,,,,,,,,,,,,,,,,,,,,,,,,,,,,,,,,,,,,,,,,,,,,,,,,,,,,,,,,,,,,,,,,,,,,,,,,,,,,,,,,,,,
1742897132.789404,1742897132.789749,22.000000,0.000000,4196.025879,4178.846191,4251.153809,4232.179688,4186.153809,4205.897461,4205.897461,4195.128418,4191.538574,4183.717773,4502.692383,4415.897461,4337.436035,4402.179688,0.000000,0.000000,11.000000,,,,0.000000,4.000000,4.000000,4.000000,4.000000,4.000000,4.000000,4.000000,4.000000,4.000000,4.000000,4.000000,4.000000,4.000000,4.000000,100.000000,,,,,,,,,,,,,,,,,,,,,,,,,,,,,,,,,,,,,,,,,,,,,,,,,,,,,,,,,,,,,,,,,,,,,,,,,,,,,,,,,,,,,,,,,,,,,,,,,,,,,,,,,,,,,,,,,,,,,,,,,,,,,,,,,
1742897132.797212,1742897132.797557,23.000000,0.000000,4199.102539,4185.512695,4246.922852,4232.179688,4183.461426,4206.538574,4207.179688,4196.282227,4193.717773,4189.102539,4508.205078,4416.282227,4341.153809,4399.102539,0.000000,0.000000,11.000000,,,,0.000000,4.000000,4.000000,4.000000,4.000000,4.000000,4.000000,4.000000,4.000000,4.000000,4.000000,4.000000,4.000000,4.000000,4.000000,100.000000,,,,,,,,,,,,,,,,,,,,,,,,,,,,,,,,,,,,,,,,,,,,,,,,,,,,,,,,,,,,,,,,,,,,,,,,,,,,,,,,,,,,,,,,,,,,,,,,,,,,,,,,,,,,,,,,,,,,,,,,,,,,,,,,,
1742897132.805020,1742897132.805365,24.000000,0.000000,4197.307617,4180.512695,4250.897461,4231.666504,4183.589844,4207.051270,4210.000000,4208.974121,4202.692383,4197.563965,4511.538574,4419.871582,4343.846191,4407.051270,0.000000,0.000000,11.000000,,,,0.000000,4.000000,4.000000,4.000000,4.000000,4.000000,4.000000,4.000000,4.000000,4.000000,4.000000,4.000000,4.000000,4.000000,4.000000,100.000000,,,,,,,,,,,,,,,,,6.000000,0.000000,0.679709,-0.221619,-0.681335,-0.157043,1.001099,-0.081553,-0.021975,-42.216343,-6.459386,38.968998,,,,,,,,,,,,,,,,,,,,,,,,,,,,,,,,,,,,,,,,,,,,,,,,,,,,,,,,,,,,,,,,,,,,,,,,,,,,,,,,,,,,,,,,,,,,,,,,,,,,,
1742897132.812828,1742897132.813173,25.000000,0.000000,4188.205078,4161.410156,4253.974121,4229.102539,4184.102539,4205.000000,4215.000000,4212.948730,4200.897461,4194.230957,4502.563965,4418.974121,4333.846191,4401.538574,0.000000,0.000000,11.000000,,,,0.000000,4.000000,4.000000,4.000000,4.000000,4.000000,4.000000,4.000000,4.000000,4.000000,4.000000,4.000000,4.000000,4.000000,4.000000,100.000000,,,,,,,,,,,,,,,,,,,,,,,,,,,,,,,,,,,,,,,,,,,,,,,,,,,,,,,,,,,,,,,,,,,,,,,,,,,,,,,,,,,,,,,,,,,,,,,,,,,,,,,,,,,,,,,,,,,,,,,,,,,,,,,,,
1742897132.820636,1742897132.820881,26.000000,0.000000,4198.717773,4181.538574,4254.230957,4235.641113,4185.897461,4204.230957,4211.025879,4203.205078,4190.512695,4187.179688,4494.743652,4416.025879,4324.615234,4398.717773,0.000000,0.000000,11.000000,,,,0.000000,4.000000,4.000000,4.000000,4.000000,4.000000,4.000000,4.000000,4.000000,4.000000,4.000000,4.000000,4.000000,4.000000,4.000000,100.000000,,,,,,,,,,,,,,,,,,,,,,,,,,,,,,,,,,,,,,,,,,,,,,,,,,,,,,,,,,,,,,,,,,,,,,,,,,,,,,,,,,,,,,,,,,,,,,,,,,,,,,,,,,,,,,,,,,,,,,,,,,,,,,,,,
1742897132.828444,1742897132.828789,27.000000,0.000000,4226.025879,4227.179688,4259.230957,4251.794922,4189.358887,4209.487305,4204.615234,4198.717773,4186.538574,4182.436035,4497.051270,4418.333496,4326.666504,4418.461426,0.000000,0.000000,11.000000,,,,0.000000,4.000000,4.000000,4.000000,4.000000,4.000000,4.000000,4.000000,4.000000,4.000000,4.000000,4.000000,4.000000,4.000000,4.000000,100.000000,,,,,,,,,,,,,,,,,,,,,,,,,,,,,,,,,,,,,,,,,,,,,,,,,,,,,,,,,,,,,,,,,,,,,,,,,,,,,,,,,,,,,,,,,,,,,,,,,,,,,,,,,,,,,,,,,,,,,,,,,,,,,,,,,
1742897132.836252,1742897132.836597,28.000000,0.000000,4237.563965,4246.282227,4262.436035,4261.794922,4193.589844,4211.282227,4203.205078,4198.717773,4183.846191,4171.794922,4490.897461,4417.692383,4316.794922,4430.256348,0.000000,0.000000,11.000000,,,,0.000000,4.000000,4.000000,4.000000,4.000000,4.000000,4.000000,4.000000,4.000000,4.000000,4.000000,4.000000,4.000000,4.000000,4.000000,100.000000,,,,,,,,,,,,,,,,,7.000000,0.000000,0.679538,-0.222168,-0.681580,-0.155945,0.989379,-0.102552,-0.037114,-42.128040,-6.463447,39.105431,,,,,,,,,,,,,,,,,,,,,,,,,,,,,,,,,,,,,,,,,,,,,,,,,,,,,,,,,,,,,,,,,,,,,,,,,,,,,,,,,,,,,,,,,,,,,,,,,,,,,
1742897132.844060,1742897132.844405,29.000000,0.000000,4240.000000,4253.461426,4263.589844,4263.077148,4195.512695,4204.487305,4193.589844,4186.922852,4176.666504,4162.307617,4473.974121,4412.692383,4292.820313,4422.692383,0.000000,0.000000,11.000000,,,,0.000000,4.000000,4.000000,4.000000,4.000000,4.000000,4.000000,4.000000,4.000000,4.000000,4.000000,4.000000,4.000000,4.000000,4.000000,100.000000,,,,,,,,,,,,,,,,,,,,,,,,,,,,,,,,,,,,,,,,,,,,,,,,,,,,,,,,,,,,,,,,,,,,,,,,,,,,,,,,,,,,,,,,,,,,,,,,,,,,,,,,,,,,,,,,,,,,,,,,,,,,,,,,,
1742897132.851868,1742897132.852113,30.000000,0.000000,4252.820313,4267.436035,4271.153809,4270.512695,4199.743652,4203.589844,4185.512695,4177.948730,4175.641113,4167.179688,4473.461426,4412.051270,4288.589844,4425.897461,0.000000,0.000000,11.000000,,,,0.000000,4.000000,4.000000,4.000000,4.000000,4.000000,4.000000,4.000000,4.000000,4.000000,4.000000,4.000000,4.000000,4.000000,4.000000,100.000000,,,,,,,,,,,,,,,,,,,,,,,,,,,,,,,,,,,,,,,,,,,,,,,,,,,,,,,,,,,,,,,,,,,,,,,,,,,,,,,,,,,,,,,,,,,,,,,,,,,,,,,,,,,,,,,,,,,,,,,,,,,,,,,,,
1742897132.859676,1742897132.860021,31.000000,0.000000,4254.871582,4268.974121,4280.128418,4277.179688,4203.717773,4208.589844,4194.871582,4189.358887,4184.102539,4173.077148,4488.974121,4418.589844,4299.102539,4434.743652,0.000000,0.000000,11.000000,,,,0.000000,4.000000,4.000000,4.000000,4.000000,4.000000,4.000000,4.000000,4.000000,4.000000,4.000000,4.000000,4.000000,4.000000,4.000000,100.000000,,,,,,,,,,,,,,,,,,,,,,,,,,,,,,,,,,,,,,,,,,,,,,,,,,,,,,,,,,,,,,,,,,,,,,,,,,,,,,,,,,,,,,,,,,,,,,,,,,,,,,,,,,,,,,,,,,,,,,,,,,,,,,,,,
1742897132.867484,1742897132.867829,32.000000,0.000000,4239.358887,4259.487305,4278.461426,4272.948730,4199.743652,4209.230957,4198.077148,4195.897461,4185.000000,4169.230957,4489.615234,4418.461426,4294.358887,4425.384766,0.000000,0.000000,11.000000,,,,0.000000,4.000000,4.000000,4.000000,4.000000,4.000000,4.000000,4.000000,4.000000,4.000000,4.000000,4.000000,4.000000,4.000000,4.000000,100.000000,,,,,,,,,,,,,,,,,8.000000,0.000000,0.679668,-0.222656,-0.681458,-0.155212,0.983030,-0.098645,-0.017092,-42.148571,-6.450436,39.044888,,,,,,,,,,,,,,,,,,,,,,,,,,,,,,,,,,,,,,,,,,,,,,,,,,,,,,,,,,,,,,,,,,,,,,,,,,,,,,,,,,,,,,,,,,,,,,,,,,,,,
1742897132.875292,1742897132.875737,33.000000,0.000000,4227.948730,4249.230957,4272.692383,4265.641113,4198.589844,4209.487305,4194.487305,4187.563965,4179.487305,4167.692383,4482.820313,4411.025879,4287.307617,4412.179688,0.000000,0.000000,11.000000,,,,0.000000,4.000000,4.000000,4.000000,4.000000,4.000000,4.000000,4.000000,4.000000,4.000000,4.000000,4.000000,4.000000,4.000000,4.000000,100.000000,,,,,,,,,,,,,,,,,,,,,,,,,,,,,,,,,,,,,,,,,,,,,,,,,,,,,,,,,,,,8.051518,2.686840,0.709786,0.240897,0.225718,3.851518,3.450050,0.394100,0.214035,0.226088,2.602428,1.829855,0.571339,0.222829,0.200540,2.069439,3.295604,0.636371,0.242995,0.275611,0.508555,1.579262,0.073548,0.234170,0.147521,0.289881,0.309480,0.352723,0.144517,0.177556,0.532318,1.093657,0.552301,0.481721,0.405253,2.245588,1.610798,0.797942,0.432378,0.436312,0.528512,0.571429,0.381325,0.150939,0.188200,0.761545,1.008229,0.416099,0.146546,0.244803,2.517388,2.298108,0.630849,0.235056,0.289343,2.184705,2.152336,0.801338,0.197154,0.221176,6.986182,2.418304,0.544264,0.164021,0.318871,9.681950,3.222136,0.551726,0.254836,0.258775
1742897132.883101,1742897132.883545,34.000000,0.000000,4230.128418,4243.461426,4274.743652,4263.461426,4200.000000,4212.563965,4203.461426,4192.820313,4184.102539,4170.641113,4488.205078,4414.743652,4294.230957,4412.820313,0.000000,0.000000,11.000000,,,,0.000000,4.000000,4.000000,4.000000,4.000000,4.000000,4.000000,4.000000,4.000000,4.000000,4.000000,4.000000,4.000000,4.000000,4.000000,100.000000,,,,,,,,,,,,,,,,,,,,,,,,,,,,,,,,,,,,,,,,,,,,,,,,,,,,,,,,,,,,,,,,,,,,,,,,,,,,,,,,,,,,,,,,,,,,,,,,,,,,,,,,,,,,,,,,,,,,,,,,,,,,,,,,,
1742897132.890909,1742897132.891453,35.000000,0.000000,4235.769043,4249.871582,4278.461426,4266.410156,4193.846191,4211.666504,4206.282227,4201.025879,4184.615234,4173.461426,4493.974121,4419.615234,4295.769043,4413.846191,0.000000,0.000000,11.000000,,,,0.000000,4.000000,4.000000,4.000000,4.000000,4.000000,4.000000,4.000000,4.000000,4.000000,4.000000,4.000000,4.000000,4.000000,4.000000,100.000000,,,,,,,,,,,,,,,,,,,,,,,,,,,,,,,,,,,,,,,,,,,,,,,,,,,,,,,,,,,,,,,,,,,,,,,,,,,,,,,,,,,,,,,,,,,,,,,,,,,,,,,,,,,,,,,,,,,,,,,,,,,,,,,,,
1742897132.898717,1742897132.899261,36.000000,0.000000,4226.410156,4245.641113,4268.589844,4259.743652,4190.256348,4207.179688,4192.436035,4185.641113,4169.230957,4169.358887,4480.384766,4400.384766,4282.563965,4400.000000,0.000000,0.000000,11.000000,,,,0.000000,4.000000,4.000000,4.000000,4.000000,4.000000,4.000000,4.000000,4.000000,4.000000,4.000000,4.000000,4.000000,4.000000,4.000000,100.000000,,,,,,,,,,,,,,,,,9.000000,0.000000,0.679737,-0.222778,-0.681335,-0.155273,0.978147,-0.115737,-0.025394,-42.200378,-6.522059,38.940399,,,,,,,,,,,,,,,,,,,,,,,,,,,,,,,,,,,,,,,,,,,,,,,,,,,,,,,,,,,,,,,,,,,,,,,,,,,,,,,,,,,,,,,,,,,,,,,,,,,,,
1742897132.906525,1742897132.907069,37.000000,0.000000,4208.589844,4229.871582,4251.153809,4246.025879,4196.666504,4207.051270,4187.051270,4173.205078,4164.743652,4163.589844,4463.589844,4381.410156,4273.717773,4387.692383,0.000000,0.000000,11.000000,,,,0.000000,4.000000,4.000000,4.000000,4.000000,4.000000,4.000000,4.000000,4.000000,4.000000,4.000000,4.000000,4.000000,4.000000,4.000000,100.000000,,,,,,,,,,,,,,,,,,,,,,,,,,,,,,,,,,,,,,,,,,,,,,,,,,,,,,,,,,,,,,,,,,,,,,,,,,,,,,,,,,,,,,,,,,,,,,,,,,,,,,,,,,,,,,,,,,,,,,,,,,,,,,,,,
1742897132.914333,1742897132.914777,38.000000,0.000000,4212.563965,4226.410156,4252.051270,4245.897461,4200.769043,4208.461426,4195.000000,4184.358887,4176.538574,4167.692383,4470.000000,4390.641113,4277.563965,4397.307617,0.000000,0.000000,11.000000,,,,0.000000,4.000000,4.000000,4.000000,4.000000,4.000000,4.000000,4.000000,4.000000,4.000000,4.000000,4.000000,4.000000,4.000000,4.000000,100.000000,,,,,,,,,,,,,,,,,,,,,,,,,,,,,,,,,,,,,,,,,,,,,,,,,,,,,,,,,,,,,,,,,,,,,,,,,,,,,,,,,,,,,,,,,,,,,,,,,,,,,,,,,,,,,,,,,,,,,,,,,,,,,,,,,
1742897132.922141,1742897132.922685,39.000000,0.000000,4227.051270,4232.692383,4262.820313,4257.179688,4202.820313,4208.461426,4202.436035,4194.102539,4176.794922,4169.615234,4481.282227,4401.666504,4282.692383,4408.974121,0.000000,0.000000,11.000000,,,,0.000000,4.000000,4.000000,4.000000,4.000000,4.000000,4.000000,4.000000,4.000000,4.000000,4.000000,4.000000,4.000000,4.000000,4.000000,100.000000,,,,,,,,,,,,,,,,,,,,,,,,,,,,,,,,,,,,,,,,,,,,,,,,,,,,,,,,,,,,,,,,,,,,,,,,,,,,,,,,,,,,,,,,,,,,,,,,,,,,,,,,,,,,,,,,,,,,,,,,,,,,,,,,,
1742897132.929949,1742897132.930493,40.000000,0.000000,4226.153809,4236.153809,4264.615234,4262.692383,4212.051270,4213.461426,4213.333496,4193.333496,4167.948730,4160.000000,4479.871582,4394.871582,4283.333496,4403.846191,0.000000,0.000000,11.000000,,,,0.000000,4.000000,4.000000,4.000000,4.000000,4.000000,4.000000,4.000000,4.000000,4.000000,4.000000,4.000000,4.000000,4.000000,4.000000,100.000000,,,,,,,,,,,,,,,,,10.000000,0.000000,0.679968,-0.223022,-0.680969,-0.155518,0.986937,-0.093761,-0.023440,-42.213676,-6.803186,38.979694,,,,,,,,,,,,,,,,,,,,,,,,,,,,,,,,,,,,,,,,,,,,,,,,,,,,,,,,,,,,,,,,,,,,,,,,,,,,,,,,,,,,,,,,,,,,,,,,,,,,,
1742897132.937757,1742897132.938401,41.000000,0.000000,4220.512695,4235.256348,4267.051270,4261.153809,4212.307617,4216.410156,4218.589844,4191.922852,4170.769043,4158.461426,4474.230957,4393.077148,4280.641113,4400.641113,0.000000,0.000000,11.000000,,,,0.000000,4.000000,4.000000,4.000000,4.000000,4.000000,4.000000,4.000000,4.000000,4.000000,4.000000,4.000000,4.000000,4.000000,4.000000,100.000000,,,,,,,,,,,,,,,,,,,,,,,,,,,,,,,,,,,,,,,,,,,,,,,,,,,,,,,,,,,,,,,,,,,,,,,,,,,,,,,,,,,,,,,,,,,,,,,,,,,,,,,,,,,,,,,,,,,,,,,,,,,,,,,,,
1742897132.945565,1742897132.946209,42.000000,0.000000,4221.666504,4232.948730,4271.538574,4257.051270,4201.282227,4207.563965,4204.358887,4185.641113,4175.769043,4166.153809,4475.256348,4396.025879,4275.512695,4404.358887,0.000000,0.000000,11.000000,,,,0.000000,4.000000,4.000000,4.000000,4.000000,4.000000,4.000000,4.000000,4.000000,4.000000,4.000000,4.000000,4.000000,4.000000,4.000000,100.000000,,,,,,,,,,,,,,,,,,,,,,,,,,,,,,,,,,,,,,,,,,,,,,,,,,,,,,,,,,,,,,,,,,,,,,,,,,,,,,,,,,,,,,,,,,,,,,,,,,,,,,,,,,,,,,,,,,,,,,,,,,,,,,,,,
1742897132.953374,1742897132.954116,43.000000,0.000000,4220.641113,4231.922852,4268.205078,4249.743652,4198.589844,4202.563965,4192.563965,4174.358887,4169.487305,4164.615234,4477.692383,4389.230957,4279.358887,4402.436035,0.000000,0.000000,11.000000,,,,0.000000,4.000000,4.000000,4.000000,4.000000,4.000000,4.000000,4.000000,4.000000,4.000000,4.000000,4.000000,4.000000,4.000000,4.000000,100.000000,,,,,,,,,,,,,,,,,,,,,,,,,,,,,,,,,,,,,,,,,,,,,,,,,,,,,,,,,,,,,,,,,,,,,,,,,,,,,,,,,,,,,,,,,,,,,,,,,,,,,,,,,,,,,,,,,,,,,,,,,,,,,,,,,
1742897132.961182,1742897132.961924,44.000000,0.000000,4217.179688,4233.589844,4260.512695,4249.102539,4197.563965,4208.333496,4195.897461,4172.692383,4163.589844,4156.666504,4475.897461,4383.461426,4281.282227,4396.025879,0.000000,0.000000,11.000000,,,,0.000000,4.000000,4.000000,4.000000,4.000000,4.000000,4.000000,4.000000,4.000000,4.000000,4.000000,4.000000,4.000000,4.000000,4.000000,100.000000,,,,,,,,,,,,,,,,,11.000000,0.000000,0.680330,-0.223083,-0.680420,-0.156250,0.980588,-0.088878,-0.012697,-42.242310,-6.822868,39.031723,,,,,,,,,,,,,,,,,,,,,,,,,,,,,,,,,,,,,,,,,,,,,,,,,,,,,,,,,,,,,,,,,,,,,,,,,,,,,,,,,,,,,,,,,,,,,,,,,,,,,
1742897132.968990,1742897132.969632,45.000000,0.000000,4214.358887,4231.666504,4256.666504,4251.153809,4193.589844,4209.230957,4199.487305,4181.538574,4166.922852,4154.358887,4467.692383,4384.871582,4264.358887,4389.358887,0.000000,0.000000,11.000000,,,,0.000000,4.000000,4.000000,4.000000,4.000000,4.000000,4.000000,4.000000,4.000000,4.000000,4.000000,4.000000,4.000000,4.000000,4.000000,100.000000,,,,,,,,,,,,,,,,,,,,,,,,,,,,,,,,,,,,,,,,,,,,,,,,,,,,,,,,,,,,,,,,,,,,,,,,,,,,,,,,,,,,,,,,,,,,,,,,,,,,,,,,,,,,,,,,,,,,,,,,,,,,,,,,,
1742897132.976798,1742897132.977440,46.000000,0.000000,4210.769043,4226.922852,4256.666504,4246.282227,4192.307617,4206.410156,4196.794922,4185.897461,4171.794922,4158.974121,4462.820313,4387.051270,4262.179688,4387.179688,0.000000,0.000000,11.000000,,,,0.000000,4.000000,4.000000,4.000000,4.000000,4.000000,4.000000,4.000000,4.000000,4.000000,4.000000,4.000000,4.000000,4.000000,4.000000,100.000000,,,,,,,,,,,,,,,,,,,,,,,,,,,,,,,,,,,,,,,,,,,,,,,,,,,,,,,,,,,,,,,,,,,,,,,,,,,,,,,,,,,,,,,,,,,,,,,,,,,,,,,,,,,,,,,,,,,,,,,,,,,,,,,,,
1742897132.984606,1742897132.985348,47.000000,0.000000,4214.487305,4227.820313,4261.410156,4243.589844,4190.000000,4204.743652,4192.307617,4184.102539,4173.717773,4166.666504,4472.436035,4393.205078,4286.666504,4396.794922,0.000000,0.000000,11.000000,,,,0.000000,4.000000,4.000000,4.000000,4.000000,4.000000,4.000000,4.000000,4.000000,4.000000,4.000000,4.000000,4.000000,4.000000,4.000000,100.000000,,,,,,,,,,,,,,,,,,,,,,,,,,,,,,,,,,,,,,,,,,,,,,,,,,,,,,,,,,,,,,,,,,,,,,,,,,,,,,,,,,,,,,,,,,,,,,,,,,,,,,,,,,,,,,,,,,,,,,,,,,,,,,,,,
1742897132.992414,1742897132.993156,48.000000,0.000000,4226.282227,4231.025879,4266.538574,4249.743652,4188.589844,4202.948730,4192.436035,4182.563965,4175.256348,4168.077148,4476.794922,4397.307617,4292.051270,4404.487305,0.000000,0.000000,11.000000,,,,0.000000,4.000000,4.000000,4.000000,4.000000,4.000000,4.000000,4.000000,4.000000,4.000000,4.000000,4.000000,4.000000,4.000000,4.000000,100.000000,,,,,,,,,,,,,,,,,12.000000,0.000000,0.680803,-0.222900,-0.679810,-0.157104,0.982542,-0.079600,-0.016115,-42.151409,-6.790581,38.995220,,,,,,,,,,,,,,,,,,,,,,,,,,,,,,,,,,,,,,,,,,,,,,,,,,,,,,,,,,,,,,,,,,,,,,,,,,,,,,,,,,,,,,,,,,,,,,,,,,,,,
1742897133.000222,1742897133.000864,49.000000,0.000000,4230.128418,4231.666504,4268.974121,4256.922852,4193.461426,4205.512695,4196.282227,4185.256348,4176.153809,4165.000000,4473.974121,4398.461426,4280.384766,4400.897461,0.000000,0.000000,11.000000,,,,0.000000,4.000000,4.000000,4.000000,4.000000,4.000000,4.000000,4.000000,4.000000,4.000000,4.000000,4.000000,4.000000,4.000000,4.000000,100.000000,1.000000,100.000000,4.000000,4.000000,4.000000,4.000000,4.000000,4.000000,4.000000,4.000000,4.000000,4.000000,4.000000,4.000000,4.000000,4.000000,,,,,,,,,,,,,,,,,,,,,,,,,,,,,,,,,,,,,,,,,,,,3.037800,2.204194,0.926902,0.251905,0.193169,2.013407,2.692679,0.465842,0.235828,0.206883,1.467000,1.678881,0.738509,0.248855,0.169895,1.191341,2.614920,0.687474,0.219997,0.233746,0.330095,1.421834,0.097968,0.203906,0.131915,0.284089,0.364894,0.339060,0.134494,0.171098,0.436065,1.006528,0.557324,0.471995,0.390760,1.874750,1.290409,0.752541,0.343206,0.368435,0.422432,0.455392,0.391558,0.136989,0.144237,0.515393,0.931881,0.482069,0.144317,0.182260,1.541628,2.399463,0.656184,0.170579,0.239350,1.230602,1.959948,0.844296,0.144248,0.175140,3.716932,2.569176,0.614416,0.144041,0.293333,3.710290,2.822855,0.643934,0.226824,0.220969
1742897133.008030,1742897133.008672,50.000000,0.000000,4227.948730,4232.307617,4274.743652,4261.666504,4194.230957,4207.307617,4195.769043,4189.230957,4177.948730,4169.615234,4481.282227,4403.205078,4287.948730,4404.871582,0.000000,0.000000,11.000000,,,,0.000000,4.000000,4.000000,4.000000,4.000000,4.000000,4.000000,4.000000,4.000000,4.000000,4.000000,4.000000,4.000000,4.000000,4.000000,100.000000,,,,,,,,,,,,,,,,,,,,,,,,,,,,,,,,,,,,,,,,,,,,,,,,,,,,,,,,,,,,,,,,,,,,,,,,,,,,,,,,,,,,,,,,,,,,,,,,,,,,,,,,,,,,,,,,,,,,,,,,,,,,,,,,,
1742897133.015838,1742897133.016380,51.000000,0.000000,4230.256348,4232.692383,4280.641113,4262.820313,4187.820313,4203.717773,4193.461426,4189.102539,4181.282227,4173.589844,4493.205078,4408.461426,4300.128418,4415.769043,0.000000,0.000000,11.000000,,,,0.000000,4.000000,4.000000,4.000000,4.000000,4.000000,4.000000,4.000000,4.000000,4.000000,4.000000,4.000000,4.000000,4.000000,4.000000,100.000000,,,,,,,,,,,,,,,,,,,,,,,,,,,,,,,,,,,,,,,,,,,,,,,,,,,,,,,,,,,,,,,,,,,,,,,,,,,,,,,,,,,,,,,,,,,,,,,,,,,,,,,,,,,,,,,,,,,,,,,,,,,,,,,,,
1742897133.023646,1742897133.024188,52.000000,0.000000,4234.230957,4230.128418,4277.563965,4258.077148,4187.692383,4204.487305,4196.282227,4188.333496,4180.000000,4171.538574,4492.820313,4404.743652,4294.487305,4416.538574,0.000000,0.000000,11.000000,,,,0.000000,4.000000,4.000000,4.000000,4.000000,4.000000,4.000000,4.000000,4.000000,4.000000,4.000000,4.000000,4.000000,4.000000,4.000000,100.000000,,,,,,,,,,,,,,,,,13.000000,0.000000,0.681288,-0.222717,-0.679199,-0.157898,0.985472,-0.075204,-0.009278,-42.169601,-6.744856,39.062363,,,,,,,,,,,,,,,,,,,,,,,,,,,,,,,,,,,,,,,,,,,,,,,,,,,,,,,,,,,,,,,,,,,,,,,,,,,,,,,,,,,,,,,,,,,,,,,,,,,,,
1742897133.031454,1742897133.031896,53.000000,0.000000,4232.436035,4226.922852,4266.153809,4251.282227,4189.743652,4210.128418,4195.256348,4180.641113,4169.871582,4168.846191,4475.897461,4381.666504,4281.153809,4403.461426,0.000000,0.000000,11.000000,,,,0.000000,4.000000,4.000000,4.000000,4.000000,4.000000,4.000000,4.000000,4.000000,4.000000,4.000000,4.000000,4.000000,4.000000,4.000000,100.000000,,,,,,,,,,,,,,,,,,,,,,,,,,,,,,,,,,,,,,,,,,,,,,,,,,,,,,,,,,,,,,,,,,,,,,,,,,,,,,,,,,,,,,,,,,,,,,,,,,,,,,,,,,,,,,,,,,,,,,,,,,,,,,,,,
1742897133.039262,1742897133.039704,54.000000,0.000000,4226.794922,4221.153809,4262.307617,4249.102539,4187.051270,4210.128418,4191.538574,4167.563965,4156.282227,4164.487305,4465.641113,4360.128418,4278.717773,4390.897461,0.000000,0.000000,11.000000,,,,0.000000,4.000000,4.000000,4.000000,4.000000,4.000000,4.000000,4.000000,4.000000,4.000000,4.000000,4.000000,4.000000,4.000000,4.000000,100.000000,,,,,,,,,,,,,,,,,,,,,,,,,,,,,,,,,,,,,,,,,,,,,,,,,,,,,,,,,,,,,,,,,,,,,,,,,,,,,,,,,,,,,,,,,,,,,,,,,,,,,,,,,,,,,,,,,,,,,,,,,,,,,,,,,
1742897133.047071,1742897133.047412,55.000000,0.000000,4221.666504,4213.846191,4263.205078,4248.846191,4185.000000,4203.205078,4190.897461,4166.538574,4155.769043,4166.025879,4471.538574,4364.871582,4290.256348,4395.897461,0.000000,0.000000,11.000000,,,,0.000000,4.000000,4.000000,4.000000,4.000000,4.000000,4.000000,4.000000,4.000000,4.000000,4.000000,4.000000,4.000000,4.000000,4.000000,100.000000,,,,,,,,,,,,,,,,,,,,,,,,,,,,,,,,,,,,,,,,,,,,,,,,,,,,,,,,,,,,,,,,,,,,,,,,,,,,,,,,,,,,,,,,,,,,,,,,,,,,,,,,,,,,,,,,,,,,,,,,,,,,,,,,,
1742897133.054879,1742897133.055220,56.000000,0.000000,4218.077148,4213.333496,4253.846191,4246.410156,4185.384766,4195.384766,4182.820313,4174.871582,4166.538574,4168.461426,4471.794922,4379.230957,4292.179688,4402.948730,0.000000,0.000000,11.000000,,,,0.000000,4.000000,4.000000,4.000000,4.000000,4.000000,4.000000,4.000000,4.000000,4.000000,4.000000,4.000000,4.000000,4.000000,4.000000,100.000000,,,,,,,,,,,,,,,,,14.000000,0.000000,0.682061,-0.222839,-0.678284,-0.158325,0.999145,-0.092296,-0.006837,-42.219311,-6.787037,38.922794,,,,,,,,,,,,,,,,,,,,,,,,,,,,,,,,,,,,,,,,,,,,,,,,,,,,,,,,,,,,,,,,,,,,,,,,,,,,,,,,,,,,,,,,,,,,,,,,,,,,,
1742897133.062687,1742897133.062928,57.000000,0.000000,4212.436035,4216.538574,4243.717773,4243.974121,4187.051270,4191.410156,4171.794922,4181.025879,4172.307617,4159.230957,4465.000000,4388.717773,4277.948730,4396.282227,0.000000,0.000000,11.000000,,,,0.000000,4.000000,4.000000,4.000000,4.000000,4.000000,4.000000,4.000000,4.000000,4.000000,4.000000,4.000000,4.000000,4.000000,4.000000,100.000000,,,,,,,,,,,,,,,,,,,,,,,,,,,,,,,,,,,,,,,,,,,,,,,,,,,,,,,,,,,,,,,,,,,,,,,,,,,,,,,,,,,,,,,,,,,,,,,,,,,,,,,,,,,,,,,,,,,,,,,,,,,,,,,,,
1742897133.070495,1742897133.070736,58.000000,0.000000,4211.538574,4215.641113,4245.128418,4242.948730,4187.179688,4193.717773,4172.179688,4184.487305,4175.897461,4154.871582,4470.000000,4397.948730,4277.820313,4394.615234,0.000000,0.000000,11.000000,,,,0.000000,4.000000,4.000000,4.000000,4.000000,4.000000,4.000000,4.000000,4.000000,4.000000,4.000000,4.000000,4.000000,4.000000,4.000000,100.000000,,,,,,,,,,,,,,,,,,,,,,,,,,,,,,,,,,,,,,,,,,,,,,,,,,,,,,,,,,,,,,,,,,,,,,,,,,,,,,,,,,,,,,,,,,,,,,,,,,,,,,,,,,,,,,,,,,,,,,,,,,,,,,,,,
1742897133.078303,1742897133.078445,59.000000,0.000000,4213.846191,4213.589844,4250.769043,4242.948730,4186.666504,4196.410156,4182.563965,4190.512695,4182.051270,4161.666504,4470.897461,4406.282227,4287.307617,4402.436035,0.000000,0.000000,11.000000,,,,0.000000,4.000000,4.000000,4.000000,4.000000,4.000000,4.000000,4.000000,4.000000,4.000000,4.000000,4.000000,4.000000,4.000000,4.000000,100.000000,,,,,,,,,,,,,,,,,,,,,,,,,,,,,,,,,,,,,,,,,,,,,,,,,,,,,,,,,,,,,,,,,,,,,,,,,,,,,,,,,,,,,,,,,,,,,,,,,,,,,,,,,,,,,,,,,,,,,,,,,,,,,,,,,
1742897133.086111,1742897133.086252,60.000000,0.000000,4206.922852,4215.897461,4249.358887,4247.820313,4188.846191,4197.179688,4189.615234,4194.487305,4182.436035,4159.615234,4461.410156,4405.128418,4283.333496,4398.205078,0.000000,0.000000,11.000000,,,,0.000000,4.000000,4.000000,4.000000,4.000000,4.000000,4.000000,4.000000,4.000000,4.000000,4.000000,4.000000,4.000000,4.000000,4.000000,100.000000,,,,,,,,,,,,,,,,,15.000000,0.000000,0.682693,-0.222839,-0.677490,-0.158997,0.989867,-0.090343,-0.012209,-42.047379,-6.941667,38.947182,,,,,,,,,,,,,,,,,,,,,,,,,,,,,,,,,,,,,,,,,,,,,,,,,,,,,,,,,,,,,,,,,,,,,,,,,,,,,,,,,,,,,,,,,,,,,,,,,,,,,
1742897133.093919,1742897133.093961,61.000000,0.000000,4197.692383,4215.897461,4242.820313,4244.743652,4191.025879,4199.871582,4187.179688,4189.102539,4176.153809,4151.153809,4461.922852,4396.538574,4277.179688,4386.538574,0.000000,0.000000,11.000000,,,,0.000000,4.000000,4.000000,4.000000,4.000000,4.000000,4.000000,4.000000,4.000000,4.000000,4.000000,4.000000,4.000000,4.000000,4.000000,100.000000,,,,,,,,,,,,,,,,,,,,,,,,,,,,,,,,,,,,,,,,,,,,,,,,,,,,,,,,,,,,,,,,,,,,,,,,,,,,,,,,,,,,,,,,,,,,,,,,,,,,,,,,,,,,,,,,,,,,,,,,,,,,,,,,,
1742897133.101727,1742897133.101769,62.000000,0.000000,4198.205078,4212.307617,4239.358887,4235.641113,4187.179688,4197.692383,4178.589844,4182.179688,4178.717773,4153.205078,4464.358887,4396.153809,4278.846191,4386.666504,0.000000,0.000000,11.000000,,,,0.000000,4.000000,4.000000,4.000000,4.000000,4.000000,4.000000,4.000000,4.000000,4.000000,4.000000,4.000000,4.000000,4.000000,4.000000,100.000000,,,,,,,,,,,,,,,,,,,,,,,,,,,,,,,,,,,,,,,,,,,,,,,,,,,,,,,,,,,,,,,,,,,,,,,,,,,,,,,,,,,,,,,,,,,,,,,,,,,,,,,,,,,,,,,,,,,,,,,,,,,,,,,,,
1742897133.109535,1742897133.109477,63.000000,0.000000,4202.692383,4215.256348,4242.948730,4240.384766,4185.641113,4197.820313,4176.538574,4181.282227,4183.846191,4156.538574,4460.897461,4399.615234,4280.897461,4392.179688,0.000000,0.000000,11.000000,,,,0.000000,4.000000,4.000000,4.000000,4.000000,4.000000,4.000000,4.000000,4.000000,4.000000,4.000000,4.000000,4.000000,4.000000,4.000000,100.000000,,,,,,,,,,,,,,,,,,,,,,,,,,,,,,,,,,,,,,,,,,,,,,,,,,,,,,,,,,,,,,,,,,,,,,,,,,,,,,,,,,,,,,,,,,,,,,,,,,,,,,,,,,,,,,,,,,,,,,,,,,,,,,,,,
1742897133.117343,1742897133.117384,64.000000,0.000000,4200.128418,4219.743652,4244.871582,4246.666504,4190.641113,4203.974121,4181.538574,4184.871582,4181.666504,4153.077148,4461.282227,4397.692383,4281.666504,4388.974121,5080.000000,0.000000,11.000000,,,,0.000000,4.000000,4.000000,4.000000,4.000000,4.000000,4.000000,4.000000,4.000000,4.000000,4.000000,4.000000,4.000000,4.000000,4.000000,100.000000,,,,,,,,,,,,,,,,,16.000000,0.000000,0.682884,-0.222778,-0.677246,-0.159302,0.974240,-0.083995,-0.008790,-42.059307,-6.897500,38.969128,,,,,,,,,,,,,,,,,,,,,,,,,,,,,,,,,,,,,,,,,,,,,,,,,,,,,,,,,,,,,,,,,,,,,,,,,,,,,,,,,,,,,,,,,,,,,,,,,,,,,
1742897133.125152,1742897133.125192,65.000000,0.000000,4193.461426,4213.077148,4237.692383,4236.538574,4190.897461,4201.025879,4180.769043,4183.974121,4181.282227,4150.641113,4458.077148,4392.820313,4276.410156,4380.128418,5459.000000,0.000000,11.000000,,,,0.000000,4.000000,4.000000,4.000000,4.000000,4.000000,4.000000,4.000000,4.000000,4.000000,4.000000,4.000000,4.000000,4.000000,4.000000,100.000000,,,,,,,,,,,,,,,,,,,,,,,,,,,,,,,,,,,,,,,,,,,,,,,,,,,,,,,,,,,,1.221983,1.993932,1.111727,0.268853,0.161537,1.863192,2.145202,0.542611,0.273018,0.194440,0.985175,1.552598,0.867162,0.267902,0.140948,0.894063,1.944122,0.701926,0.205201,0.208883,0.249890,1.149836,0.152662,0.174805,0.120587,0.290428,0.411244,0.334214,0.130628,0.165518,0.402878,0.937278,0.586290,0.459357,0.373138,1.501496,1.048602,0.682057,0.277786,0.305948,0.335321,0.359995,0.374888,0.124223,0.110919,0.417276,0.906882,0.531896,0.153751,0.130945,1.223322,2.537288,0.686557,0.137337,0.192080,0.845124,1.768376,0.860242,0.109446,0.137020,3.115053,3.009106,0.744198,0.159881,0.269390,1.282820,2.540929,0.756994,0.216174,0.187733
1742897133.132959,1742897133.133100,66.000000,0.000000,4188.461426,4208.717773,4231.282227,4227.307617,4186.538574,4192.563965,4176.794922,4177.820313,4178.974121,4145.641113,4446.922852,4384.615234,4265.641113,4370.897461,5439.000000,0.000000,11.000000,,,,0.000000,4.000000,4.000000,4.000000,4.000000,4.000000,4.000000,4.000000,4.000000,4.000000,4.000000,4.000000,4.000000,4.000000,4.000000,100.000000,,,,,,,,,,,,,,,,,,,,,,,,,,,,,,,,,,,,,,,,,,,,,,,,,,,,,,,,,,,,,,,,,,,,,,,,,,,,,,,,,,,,,,,,,,,,,,,,,,,,,,,,,,,,,,,,,,,,,,,,,,,,,,,,,
1742897133.140768,1742897133.140908,67.000000,0.000000,4182.692383,4209.871582,4231.025879,4233.205078,4179.871582,4187.179688,4175.256348,4176.410156,4174.487305,4138.333496,4445.512695,4380.512695,4267.948730,4368.333496,5312.000000,0.000000,11.000000,,,,0.000000,4.000000,4.000000,4.000000,4.000000,4.000000,4.000000,4.000000,4.000000,4.000000,4.000000,4.000000,4.000000,4.000000,4.000000,100.000000,,,,,,,,,,,,,,,,,,,,,,,,,,,,,,,,,,,,,,,,,,,,,,,,,,,,,,,,,,,,,,,,,,,,,,,,,,,,,,,,,,,,,,,,,,,,,,,,,,,,,,,,,,,,,,,,,,,,,,,,,,,,,,,,,
1742897133.148576,1742897133.148816,68.000000,0.000000,4184.615234,4207.307617,4231.025879,4236.538574,4177.820313,4186.666504,4178.461426,4179.871582,4174.102539,4140.641113,4451.666504,4382.820313,4275.641113,4373.974121,5188.000000,0.000000,11.000000,,,,0.000000,4.000000,4.000000,4.000000,4.000000,4.000000,4.000000,4.000000,4.000000,4.000000,4.000000,4.000000,4.000000,4.000000,4.000000,100.000000,,,,,,,,,,,,,,,,,17.000000,0.000000,0.683258,-0.222351,-0.676880,-0.159851,0.983518,-0.073739,0.009278,-42.036709,-6.757750,38.872215,,,,,,,,,,,,,,,,,,,,,,,,,,,,,,,,,,,,,,,,,,,,,,,,,,,,,,,,,,,,,,,,,,,,,,,,,,,,,,,,,,,,,,,,,,,,,,,,,,,,,
1742897133.156384,1742897133.156624,69.000000,0.000000,4193.333496,4209.358887,4232.436035,4234.358887,4178.717773,4188.589844,4178.077148,4178.461426,4173.717773,4144.743652,4449.102539,4383.205078,4271.794922,4378.974121,3358.000000,0.000000,11.000000,,,,0.000000,4.000000,4.000000,4.000000,4.000000,4.000000,4.000000,4.000000,4.000000,4.000000,4.000000,4.000000,4.000000,4.000000,4.000000,100.000000,,,,,,,,,,,,,,,,,,,,,,,,,,,,,,,,,,,,,,,,,,,,,,,,,,,,,,,,,,,,,,,,,,,,,,,,,,,,,,,,,,,,,,,,,,,,,,,,,,,,,,,,,,,,,,,,,,,,,,,,,,,,,,,,,
1742897133.164192,1742897133.164532,70.000000,0.000000,4192.436035,4212.179688,4235.512695,4234.102539,4176.794922,4188.717773,4175.384766,4171.282227,4172.051270,4142.051270,4445.000000,4382.307617,4269.102539,4373.974121,4468.000000,0.000000,11.000000,,,,0.000000,4.000000,4.000000,4.000000,4.000000,4.000000,4.000000,4.000000,4.000000,4.000000,4.000000,4.000000,4.000000,4.000000,4.000000,100.000000,,,,,,,,,,,,,,,,,,,,,,,,,,,,,,,,,,,,,,,,,,,,,,,,,,,,,,,,,,,,,,,,,,,,,,,,,,,,,,,,,,,,,,,,,,,,,,,,,,,,,,,,,,,,,,,,,,,,,,,,,,,,,,,,,
1742897133.172000,1742897133.172340,71.000000,0.000000,4186.538574,4207.051270,4234.615234,4232.692383,4177.563965,4186.025879,4177.307617,4167.692383,4172.563965,4144.487305,4446.666504,4381.410156,4272.563965,4372.820313,4243.000000,0.000000,11.000000,,,,0.000000,4.000000,4.000000,4.000000,4.000000,4.000000,4.000000,4.000000,4.000000,4.000000,4.000000,4.000000,4.000000,4.000000,4.000000,100.000000,,,,,,,,,,,,,,,,,,,,,,,,,,,,,,,,,,,,,,,,,,,,,,,,,,,,,,,,,,,,,,,,,,,,,,,,,,,,,,,,,,,,,,,,,,,,,,,,,,,,,,,,,,,,,,,,,,,,,,,,,,,,,,,,,
1742897133.179808,1742897133.180248,72.000000,0.000000,4192.051270,4207.820313,4235.256348,4236.538574,4178.077148,4187.692383,4173.974121,4172.563965,4175.769043,4151.538574,4450.000000,4382.563965,4273.077148,4382.692383,3627.000000,0.000000,11.000000,,,,0.000000,4.000000,4.000000,4.000000,4.000000,4.000000,4.000000,4.000000,4.000000,4.000000,4.000000,4.000000,4.000000,4.000000,4.000000,100.000000,,,,,,,,,,,,,,,,,18.000000,0.000000,0.683711,-0.221863,-0.676453,-0.160400,0.969845,-0.074716,0.001465,-41.883038,-6.815309,38.934994,,,,,,,,,,,,,,,,,,,,,,,,,,,,,,,,,,,,,,,,,,,,,,,,,,,,,,,,,,,,,,,,,,,,,,,,,,,,,,,,,,,,,,,,,,,,,,,,,,,,,
1742897133.187616,1742897133.188056,73.000000,0.000000,4198.974121,4215.000000,4243.846191,4244.871582,4178.717773,4192.563965,4167.307617,4174.615234,4175.512695,4152.948730,4456.025879,4385.769043,4274.871582,4386.410156,5170.000000,0.000000,11.000000,,,,0.000000,4.000000,4.000000,4.000000,4.000000,4.000000,4.000000,4.000000,4.000000,4.000000,4.000000,4.000000,4.000000,4.000000,4.000000,100.000000,,,,,,,,,,,,,,,,,,,,,,,,,,,,,,,,,,,,,,,,,,,,,,,,,,,,,,,,,,,,,,,,,,,,,,,,,,,,,,,,,,,,,,,,,,,,,,,,,,,,,,,,,,,,,,,,,,,,,,,,,,,,,,,,,
1742897133.195424,1742897133.195764,74.000000,0.000000,4199.743652,4208.717773,4248.974121,4247.436035,4184.102539,4191.794922,4169.358887,4166.538574,4172.436035,4152.179688,4461.666504,4387.692383,4281.410156,4386.922852,5788.000000,0.000000,11.000000,,,,0.000000,4.000000,4.000000,4.000000,4.000000,4.000000,4.000000,4.000000,4.000000,4.000000,4.000000,4.000000,4.000000,4.000000,4.000000,100.000000,,,,,,,,,,,,,,,,,,,,,,,,,,,,,,,,,,,,,,,,,,,,,,,,,,,,,,,,,,,,,,,,,,,,,,,,,,,,,,,,,,,,,,,,,,,,,,,,,,,,,,,,,,,,,,,,,,,,,,,,,,,,,,,,,
1742897133.203232,1742897133.203572,75.000000,0.000000,4195.897461,4198.974121,4238.846191,4241.282227,4185.384766,4190.897461,4174.487305,4163.974121,4174.102539,4153.333496,4459.615234,4389.487305,4280.128418,4390.000000,6142.000000,0.000000,11.000000,,,,0.000000,4.000000,4.000000,4.000000,4.000000,4.000000,4.000000,4.000000,4.000000,4.000000,4.000000,4.000000,4.000000,4.000000,4.000000,100.000000,,,,,,,,,,,,,,,,,,,,,,,,,,,,,,,,,,,,,,,,,,,,,,,,,,,,,,,,,,,,,,,,,,,,,,,,,,,,,,,,,,,,,,,,,,,,,,,,,,,,,,,,,,,,,,,,,,,,,,,,,,,,,,,,,
1742897133.211041,1742897133.211280,76.000000,0.000000,4189.487305,4199.230957,4231.410156,4231.922852,4180.641113,4192.948730,4176.282227,4172.307617,4178.589844,4154.743652,4458.846191,4391.922852,4276.922852,4388.589844,6407.000000,0.000000,11.000000,,,,0.000000,4.000000,4.000000,4.000000,4.000000,4.000000,4.000000,4.000000,4.000000,4.000000,4.000000,4.000000,4.000000,4.000000,4.000000,100.000000,,,,,,,,,,,,,,,,,19.000000,0.000000,0.684257,-0.221313,-0.675964,-0.160889,0.996704,-0.079600,0.007813,-41.844734,-6.800444,38.924828,,,,,,,,,,,,,,,,,,,,,,,,,,,,,,,,,,,,,,,,,,,,,,,,,,,,,,,,,,,,,,,,,,,,,,,,,,,,,,,,,,,,,,,,,,,,,,,,,,,,,
1742897133.218849,1742897133.219088,77.000000,0.000000,4191.282227,4200.897461,4240.128418,4230.384766,4183.333496,4193.077148,4178.333496,4180.641113,4185.128418,4157.563965,4466.153809,4395.128418,4283.589844,4387.436035,5526.000000,0.000000,11.000000,,,,0.000000,4.000000,4.000000,4.000000,4.000000,4.000000,4.000000,4.000000,4.000000,4.000000,4.000000,4.000000,4.000000,4.000000,4.000000,100.000000,,,,,,,,,,,,,,,,,,,,,,,,,,,,,,,,,,,,,,,,,,,,,,,,,,,,,,,,,,,,,,,,,,,,,,,,,,,,,,,,,,,,,,,,,,,,,,,,,,,,,,,,,,,,,,,,,,,,,,,,,,,,,,,,,
1742897133.226657,1742897133.226796,78.000000,0.000000,4200.384766,4200.384766,4247.820313,4240.256348,4187.051270,4191.794922,4176.410156,4185.641113,4190.641113,4157.820313,4467.692383,4405.769043,4289.230957,4392.563965,5788.000000,0.000000,11.000000,,,,0.000000,4.000000,4.000000,4.000000,4.000000,4.000000,4.000000,4.000000,4.000000,4.000000,4.000000,4.000000,4.000000,4.000000,4.000000,100.000000,,,,,,,,,,,,,,,,,,,,,,,,,,,,,,,,,,,,,,,,,,,,,,,,,,,,,,,,,,,,,,,,,,,,,,,,,,,,,,,,,,,,,,,,,,,,,,,,,,,,,,,,,,,,,,,,,,,,,,,,,,,,,,,,,
1742897133.234465,1742897133.234604,79.000000,0.000000,4201.410156,4200.512695,4246.794922,4248.077148,4182.051270,4192.820313,4175.000000,4186.410156,4188.589844,4155.384766,4465.641113,4416.410156,4290.641113,4396.922852,6142.000000,0.000000,11.000000,,,,0.000000,4.000000,4.000000,4.000000,4.000000,4.000000,4.000000,4.000000,4.000000,4.000000,4.000000,4.000000,4.000000,4.000000,4.000000,100.000000,,,,,,,,,,,,,,,,,,,,,,,,,,,,,,,,,,,,,,,,,,,,,,,,,,,,,,,,,,,,,,,,,,,,,,,,,,,,,,,,,,,,,,,,,,,,,,,,,,,,,,,,,,,,,,,,,,,,,,,,,,,,,,,,,
1742897133.242273,1742897133.242312,80.000000,0.000000,4197.179688,4202.436035,4241.153809,4245.769043,4184.871582,4196.282227,4179.230957,4183.974121,4183.205078,4155.897461,4467.179688,4408.974121,4290.641113,4393.974121,6407.000000,0.000000,11.000000,,,,0.000000,4.000000,4.000000,4.000000,4.000000,4.000000,4.000000,4.000000,4.000000,4.000000,4.000000,4.000000,4.000000,4.000000,4.000000,100.000000,,,,,,,,,,,,,,,,,20.000000,0.000000,0.684764,-0.221191,-0.675476,-0.160950,0.997192,-0.074228,0.004395,-41.926929,-6.887066,38.999012,,,,,,,,,,,,,,,,,,,,,,,,,,,,,,,,,,,,,,,,,,,,,,,,,,,,,,,,,,,,,,,,,,,,,,,,,,,,,,,,,,,,,,,,,,,,,,,,,,,,,
1742897133.250081,1742897133.250120,81.000000,0.000000,4196.538574,4202.820313,4234.871582,4244.230957,4189.743652,4198.077148,4181.538574,4174.487305,4176.282227,4156.025879,4462.436035,4387.179688,4287.948730,4387.692383,5526.000000,0.000000,11.000000,,,,0.000000,4.000000,4.000000,4.000000,4.000000,4.000000,4.000000,4.000000,4.000000,4.000000,4.000000,4.000000,4.000000,4.000000,4.000000,100.000000,,,,,,,,,,,,,,,,,,,,,,,,,,,,,,,,,,,,,,,,,,,,,,,,,,,,,,,,,,,,1.108231,2.133533,1.203493,0.283787,0.141336,2.803260,2.052073,0.610073,0.325476,0.193119,0.856523,1.543522,0.938621,0.267919,0.119560,0.945436,1.478444,0.669099,0.198088,0.196049,0.254503,0.845584,0.219393,0.150048,0.113990,0.297882,0.425109,0.333130,0.132462,0.161920,0.404315,0.888275,0.636060,0.440042,0.357142,1.198381,0.898929,0.598642,0.235131,0.258907,0.279973,0.300167,0.345058,0.113732,0.092671,0.453832,0.925927,0.558008,0.166817,0.098288,1.275148,2.651194,0.730452,0.138849,0.161210,0.761311,1.611749,0.862271,0.098855,0.116211,4.115575,3.563218,0.890010,0.196377,0.254245,0.819336,2.439584,0.845801,0.211332,0.167199
1742897133.257889,1742897133.257828,82.000000,0.000000,4196.922852,4198.205078,4236.025879,4243.589844,4186.794922,4198.205078,4178.461426,4159.615234,4168.333496,4154.358887,4454.743652,4376.410156,4287.948730,4382.820313,5788.000000,0.000000,11.000000,,,,0.000000,4.000000,4.000000,4.000000,4.000000,4.000000,4.000000,4.000000,4.000000,4.000000,4.000000,4.000000,4.000000,4.000000,4.000000,100.000000,,,,,,,,,,,,,,,,,,,,,,,,,,,,,,,,,,,,,,,,,,,,,,,,,,,,,,,,,,,,,,,,,,,,,,,,,,,,,,,,,,,,,,,,,,,,,,,,,,,,,,,,,,,,,,,,,,,,,,,,,,,,,,,,,
1742897133.265697,1742897133.265736,83.000000,0.000000,4200.000000,4198.205078,4246.153809,4243.589844,4186.282227,4196.538574,4174.358887,4154.871582,4168.205078,4155.897461,4456.410156,4381.922852,4293.333496,4387.820313,6142.000000,0.000000,11.000000,,,,0.000000,4.000000,4.000000,4.000000,4.000000,4.000000,4.000000,4.000000,4.000000,4.000000,4.000000,4.000000,4.000000,4.000000,4.000000,100.000000,,,,,,,,,,,,,,,,,,,,,,,,,,,,,,,,,,,,,,,,,,,,,,,,,,,,,,,,,,,,,,,,,,,,,,,,,,,,,,,,,,,,,,,,,,,,,,,,,,,,,,,,,,,,,,,,,,,,,,,,,,,,,,,,,
1742897133.273505,1742897133.273544,84.000000,0.000000,4204.230957,4203.461426,4251.410156,4248.461426,4188.333496,4195.641113,4176.794922,4163.205078,4175.000000,4162.051270,4462.563965,4384.615234,4297.307617,4394.358887,6407.000000,0.000000,11.000000,,,,0.000000,4.000000,4.000000,4.000000,4.000000,4.000000,4.000000,4.000000,4.000000,4.000000,4.000000,4.000000,4.000000,4.000000,4.000000,100.000000,,,,,,,,,,,,,,,,,21.000000,0.000000,0.685070,-0.221069,-0.675293,-0.160583,0.991820,-0.084483,0.008790,-41.834236,-6.865026,38.982445,,,,,,,,,,,,,,,,,,,,,,,,,,,,,,,,,,,,,,,,,,,,,,,,,,,,,,,,,,,,,,,,,,,,,,,,,,,,,,,,,,,,,,,,,,,,,,,,,,,,,
1742897133.281313,1742897133.281452,85.000000,0.000000,4204.487305,4198.461426,4249.487305,4252.307617,4188.333496,4197.948730,4181.153809,4172.948730,4177.307617,4167.051270,4468.205078,4386.538574,4296.410156,4392.307617,5526.000000,0.000000,11.000000,,,,0.000000,4.000000,4.000000,4.000000,4.000000,4.000000,4.000000,4.000000,4.000000,4.000000,4.000000,4.000000,4.000000,4.000000,4.000000,100.000000,,,,,,,,,,,,,,,,,,,,,,,,,,,,,,,,,,,,,,,,,,,,,,,,,,,,,,,,,,,,,,,,,,,,,,,,,,,,,,,,,,,,,,,,,,,,,,,,,,,,,,,,,,,,,,,,,,,,,,,,,,,,,,,,,
1742897133.289122,1742897133.289260,86.000000,0.000000,4200.384766,4186.410156,4246.025879,4247.051270,4184.743652,4196.794922,4177.307617,4170.769043,4172.436035,4167.179688,4471.794922,4388.077148,4293.846191,4386.025879,5788.000000,0.000000,11.000000,,,,0.000000,4.000000,4.000000,4.000000,4.000000,4.000000,4.000000,4.000000,4.000000,4.000000,4.000000,4.000000,4.000000,4.000000,4.000000,100.000000,,,,,,,,,,,,,,,,,,,,,,,,,,,,,,,,,,,,,,,,,,,,,,,,,,,,,,,,,,,,,,,,,,,,,,,,,,,,,,,,,,,,,,,,,,,,,,,,,,,,,,,,,,,,,,,,,,,,,,,,,,,,,,,,,
1742897133.296929,1742897133.297168,87.000000,0.000000,4199.871582,4184.358887,4245.384766,4242.051270,4183.846191,4192.436035,4174.743652,4166.922852,4171.410156,4166.794922,4470.128418,4387.692383,4295.641113,4386.666504,6142.000000,0.000000,11.000000,,,,0.000000,4.000000,4.000000,4.000000,4.000000,4.000000,4.000000,4.000000,4.000000,4.000000,4.000000,4.000000,4.000000,4.000000,4.000000,100.000000,,,,,,,,,,,,,,,,,,,,,,,,,,,,,,,,,,,,,,,,,,,,,,,,,,,,,,,,,,,,,,,,,,,,,,,,,,,,,,,,,,,,,,,,,,,,,,,,,,,,,,,,,,,,,,,,,,,,,,,,,,,,,,,,,
1742897133.304738,1742897133.304976,88.000000,0.000000,4207.820313,4190.128418,4248.461426,4245.897461,4188.205078,4191.666504,4182.436035,4174.102539,4176.666504,4166.794922,4471.538574,4396.282227,4302.179688,4397.692383,6407.000000,0.000000,11.000000,,,,0.000000,4.000000,4.000000,4.000000,4.000000,4.000000,4.000000,4.000000,4.000000,4.000000,4.000000,4.000000,4.000000,4.000000,4.000000,100.000000,,,,,,,,,,,,,,,,,22.000000,0.000000,0.685462,-0.221008,-0.674988,-0.160278,0.978635,-0.085948,-0.001953,-41.867477,-6.911857,39.167534,,,,,,,,,,,,,,,,,,,,,,,,,,,,,,,,,,,,,,,,,,,,,,,,,,,,,,,,,,,,,,,,,,,,,,,,,,,,,,,,,,,,,,,,,,,,,,,,,,,,,
1742897133.312546,1742897133.312883,89.000000,0.000000,4208.077148,4189.871582,4247.179688,4247.436035,4188.461426,4194.615234,4184.743652,4175.384766,4176.025879,4161.794922,4477.051270,4401.666504,4303.205078,4403.333496,5526.000000,0.000000,11.000000,,,,0.000000,4.000000,4.000000,4.000000,4.000000,4.000000,4.000000,4.000000,4.000000,4.000000,4.000000,4.000000,4.000000,4.000000,4.000000,100.000000,,,,,,,,,,,,,,,,,,,,,,,,,,,,,,,,,,,,,,,,,,,,,,,,,,,,,,,,,,,,,,,,,,,,,,,,,,,,,,,,,,,,,,,,,,,,,,,,,,,,,,,,,,,,,,,,,,,,,,,,,,,,,,,,,
1742897133.320354,1742897133.320691,90.000000,0.000000,4200.384766,4180.512695,4240.128418,4237.436035,4184.230957,4195.897461,4180.641113,4172.563965,4171.666504,4156.153809,4478.077148,4398.589844,4298.205078,4397.563965,5788.000000,0.000000,11.000000,,,,0.000000,4.000000,4.000000,4.000000,4.000000,4.000000,4.000000,4.000000,4.000000,4.000000,4.000000,4.000000,4.000000,4.000000,4.000000,100.000000,,,,,,,,,,,,,,,,,,,,,,,,,,,,,,,,,,,,,,,,,,,,,,,,,,,,,,,,,,,,,,,,,,,,,,,,,,,,,,,,,,,,,,,,,,,,,,,,,,,,,,,,,,,,,,,,,,,,,,,,,,,,,,,,,
1742897133.328162,1742897133.328599,91.000000,0.000000,4200.512695,4176.153809,4235.512695,4229.102539,4182.179688,4192.692383,4177.179688,4177.051270,4171.410156,4156.282227,4472.436035,4396.922852,4297.179688,4392.051270,6142.000000,0.000000,11.000000,,,,0.000000,4.000000,4.000000,4.000000,4.000000,4.000000,4.000000,4.000000,4.000000,4.000000,4.000000,4.000000,4.000000,4.000000,4.000000,100.000000,,,,,,,,,,,,,,,,,,,,,,,,,,,,,,,,,,,,,,,,,,,,,,,,,,,,,,,,,,,,,,,,,,,,,,,,,,,,,,,,,,,,,,,,,,,,,,,,,,,,,,,,,,,,,,,,,,,,,,,,,,,,,,,,,
1742897133.335970,1742897133.336407,92.000000,0.000000,4203.846191,4181.922852,4237.051270,4235.641113,4184.487305,4195.384766,4178.974121,4173.461426,4167.307617,4156.282227,4465.641113,4387.307617,4295.128418,4390.256348,6407.000000,0.000000,11.000000,,,,0.000000,4.000000,4.000000,4.000000,4.000000,4.000000,4.000000,4.000000,4.000000,4.000000,4.000000,4.000000,4.000000,4.000000,4.000000,100.000000,,,,,,,,,,,,,,,,,23.000000,0.000000,0.685775,-0.221375,-0.674622,-0.159973,0.980588,-0.092296,0.009767,-41.730732,-6.820672,39.284115,,,,,,,,,,,,,,,,,,,,,,,,,,,,,,,,,,,,,,,,,,,,,,,,,,,,,,,,,,,,,,,,,,,,,,,,,,,,,,,,,,,,,,,,,,,,,,,,,,,,,
1742897133.343778,1742897133.344315,93.000000,0.000000,4203.717773,4186.282227,4241.794922,4245.512695,4187.820313,4200.128418,4185.769043,4154.358887,4154.358887,4155.000000,4462.436035,4364.487305,4292.948730,4391.282227,5526.000000,0.000000,11.000000,,,,0.000000,4.000000,4.000000,4.000000,4.000000,4.000000,4.000000,4.000000,4.000000,4.000000,4.000000,4.000000,4.000000,4.000000,4.000000,100.000000,,,,,,,,,,,,,,,,,,,,,,,,,,,,,,,,,,,,,,,,,,,,,,,,,,,,,,,,,,,,,,,,,,,,,,,,,,,,,,,,,,,,,,,,,,,,,,,,,,,,,,,,,,,,,,,,,,,,,,,,,,,,,,,,,
1742897133.351586,1742897133.352123,94.000000,0.000000,4201.410156,4183.077148,4246.153809,4245.384766,4187.179688,4197.179688,4182.692383,4147.051270,4150.512695,4155.000000,4461.666504,4361.410156,4295.512695,4394.743652,5788.000000,0.000000,11.000000,,,,0.000000,4.000000,4.000000,4.000000,4.000000,4.000000,4.000000,4.000000,4.000000,4.000000,4.000000,4.000000,4.000000,4.000000,4.000000,100.000000,,,,,,,,,,,,,,,,,,,,,,,,,,,,,,,,,,,,,,,,,,,,,,,,,,,,,,,,,,,,,,,,,,,,,,,,,,,,,,,,,,,,,,,,,,,,,,,,,,,,,,,,,,,,,,,,,,,,,,,,,,,,,,,,,
1742897133.359394,1742897133.360031,95.000000,0.000000,4202.051270,4181.922852,4252.563965,4243.846191,4183.461426,4194.487305,4173.461426,4172.948730,4171.410156,4153.333496,4466.794922,4401.282227,4297.179688,4400.000000,6142.000000,0.000000,11.000000,,,,0.000000,4.000000,4.000000,4.000000,4.000000,4.000000,4.000000,4.000000,4.000000,4.000000,4.000000,4.000000,4.000000,4.000000,4.000000,100.000000,,,,,,,,,,,,,,,,,,,,,,,,,,,,,,,,,,,,,,,,,,,,,,,,,,,,,,,,,,,,,,,,,,,,,,,,,,,,,,,,,,,,,,,,,,,,,,,,,,,,,,,,,,,,,,,,,,,,,,,,,,,,,,,,,
1742897133.367202,1742897133.367839,96.000000,0.000000,4208.974121,4187.051270,4261.794922,4248.846191,4183.589844,4195.256348,4176.538574,4205.128418,4195.897461,4156.410156,4482.948730,4446.410156,4304.743652,4410.897461,6407.000000,0.000000,11.000000,,,,0.000000,4.000000,4.000000,4.000000,4.000000,4.000000,4.000000,4.000000,4.000000,4.000000,4.000000,4.000000,4.000000,4.000000,4.000000,100.000000,,,,,,,,,,,,,,,,,24.000000,0.000000,0.686019,-0.221680,-0.674316,-0.159790,0.982542,-0.097668,0.003418,-41.774323,-6.871938,39.305702,,,,,,,,,,,,,,,,,,,,,,,,,,,,,,,,,,,,,,,,,,,,,,,,,,,,,,,,,,,,,,,,,,,,,,,,,,,,,,,,,,,,,,,,,,,,,,,,,,,,,
1742897133.375010,1742897133.375547,97.000000,0.000000,4212.820313,4185.769043,4262.436035,4248.974121,4187.051270,4190.256348,4179.871582,4218.717773,4202.820313,4164.487305,4495.256348,4460.512695,4312.307617,4413.589844,5526.000000,0.000000,11.000000,,,,0.000000,4.000000,4.000000,4.000000,4.000000,4.000000,4.000000,4.000000,4.000000,4.000000,4.000000,4.000000,4.000000,4.000000,4.000000,100.000000,,,,,,,,,,,,,,,,,,,,,,,,,,,,,,,,,,,,,,,,,,,,,,,,,,,,,,,,,,,,1.486394,2.576748,1.176653,0.290455,0.138795,4.397566,2.487189,0.663891,0.387772,0.203156,0.869100,1.682416,0.959336,0.247409,0.109373,1.174649,1.303418,0.603444,0.194012,0.187585,0.321191,0.591862,0.286708,0.131396,0.110146,0.293361,0.401494,0.332728,0.136972,0.158675,0.416186,0.857661,0.705003,0.419123,0.344110,0.989366,0.816057,0.536632,0.216564,0.229335,0.254453,0.286335,0.328540,0.109613,0.088360,0.581437,0.944477,0.556078,0.177195,0.085244,1.410473,2.633771,0.787971,0.167128,0.153403,0.772491,1.525586,0.885022,0.118465,0.114855,5.477818,3.925214,1.002353,0.235577,0.253170,0.873939,2.506244,0.882654,0.203715,0.163227
1742897133.382819,1742897133.383355,98.000000,0.000000,4208.205078,4181.794922,4257.179688,4244.230957,4185.512695,4186.922852,4169.743652,4219.871582,4205.641113,4167.307617,4490.897461,4461.666504,4309.487305,4410.000000,5788.000000,0.000000,11.000000,,,,0.000000,4.000000,4.000000,4.000000,4.000000,4.000000,4.000000,4.000000,4.000000,4.000000,4.000000,4.000000,4.000000,4.000000,4.000000,100.000000,,,,,,,,,,,,,,,,,,,,,,,,,,,,,,,,,,,,,,,,,,,,,,,,,,,,,,,,,,,,,,,,,,,,,,,,,,,,,,,,,,,,,,,,,,,,,,,,,,,,,,,,,,,,,,,,,,,,,,,,,,,,,,,,,
1742897133.390627,1742897133.391063,99.000000,0.000000,4215.256348,4189.487305,4261.153809,4248.589844,4184.487305,4193.461426,4168.589844,4218.077148,4212.179688,4168.589844,4489.358887,4467.820313,4316.025879,4422.948730,6142.000000,0.000000,11.000000,,,,0.000000,4.000000,4.000000,4.000000,4.000000,4.000000,4.000000,4.000000,4.000000,4.000000,4.000000,4.000000,4.000000,4.000000,4.000000,100.000000,,,,,,,,,,,,,,,,,,,,,,,,,,,,,,,,,,,,,,,,,,,,,,,,,,,,,,,,,,,,,,,,,,,,,,,,,,,,,,,,,,,,,,,,,,,,,,,,,,,,,,,,,,,,,,,,,,,,,,,,,,,,,,,,,
1742897133.398435,1742897133.398871,100.000000,0.000000,4225.897461,4193.333496,4266.666504,4253.077148,4187.820313,4194.871582,4179.615234,4220.128418,4212.948730,4172.051270,4500.384766,4472.436035,4329.743652,4435.128418,6407.000000,0.000000,11.000000,,,,0.000000,4.000000,4.000000,4.000000,4.000000,4.000000,4.000000,4.000000,4.000000,4.000000,4.000000,4.000000,4.000000,4.000000,4.000000,100.000000,,,,,,,,,,,,,,,,,25.000000,0.000000,0.686293,-0.222351,-0.673889,-0.159485,0.989867,-0.098645,-0.006348,-41.813557,-6.784744,39.241798,,,,,,,,,,,,,,,,,,,,,,,,,,,,,,,,,,,,,,,,,,,,,,,,,,,,,,,,,,,,,,,,,,,,,,,,,,,,,,,,,,,,,,,,,,,,,,,,,,,,,
1742897133.406243,1742897133.406579,101.000000,0.000000,4221.282227,4187.436035,4264.487305,4247.820313,4186.794922,4191.153809,4182.307617,4219.102539,4207.692383,4171.025879,4505.512695,4467.051270,4331.025879,4430.641113,5526.000000,0.000000,11.000000,,,,0.000000,4.000000,4.000000,4.000000,4.000000,4.000000,4.000000,4.000000,4.000000,4.000000,4.000000,4.000000,4.000000,4.000000,4.000000,100.000000,,,,,,,,,,,,,,,,,,,,,,,,,,,,,,,,,,,,,,,,,,,,,,,,,,,,,,,,,,,,,,,,,,,,,,,,,,,,,,,,,,,,,,,,,,,,,,,,,,,,,,,,,,,,,,,,,,,,,,,,,,,,,,,,,
1742897133.414051,1742897133.414387,102.000000,0.000000,4222.436035,4192.179688,4264.102539,4249.743652,4186.025879,4192.692383,4179.743652,4210.641113,4202.692383,4169.358887,4503.205078,4457.948730,4323.077148,4428.461426,5788.000000,0.000000,11.000000,,,,0.000000,4.000000,4.000000,4.000000,4.000000,4.000000,4.000000,4.000000,4.000000,4.000000,4.000000,4.000000,4.000000,4.000000,4.000000,100.000000,,,,,,,,,,,,,,,,,,,,,,,,,,,,,,,,,,,,,,,,,,,,,,,,,,,,,,,,,,,,,,,,,,,,,,,,,,,,,,,,,,,,,,,,,,,,,,,,,,,,,,,,,,,,,,,,,,,,,,,,,,,,,,,,,
1742897133.421859,1742897133.422095,103.000000,0.000000,4231.666504,4201.666504,4266.666504,4255.641113,4188.205078,4190.769043,4178.589844,4209.743652,4204.102539,4172.563965,4504.615234,4457.179688,4325.512695,4430.000000,6142.000000,0.000000,11.000000,,,,0.000000,4.000000,4.000000,4.000000,4.000000,4.000000,4.000000,4.000000,4.000000,4.000000,4.000000,4.000000,4.000000,4.000000,4.000000,100.000000,,,,,,,,,,,,,,,,,,,,,,,,,,,,,,,,,,,,,,,,,,,,,,,,,,,,,,,,,,,,,,,,,,,,,,,,,,,,,,,,,,,,,,,,,,,,,,,,,,,,,,,,,,,,,,,,,,,,,,,,,,,,,,,,,
1742897133.429667,1742897133.429903,104.000000,0.000000,4226.666504,4203.333496,4266.922852,4249.871582,4186.922852,4188.461426,4180.128418,4210.384766,4201.666504,4174.871582,4505.641113,4450.384766,4329.358887,4425.512695,6407.000000,0.000000,11.000000,,,,0.000000,4.000000,4.000000,4.000000,4.000000,4.000000,4.000000,4.000000,4.000000,4.000000,4.000000,4.000000,4.000000,4.000000,4.000000,100.000000,,,,,,,,,,,,,,,,,26.000000,0.000000,0.686237,-0.223022,-0.673767,-0.159302,0.998657,-0.084971,0.003418,-41.765537,-6.672936,39.234283,,,,,,,,,,,,,,,,,,,,,,,,,,,,,,,,,,,,,,,,,,,,,,,,,,,,,,,,,,,,,,,,,,,,,,,,,,,,,,,,,,,,,,,,,,,,,,,,,,,,,
1742897133.437475,1742897133.437611,105.000000,0.000000,4216.922852,4199.871582,4262.307617,4245.128418,4184.102539,4190.641113,4179.615234,4204.871582,4195.256348,4171.153809,4495.769043,4436.794922,4318.717773,4418.717773,5526.000000,0.000000,11.000000,,,,0.000000,4.000000,4.000000,4.000000,4.000000,4.000000,4.000000,4.000000,4.000000,4.000000,4.000000,4.000000,4.000000,4.000000,4.000000,100.000000,,,,,,,,,,,,,,,,,,,,,,,,,,,,,,,,,,,,,,,,,,,,,,,,,,,,,,,,,,,,,,,,,,,,,,,,,,,,,,,,,,,,,,,,,,,,,,,,,,,,,,,,,,,,,,,,,,,,,,,,,,,,,,,,,
1742897133.445283,1742897133.445519,106.000000,0.000000,4214.615234,4190.128418,4255.769043,4247.436035,4183.974121,4192.436035,4177.563965,4202.692383,4194.487305,4166.794922,4485.897461,4434.102539,4310.897461,4413.205078,5788.000000,0.000000,11.000000,,,,0.000000,4.000000,4.000000,4.000000,4.000000,4.000000,4.000000,4.000000,4.000000,4.000000,4.000000,4.000000,4.000000,4.000000,4.000000,100.000000,,,,,,,,,,,,,,,,,,,,,,,,,,,,,,,,,,,,,,,,,,,,,,,,,,,,,,,,,,,,,,,,,,,,,,,,,,,,,,,,,,,,,,,,,,,,,,,,,,,,,,,,,,,,,,,,,,,,,,,,,,,,,,,,,
1742897133.453092,1742897133.453327,107.000000,0.000000,4214.615234,4185.512695,4257.436035,4247.179688,4183.846191,4198.205078,4185.384766,4205.256348,4196.282227,4172.563965,4487.820313,4440.000000,4318.205078,4417.307617,6142.000000,0.000000,11.000000,,,,0.000000,4.000000,4.000000,4.000000,4.000000,4.000000,4.000000,4.000000,4.000000,4.000000,4.000000,4.000000,4.000000,4.000000,4.000000,100.000000,,,,,,,,,,,,,,,,,,,,,,,,,,,,,,,,,,,,,,,,,,,,,,,,,,,,,,,,,,,,,,,,,,,,,,,,,,,,,,,,,,,,,,,,,,,,,,,,,,,,,,,,,,,,,,,,,,,,,,,,,,,,,,,,,
1742897133.460899,1742897133.461235,108.000000,0.000000,4217.051270,4197.179688,4262.436035,4246.025879,4185.641113,4204.743652,4194.102539,4214.615234,4203.205078,4180.641113,4498.717773,4445.897461,4324.615234,4425.128418,6407.000000,0.000000,11.000000,,,,0.000000,4.000000,4.000000,4.000000,4.000000,4.000000,4.000000,4.000000,4.000000,4.000000,4.000000,4.000000,4.000000,4.000000,4.000000,100.000000,,,,,,,,,,,,,,,,,27.000000,0.000000,0.685893,-0.224243,-0.673828,-0.158813,0.998169,-0.094738,-0.004395,-41.722317,-6.738976,39.310856,,,,,,,,,,,,,,,,,,,,,,,,,,,,,,,,,,,,,,,,,,,,,,,,,,,,,,,,,,,,,,,,,,,,,,,,,,,,,,,,,,,,,,,,,,,,,,,,,,,,,
1742897133.468708,1742897133.469043,109.000000,0.000000,4219.102539,4202.307617,4260.128418,4246.922852,4189.230957,4199.615234,4185.641113,4213.717773,4206.282227,4174.871582,4499.358887,4444.487305,4316.153809,4416.025879,5526.000000,0.000000,11.000000,,,,0.000000,4.000000,4.000000,4.000000,4.000000,4.000000,4.000000,4.000000,4.000000,4.000000,4.000000,4.000000,4.000000,4.000000,4.000000,100.000000,,,,,,,,,,,,,,,,,,,,,,,,,,,,,,,,,,,,,,,,,,,,,,,,,,,,,,,,,,,,,,,,,,,,,,,,,,,,,,,,,,,,,,,,,,,,,,,,,,,,,,,,,,,,,,,,,,,,,,,,,,,,,,,,,
1742897133.476516,1742897133.476951,110.000000,0.000000,4216.794922,4195.384766,4259.615234,4247.948730,4186.794922,4193.589844,4176.282227,4199.230957,4197.563965,4166.538574,4489.230957,4438.974121,4312.307617,4408.077148,5788.000000,0.000000,11.000000,,,,0.000000,4.000000,4.000000,4.000000,4.000000,4.000000,4.000000,4.000000,4.000000,4.000000,4.000000,4.000000,4.000000,4.000000,4.000000,100.000000,,,,,,,,,,,,,,,,,,,,,,,,,,,,,,,,,,,,,,,,,,,,,,,,,,,,,,,,,,,,,,,,,,,,,,,,,,,,,,,,,,,,,,,,,,,,,,,,,,,,,,,,,,,,,,,,,,,,,,,,,,,,,,,,,
1742897133.484324,1742897133.484759,111.000000,0.000000,4222.948730,4197.179688,4265.256348,4249.743652,4185.384766,4194.487305,4179.871582,4201.794922,4197.051270,4174.871582,4490.256348,4444.487305,4321.153809,4422.948730,6142.000000,0.000000,11.000000,,,,0.000000,4.000000,4.000000,4.000000,4.000000,4.000000,4.000000,4.000000,4.000000,4.000000,4.000000,4.000000,4.000000,4.000000,4.000000,100.000000,,,,,,,,,,,,,,,,,,,,,,,,,,,,,,,,,,,,,,,,,,,,,,,,,,,,,,,,,,,,,,,,,,,,,,,,,,,,,,,,,,,,,,,,,,,,,,,,,,,,,,,,,,,,,,,,,,,,,,,,,,,,,,,,,
1742897133.492132,1742897133.492667,112.000000,0.000000,4231.666504,4201.922852,4265.384766,4250.256348,4191.025879,4193.205078,4181.410156,4217.692383,4208.589844,4186.666504,4503.461426,4457.948730,4328.461426,4435.512695,6407.000000,0.000000,11.000000,,,,0.000000,4.000000,4.000000,4.000000,4.000000,4.000000,4.000000,4.000000,4.000000,4.000000,4.000000,4.000000,4.000000,4.000000,4.000000,100.000000,,,,,,,,,,,,,,,,,28.000000,0.000000,0.685491,-0.225403,-0.673950,-0.158386,0.990355,-0.087413,-0.002442,-41.633419,-6.848412,39.379772,,,,,,,,,,,,,,,,,,,,,,,,,,,,,,,,,,,,,,,,,,,,,,,,,,,,,,,,,,,,,,,,,,,,,,,,,,,,,,,,,,,,,,,,,,,,,,,,,,,,,
1742897133.499940,1742897133.500475,113.000000,0.000000,4229.615234,4201.410156,4263.205078,4247.179688,4189.358887,4191.282227,4178.205078,4218.205078,4207.948730,4185.128418,4511.282227,4455.128418,4331.282227,4430.512695,5526.000000,0.000000,11.000000,,,,0.000000,4.000000,4.000000,4.000000,4.000000,4.000000,4.000000,4.000000,4.000000,4.000000,4.000000,4.000000,4.000000,4.000000,4.000000,100.000000,1.000000,100.000000,4.000000,4.000000,4.000000,4.000000,4.000000,4.000000,4.000000,4.000000,4.000000,4.000000,4.000000,4.000000,4.000000,4.000000,,,,,,,,,,,,,,,,,,,,,,,,,,,,,,,,,,,,,,,,,,,,2.138795,3.174426,1.048595,0.287457,0.153204,6.256697,3.274795,0.703302,0.448380,0.219745,1.007784,1.912657,0.947364,0.214561,0.111230,1.515702,1.371524,0.526836,0.189058,0.179210,0.421143,0.435700,0.346471,0.118377,0.106211,0.266649,0.353698,0.330952,0.140394,0.152883,0.421948,0.841057,0.780506,0.402578,0.331939,0.862343,0.765011,0.531524,0.224197,0.213537,0.258320,0.324855,0.347830,0.116788,0.093527,0.775626,0.929828,0.527980,0.180478,0.087164,1.558310,2.430257,0.850130,0.207563,0.165956,0.829999,1.526752,0.974742,0.175960,0.128631,6.416895,3.888632,1.048342,0.264805,0.267124,1.105918,2.663186,0.866728,0.192993,0.174670
1742897133.507748,1742897133.508382,114.000000,0.000000,4227.692383,4200.769043,4263.589844,4245.384766,4184.743652,4193.589844,4181.025879,4209.615234,4198.974121,4183.717773,4509.615234,4446.538574,4333.205078,4426.922852,5788.000000,0.000000,11.000000,,,,0.000000,4.000000,4.000000,4.000000,4.000000,4.000000,4.000000,4.000000,4.000000,4.000000,4.000000,4.000000,4.000000,4.000000,4.000000,100.000000,,,,,,,,,,,,,,,,,,,,,,,,,,,,,,,,,,,,,,,,,,,,,,,,,,,,,,,,,,,,,,,,,,,,,,,,,,,,,,,,,,,,,,,,,,,,,,,,,,,,,,,,,,,,,,,,,,,,,,,,,,,,,,,,,
1742897133.515556,1742897133.516190,115.000000,0.000000,4236.025879,4203.589844,4267.179688,4248.461426,4191.153809,4198.077148,4187.948730,4208.461426,4199.358887,4190.512695,4515.512695,4450.897461,4337.948730,4433.717773,6142.000000,0.000000,11.000000,,,,0.000000,4.000000,4.000000,4.000000,4.000000,4.000000,4.000000,4.000000,4.000000,4.000000,4.000000,4.000000,4.000000,4.000000,4.000000,100.000000,,,,,,,,,,,,,,,,,,,,,,,,,,,,,,,,,,,,,,,,,,,,,,,,,,,,,,,,,,,,,,,,,,,,,,,,,,,,,,,,,,,,,,,,,,,,,,,,,,,,,,,,,,,,,,,,,,,,,,,,,,,,,,,,,
1742897133.523364,1742897133.524098,116.000000,0.000000,4235.256348,4203.333496,4268.461426,4247.820313,4193.077148,4199.487305,4187.051270,4202.948730,4197.563965,4184.871582,4513.846191,4445.128418,4331.538574,4431.538574,6407.000000,0.000000,11.000000,,,,0.000000,4.000000,4.000000,4.000000,4.000000,4.000000,4.000000,4.000000,4.000000,4.000000,4.000000,4.000000,4.000000,4.000000,4.000000,100.000000,,,,,,,,,,,,,,,,,29.000000,0.000000,0.684946,-0.226318,-0.674255,-0.158142,0.990844,-0.085948,-0.011720,-41.536743,-6.930237,39.408463,,,,,,,,,,,,,,,,,,,,,,,,,,,,,,,,,,,,,,,,,,,,,,,,,,,,,,,,,,,,,,,,,,,,,,,,,,,,,,,,,,,,,,,,,,,,,,,,,,,,,
1742897133.531172,1742897133.531906,117.000000,0.000000,4220.512695,4197.179688,4257.436035,4241.410156,4183.974121,4194.358887,4178.589844,4191.666504,4188.717773,4167.563965,4489.615234,4424.871582,4314.230957,4412.179688,5526.000000,0.000000,11.000000,,,,0.000000,4.000000,4.000000,4.000000,4.000000,4.000000,4.000000,4.000000,4.000000,4.000000,4.000000,4.000000,4.000000,4.000000,4.000000,100.000000,,,,,,,,,,,,,,,,,,,,,,,,,,,,,,,,,,,,,,,,,,,,,,,,,,,,,,,,,,,,,,,,,,,,,,,,,,,,,,,,,,,,,,,,,,,,,,,,,,,,,,,,,,,,,,,,,,,,,,,,,,,,,,,,,
1742897133.538980,1742897133.539814,118.000000,0.000000,4215.897461,4197.179688,4247.948730,4240.128418,4183.205078,4197.307617,4181.025879,4188.461426,4186.025879,4165.641113,4483.077148,4414.102539,4316.794922,4406.666504,5788.000000,0.000000,11.000000,,,,0.000000,4.000000,4.000000,4.000000,4.000000,4.000000,4.000000,4.000000,4.000000,4.000000,4.000000,4.000000,4.000000,4.000000,4.000000,100.000000,,,,,,,,,,,,,,,,,,,,,,,,,,,,,,,,,,,,,,,,,,,,,,,,,,,,,,,,,,,,,,,,,,,,,,,,,,,,,,,,,,,,,,,,,,,,,,,,,,,,,,,,,,,,,,,,,,,,,,,,,,,,,,,,,
1742897133.546789,1742897133.547622,119.000000,0.000000,4217.820313,4198.333496,4250.256348,4238.205078,4190.000000,4205.128418,4189.358887,4192.820313,4189.743652,4173.589844,4498.717773,4419.615234,4332.307617,4416.922852,6142.000000,0.000000,11.000000,,,,0.000000,4.000000,4.000000,4.000000,4.000000,4.000000,4.000000,4.000000,4.000000,4.000000,4.000000,4.000000,4.000000,4.000000,4.000000,100.000000,,,,,,,,,,,,,,,,,,,,,,,,,,,,,,,,,,,,,,,,,,,,,,,,,,,,,,,,,,,,,,,,,,,,,,,,,,,,,,,,,,,,,,,,,,,,,,,,,,,,,,,,,,,,,,,,,,,,,,,,,,,,,,,,,
1742897133.554597,1742897133.555330,120.000000,0.000000,4215.512695,4192.820313,4251.025879,4233.589844,4186.922852,4201.410156,4188.846191,4197.436035,4190.769043,4171.922852,4498.974121,4425.000000,4331.282227,4417.563965,6407.000000,0.000000,11.000000,,,,0.000000,4.000000,4.000000,4.000000,4.000000,4.000000,4.000000,4.000000,4.000000,4.000000,4.000000,4.000000,4.000000,4.000000,4.000000,100.000000,,,,,,,,,,,,,,,,,30.000000,0.000000,0.684646,-0.227478,-0.674255,-0.157776,0.986937,-0.098645,-0.004883,-41.599735,-7.103880,39.417614,,,,,,,,,,,,,,,,,,,,,,,,,,,,,,,,,,,,,,,,,,,,,,,,,,,,,,,,,,,,,,,,,,,,,,,,,,,,,,,,,,,,,,,,,,,,,,,,,,,,,
1742897133.562405,1742897133.563138,121.000000,0.000000,4219.230957,4194.615234,4249.615234,4241.410156,4183.333496,4193.974121,4185.512695,4200.769043,4190.769043,4170.128418,4494.358887,4425.769043,4327.820313,4416.025879,5526.000000,0.000000,11.000000,,,,0.000000,4.000000,4.000000,4.000000,4.000000,4.000000,4.000000,4.000000,4.000000,4.000000,4.000000,4.000000,4.000000,4.000000,4.000000,100.000000,,,,,,,,,,,,,,,,,,,,,,,,,,,,,,,,,,,,,,,,,,,,,,,,,,,,,,,,,,,,,,,,,,,,,,,,,,,,,,,,,,,,,,,,,,,,,,,,,,,,,,,,,,,,,,,,,,,,,,,,,,,,,,,,,
1742897133.570213,1742897133.570846,122.000000,0.000000,4228.205078,4208.974121,4257.307617,4252.051270,4192.948730,4195.384766,4184.102539,4201.153809,4191.410156,4174.487305,4502.436035,4429.615234,4335.128418,4420.384766,5788.000000,0.000000,11.000000,,,,0.000000,4.000000,4.000000,4.000000,4.000000,4.000000,4.000000,4.000000,4.000000,4.000000,4.000000,4.000000,4.000000,4.000000,4.000000,100.000000,,,,,,,,,,,,,,,,,,,,,,,,,,,,,,,,,,,,,,,,,,,,,,,,,,,,,,,,,,,,,,,,,,,,,,,,,,,,,,,,,,,,,,,,,,,,,,,,,,,,,,,,,,,,,,,,,,,,,,,,,,,,,,,,,
1742897133.578021,1742897133.578754,123.000000,0.000000,4230.000000,4215.384766,4260.000000,4251.282227,4198.846191,4195.512695,4177.820313,4188.205078,4181.282227,4172.820313,4499.102539,4422.179688,4333.205078,4422.692383,6142.000000,0.000000,11.000000,,,,0.000000,4.000000,4.000000,4.000000,4.000000,4.000000,4.000000,4.000000,4.000000,4.000000,4.000000,4.000000,4.000000,4.000000,4.000000,100.000000,,,,,,,,,,,,,,,,,,,,,,,,,,,,,,,,,,,,,,,,,,,,,,,,,,,,,,,,,,,,,,,,,,,,,,,,,,,,,,,,,,,,,,,,,,,,,,,,,,,,,,,,,,,,,,,,,,,,,,,,,,,,,,,,,
1742897133.585829,1742897133.586562,124.000000,0.000000,4229.615234,4210.512695,4255.000000,4248.717773,4193.717773,4191.922852,4170.128418,4179.487305,4177.436035,4168.205078,4487.820313,4414.358887,4326.922852,4421.538574,6407.000000,0.000000,11.000000,,,,0.000000,4.000000,4.000000,4.000000,4.000000,4.000000,4.000000,4.000000,4.000000,4.000000,4.000000,4.000000,4.000000,4.000000,4.000000,100.000000,,,,,,,,,,,,,,,,,31.000000,0.000000,0.684623,-0.228088,-0.674072,-0.157776,0.983030,-0.104505,-0.009278,-41.623096,-7.160159,39.492519,,,,,,,,,,,,,,,,,,,,,,,,,,,,,,,,,,,,,,,,,,,,,,,,,,,,,,,,,,,,,,,,,,,,,,,,,,,,,,,,,,,,,,,,,,,,,,,,,,,,,
1742897133.593637,1742897133.594470,125.000000,0.000000,4219.102539,4199.487305,4248.461426,4237.307617,4181.922852,4190.897461,4164.871582,4183.205078,4186.922852,4161.922852,4481.282227,4411.153809,4320.641113,4410.384766,5526.000000,0.000000,11.000000,,,,0.000000,4.000000,4.000000,4.000000,4.000000,4.000000,4.000000,4.000000,4.000000,4.000000,4.000000,4.000000,4.000000,4.000000,4.000000,100.000000,,,,,,,,,,,,,,,,,,,,,,,,,,,,,,,,,,,,,,,,,,,,,,,,,,,,,,,,,,,,,,,,,,,,,,,,,,,,,,,,,,,,,,,,,,,,,,,,,,,,,,,,,,,,,,,,,,,,,,,,,,,,,,,,,
1742897133.601445,1742897133.602278,126.000000,0.000000,4200.512695,4185.128418,4236.538574,4217.307617,4170.641113,4186.153809,4157.948730,4174.871582,4177.820313,4147.948730,4468.974121,4397.179688,4306.666504,4393.846191,5788.000000,0.000000,11.000000,,,,0.000000,4.000000,4.000000,4.000000,4.000000,4.000000,4.000000,4.000000,4.000000,4.000000,4.000000,4.000000,4.000000,4.000000,4.000000,100.000000,,,,,,,,,,,,,,,,,,,,,,,,,,,,,,,,,,,,,,,,,,,,,,,,,,,,,,,,,,,,,,,,,,,,,,,,,,,,,,,,,,,,,,,,,,,,,,,,,,,,,,,,,,,,,,,,,,,,,,,,,,,,,,,,,
1742897133.609253,1742897133.610086,127.000000,0.000000,4203.333496,4179.230957,4239.230957,4218.205078,4169.871582,4183.461426,4160.641113,4173.461426,4170.256348,4145.769043,4466.794922,4399.743652,4303.974121,4399.358887,11.000000,0.000000,11.000000,,,,0.000000,4.000000,4.000000,4.000000,4.000000,4.000000,4.000000,4.000000,4.000000,4.000000,4.000000,4.000000,4.000000,4.000000,4.000000,100.000000,,,,,,,,,,,,,,,,,,,,,,,,,,,,,,,,,,,,,,,,,,,,,,,,,,,,,,,,,,,,,,,,,,,,,,,,,,,,,,,,,,,,,,,,,,,,,,,,,,,,,,,,,,,,,,,,,,,,,,,,,,,,,,,,,
1742897133.617061,1742897133.617794,0.000000,0.000000,4213.846191,4185.641113,4252.563965,4228.846191,4178.461426,4186.794922,4171.153809,4188.205078,4185.641113,4157.436035,4476.538574,4411.025879,4311.410156,4408.974121,5080.000000,0.000000,11.000000,,,,0.000000,4.000000,4.000000,4.000000,4.000000,4.000000,4.000000,4.000000,4.000000,4.000000,4.000000,4.000000,4.000000,4.000000,4.000000,100.000000,,,,,,,,,,,,,,,,,0.000000,0.000000,0.684812,-0.229248,-0.673401,-0.158142,0.985472,-0.101575,-0.016115,-41.477451,-7.244143,39.426601,,,,,,,,,,,,,,,,,,,,,,,,,,,,,,,,,,,,,,,,,,,,,,,,,,,,,,,,,,,,,,,,,,,,,,,,,,,,,,,,,,,,,,,,,,,,,,,,,,,,,
1742897133.624869,1742897133.625602,1.000000,0.000000,4229.230957,4207.820313,4265.769043,4244.102539,4193.205078,4194.871582,4183.077148,4203.205078,4198.205078,4174.871582,4498.974121,4421.922852,4333.461426,4420.256348,5455.000000,0.000000,11.000000,,,,0.000000,4.000000,4.000000,4.000000,4.000000,4.000000,4.000000,4.000000,4.000000,4.000000,4.000000,4.000000,4.000000,4.000000,4.000000,100.000000,,,,,,,,,,,,,,,,,,,,,,,,,,,,,,,,,,,,,,,,,,,,,,,,,,,,,,,,,,,,2.869524,3.700140,0.871650,0.273689,0.177175,7.822562,4.071747,0.731796,0.489738,0.235466,1.267958,2.132359,0.921607,0.182333,0.122267,1.869768,1.550133,0.463120,0.183894,0.171094,0.520993,0.368393,0.389593,0.107651,0.100230,0.223934,0.305790,0.326496,0.140139,0.142570,0.411336,0.828183,0.838275,0.390835,0.316883,0.819693,0.744645,0.634408,0.263976,0.207383,0.316155,0.424904,0.422042,0.139883,0.103297,1.028228,0.887677,0.482176,0.174479,0.096491,1.724392,2.103182,0.904392,0.245984,0.188820,1.060573,1.668586,1.211392,0.283291,0.151000,6.706256,3.462351,1.014879,0.274400,0.290987,1.452971,2.821282,0.818989,0.182695,0.196240
1742897133.632677,1742897133.633310,2.000000,0.000000,4253.077148,4229.358887,4279.487305,4266.410156,4200.769043,4203.717773,4192.692383,4215.256348,4200.641113,4191.922852,4524.615234,4444.487305,4359.358887,4444.102539,5442.000000,0.000000,11.000000,,,,0.000000,4.000000,4.000000,4.000000,4.000000,4.000000,4.000000,4.000000,4.000000,4.000000,4.000000,4.000000,4.000000,4.000000,4.000000,100.000000,,,,,,,,,,,,,,,,,,,,,,,,,,,,,,,,,,,,,,,,,,,,,,,,,,,,,,,,,,,,,,,,,,,,,,,,,,,,,,,,,,,,,,,,,,,,,,,,,,,,,,,,,,,,,,,,,,,,,,,,,,,,,,,,,
1742897133.640486,1742897133.641218,3.000000,0.000000,4260.384766,4233.717773,4284.487305,4272.692383,4201.410156,4203.846191,4195.128418,4210.897461,4196.153809,4191.794922,4520.769043,4448.589844,4352.692383,4449.615234,5308.000000,0.000000,11.000000,,,,0.000000,4.000000,4.000000,4.000000,4.000000,4.000000,4.000000,4.000000,4.000000,4.000000,4.000000,4.000000,4.000000,4.000000,4.000000,100.000000,,,,,,,,,,,,,,,,,,,,,,,,,,,,,,,,,,,,,,,,,,,,,,,,,,,,,,,,,,,,,,,,,,,,,,,,,,,,,,,,,,,,,,,,,,,,,,,,,,,,,,,,,,,,,,,,,,,,,,,,,,,,,,,,,
1742897133.648294,1742897133.649026,4.000000,0.000000,4257.307617,4233.717773,4287.436035,4272.436035,4208.974121,4204.358887,4196.666504,4201.153809,4189.871582,4182.692383,4511.410156,4442.051270,4345.256348,4447.436035,5195.000000,0.000000,11.000000,,,,0.000000,4.000000,4.000000,4.000000,4.000000,4.000000,4.000000,4.000000,4.000000,4.000000,4.000000,4.000000,4.000000,4.000000,4.000000,100.000000,,,,,,,,,,,,,,,,,1.000000,0.000000,0.684949,-0.230469,-0.672729,-0.158630,0.975217,-0.101087,-0.006837,-41.429707,-7.319728,39.250607,,,,,,,,,,,,,,,,,,,,,,,,,,,,,,,,,,,,,,,,,,,,,,,,,,,,,,,,,,,,,,,,,,,,,,,,,,,,,,,,,,,,,,,,,,,,,,,,,,,,,
1742897133.656102,1742897133.656834,5.000000,0.000000,4266.025879,4238.205078,4295.897461,4278.205078,4214.615234,4207.948730,4199.102539,4208.846191,4192.307617,4186.666504,4526.410156,4451.538574,4364.615234,4461.282227,3363.000000,0.000000,11.000000,,,,0.000000,4.000000,4.000000,4.000000,4.000000,4.000000,4.000000,4.000000,4.000000,4.000000,4.000000,4.000000,4.000000,4.000000,4.000000,100.000000,,,,,,,,,,,,,,,,,,,,,,,,,,,,,,,,,,,,,,,,,,,,,,,,,,,,,,,,,,,,,,,,,,,,,,,,,,,,,,,,,,,,,,,,,,,,,,,,,,,,,,,,,,,,,,,,,,,,,,,,,,,,,,,,,
1742897133.663910,1742897133.664542,6.000000,0.000000,4268.333496,4237.948730,4294.358887,4273.717773,4206.922852,4203.333496,4194.615234,4218.333496,4198.077148,4194.871582,4533.846191,4455.384766,4369.871582,4465.897461,4472.000000,0.000000,11.000000,,,,0.000000,4.000000,4.000000,4.000000,4.000000,4.000000,4.000000,4.000000,4.000000,4.000000,4.000000,4.000000,4.000000,4.000000,4.000000,100.000000,,,,,,,,,,,,,,,,,,,,,,,,,,,,,,,,,,,,,,,,,,,,,,,,,,,,,,,,,,,,,,,,,,,,,,,,,,,,,,,,,,,,,,,,,,,,,,,,,,,,,,,,,,,,,,,,,,,,,,,,,,,,,,,,,
1742897133.671718,1742897133.672450,7.000000,0.000000,4258.077148,4232.436035,4283.846191,4262.563965,4199.743652,4197.563965,4190.384766,4215.128418,4196.538574,4189.102539,4521.666504,4446.538574,4354.230957,4453.077148,4243.000000,0.000000,11.000000,,,,0.000000,4.000000,4.000000,4.000000,4.000000,4.000000,4.000000,4.000000,4.000000,4.000000,4.000000,4.000000,4.000000,4.000000,4.000000,100.000000,,,,,,,,,,,,,,,,,,,,,,,,,,,,,,,,,,,,,,,,,,,,,,,,,,,,,,,,,,,,,,,,,,,,,,,,,,,,,,,,,,,,,,,,,,,,,,,,,,,,,,,,,,,,,,,,,,,,,,,,,,,,,,,,,
1742897133.679526,1742897133.680258,8.000000,0.000000,4261.666504,4234.230957,4285.128418,4264.743652,4204.358887,4201.922852,4192.820313,4206.282227,4193.205078,4185.897461,4519.743652,4441.794922,4357.436035,4454.102539,3620.000000,0.000000,11.000000,,,,0.000000,4.000000,4.000000,4.000000,4.000000,4.000000,4.000000,4.000000,4.000000,4.000000,4.000000,4.000000,4.000000,4.000000,4.000000,100.000000,,,,,,,,,,,,,,,,,2.000000,0.000000,0.685339,-0.231567,-0.671753,-0.159485,0.991820,-0.105970,-0.005372,-41.386738,-7.304422,39.208881,,,,,,,,,,,,,,,,,,,,,,,,,,,,,,,,,,,,,,,,,,,,,,,,,,,,,,,,,,,,,,,,,,,,,,,,,,,,,,,,,,,,,,,,,,,,,,,,,,,,,
1742897133.687334,1742897133.688165,9.000000,0.000000,4270.641113,4237.692383,4289.102539,4268.717773,4204.871582,4204.487305,4191.153809,4203.717773,4194.615234,4189.743652,4523.205078,4438.846191,4366.410156,4459.358887,5170.000000,0.000000,11.000000,,,,0.000000,4.000000,4.000000,4.000000,4.000000,4.000000,4.000000,4.000000,4.000000,4.000000,4.000000,4.000000,4.000000,4.000000,4.000000,100.000000,,,,,,,,,,,,,,,,,,,,,,,,,,,,,,,,,,,,,,,,,,,,,,,,,,,,,,,,,,,,,,,,,,,,,,,,,,,,,,,,,,,,,,,,,,,,,,,,,,,,,,,,,,,,,,,,,,,,,,,,,,,,,,,,,
1742897133.695142,1742897133.695973,10.000000,0.000000,4266.666504,4240.256348,4288.077148,4267.179688,4202.948730,4204.230957,4189.358887,4206.666504,4195.769043,4189.358887,4516.922852,4432.436035,4361.666504,4453.461426,5796.000000,0.000000,11.000000,,,,0.000000,4.000000,4.000000,4.000000,4.000000,4.000000,4.000000,4.000000,4.000000,4.000000,4.000000,4.000000,4.000000,4.000000,4.000000,100.000000,,,,,,,,,,,,,,,,,,,,,,,,,,,,,,,,,,,,,,,,,,,,,,,,,,,,,,,,,,,,,,,,,,,,,,,,,,,,,,,,,,,,,,,,,,,,,,,,,,,,,,,,,,,,,,,,,,,,,,,,,,,,,,,,,
1742897133.702950,1742897133.703881,11.000000,0.000000,4253.974121,4231.153809,4277.692383,4258.974121,4198.717773,4203.974121,4189.102539,4204.102539,4190.769043,4183.974121,4508.589844,4424.230957,4353.077148,4440.641113,6142.000000,0.000000,11.000000,,,,0.000000,4.000000,4.000000,4.000000,4.000000,4.000000,4.000000,4.000000,4.000000,4.000000,4.000000,4.000000,4.000000,4.000000,4.000000,100.000000,,,,,,,,,,,,,,,,,,,,,,,,,,,,,,,,,,,,,,,,,,,,,,,,,,,,,,,,,,,,,,,,,,,,,,,,,,,,,,,,,,,,,,,,,,,,,,,,,,,,,,,,,,,,,,,,,,,,,,,,,,,,,,,,,
1742897133.710758,1742897133.711689,12.000000,0.000000,4243.333496,4217.051270,4266.153809,4247.820313,4187.820313,4198.974121,4188.205078,4199.102539,4185.512695,4173.333496,4498.717773,4417.692383,4337.563965,4425.128418,6404.000000,0.000000,11.000000,,,,0.000000,4.000000,4.000000,4.000000,4.000000,4.000000,4.000000,4.000000,4.000000,4.000000,4.000000,4.000000,4.000000,4.000000,4.000000,100.000000,,,,,,,,,,,,,,,,,3.000000,0.000000,0.685603,-0.232788,-0.670959,-0.159912,1.004029,-0.090831,-0.007325,-41.264729,-7.423980,39.171326,,,,,,,,,,,,,,,,,,,,,,,,,,,,,,,,,,,,,,,,,,,,,,,,,,,,,,,,,,,,,,,,,,,,,,,,,,,,,,,,,,,,,,,,,,,,,,,,,,,,,
1742897133.718567,1742897133.719597,13.000000,0.000000,4242.051270,4222.436035,4269.487305,4251.538574,4185.000000,4197.563965,4191.410156,4193.461426,4179.358887,4169.102539,4495.000000,4412.051270,4331.282227,4422.563965,5519.000000,0.000000,11.000000,,,,0.000000,4.000000,4.000000,4.000000,4.000000,4.000000,4.000000,4.000000,4.000000,4.000000,4.000000,4.000000,4.000000,4.000000,4.000000,100.000000,,,,,,,,,,,,,,,,,,,,,,,,,,,,,,,,,,,,,,,,,,,,,,,,,,,,,,,,,,,,,,,,,,,,,,,,,,,,,,,,,,,,,,,,,,,,,,,,,,,,,,,,,,,,,,,,,,,,,,,,,,,,,,,,,
1742897133.726375,1742897133.727405,14.000000,0.000000,4238.205078,4226.410156,4270.000000,4253.589844,4185.897461,4197.179688,4189.743652,4191.666504,4176.025879,4172.692383,4495.641113,4409.102539,4336.153809,4424.871582,5796.000000,0.000000,11.000000,,,,0.000000,4.000000,4.000000,4.000000,4.000000,4.000000,4.000000,4.000000,4.000000,4.000000,4.000000,4.000000,4.000000,4.000000,4.000000,100.000000,,,,,,,,,,,,,,,,,,,,,,,,,,,,,,,,,,,,,,,,,,,,,,,,,,,,,,,,,,,,,,,,,,,,,,,,,,,,,,,,,,,,,,,,,,,,,,,,,,,,,,,,,,,,,,,,,,,,,,,,,,,,,,,,,
1742897133.734183,1742897133.735313,15.000000,0.000000,4236.025879,4215.128418,4265.769043,4246.410156,4183.589844,4196.794922,4189.743652,4197.820313,4179.358887,4171.666504,4496.922852,4416.025879,4335.256348,4423.589844,6142.000000,0.000000,11.000000,,,,0.000000,4.000000,4.000000,4.000000,4.000000,4.000000,4.000000,4.000000,4.000000,4.000000,4.000000,4.000000,4.000000,4.000000,4.000000,100.000000,,,,,,,,,,,,,,,,,,,,,,,,,,,,,,,,,,,,,,,,,,,,,,,,,,,,,,,,,,,,,,,,,,,,,,,,,,,,,,,,,,,,,,,,,,,,,,,,,,,,,,,,,,,,,,,,,,,,,,,,,,,,,,,,,
1742897133.741991,1742897133.743121,16.000000,0.000000,4241.153809,4216.282227,4275.128418,4248.846191,4184.487305,4196.153809,4191.282227,4193.589844,4179.358887,4167.692383,4495.769043,4420.000000,4329.487305,4422.179688,0.000000,0.000000,11.000000,,,,0.000000,4.000000,4.000000,4.000000,4.000000,4.000000,4.000000,4.000000,4.000000,4.000000,4.000000,4.000000,4.000000,4.000000,4.000000,100.000000,,,,,,,,,,,,,,,,,4.000000,0.000000,0.685515,-0.234131,-0.670654,-0.159607,0.985960,-0.096203,-0.006348,-41.304924,-7.598249,39.287525,,,,,,,,,,,,,,,,,,,,,,,,,,,,,,,,,,,,,,,,,,,,,,,,,,,,,,,,,,,,,,,,,,,,,,,,,,,,,,,,,,,,,,,,,,,,,,,,,,,,,
1742897133.749799,1742897133.750829,17.000000,0.000000,4245.128418,4229.615234,4280.256348,4257.051270,4185.769043,4190.641113,4182.563965,4184.230957,4175.512695,4168.333496,4491.794922,4416.025879,4327.820313,4425.128418,0.000000,0.000000,11.000000,,,,0.000000,4.000000,4.000000,4.000000,4.000000,4.000000,4.000000,4.000000,4.000000,4.000000,4.000000,4.000000,4.000000,4.000000,4.000000,100.000000,,,,,,,,,,,,,,,,,,,,,,,,,,,,,,,,,,,,,,,,,,,,,,,,,,,,,,,,,,,,3.481143,3.926338,0.712060,0.253930,0.200998,8.563207,4.514155,0.759880,0.499972,0.243844,1.594407,2.235282,0.891071,0.162647,0.137105,2.112154,1.682036,0.435768,0.183323,0.165444,0.589474,0.344752,0.408126,0.095569,0.092333,0.182142,0.278222,0.315778,0.135313,0.127880,0.393477,0.805431,0.846093,0.379643,0.296084,0.904449,0.802102,0.882657,0.342360,0.208118,0.489276,0.605072,0.556361,0.181070,0.114139,1.315128,0.847059,0.429007,0.161819,0.107069,1.895223,1.778720,0.941475,0.281023,0.210735,1.648357,2.051957,1.659226,0.451280,0.176925,6.311593,2.797656,0.916712,0.265577,0.316166,1.848246,2.877002,0.770697,0.182391,0.221603
1742897133.757607,1742897133.758637,18.000000,0.000000,4247.436035,4233.205078,4275.641113,4259.743652,4185.769043,4190.000000,4176.153809,4186.794922,4176.666504,4172.820313,4496.666504,4418.205078,4335.897461,4434.871582,0.000000,0.000000,11.000000,,,,0.000000,4.000000,4.000000,4.000000,4.000000,4.000000,4.000000,4.000000,4.000000,4.000000,4.000000,4.000000,4.000000,4.000000,4.000000,100.000000,,,,,,,,,,,,,,,,,,,,,,,,,,,,,,,,,,,,,,,,,,,,,,,,,,,,,,,,,,,,,,,,,,,,,,,,,,,,,,,,,,,,,,,,,,,,,,,,,,,,,,,,,,,,,,,,,,,,,,,,,,,,,,,,,
1742897133.765415,1742897133.766345,19.000000,0.000000,4251.410156,4234.102539,4279.871582,4258.589844,4188.589844,4194.615234,4179.487305,4188.974121,4179.102539,4173.846191,4503.846191,4424.230957,4341.025879,4443.077148,0.000000,0.000000,11.000000,,,,0.000000,4.000000,4.000000,4.000000,4.000000,4.000000,4.000000,4.000000,4.000000,4.000000,4.000000,4.000000,4.000000,4.000000,4.000000,100.000000,,,,,,,,,,,,,,,,,,,,,,,,,,,,,,,,,,,,,,,,,,,,,,,,,,,,,,,,,,,,,,,,,,,,,,,,,,,,,,,,,,,,,,,,,,,,,,,,,,,,,,,,,,,,,,,,,,,,,,,,,,,,,,,,,
1742897133.773223,1742897133.774153,20.000000,0.000000,4249.358887,4233.589844,4279.230957,4251.538574,4190.000000,4190.769043,4178.205078,4181.025879,4174.743652,4167.563965,4496.025879,4419.871582,4334.487305,4435.384766,0.000000,0.000000,11.000000,,,,0.000000,4.000000,4.000000,4.000000,4.000000,4.000000,4.000000,4.000000,4.000000,4.000000,4.000000,4.000000,4.000000,4.000000,4.000000,100.000000,,,,,,,,,,,,,,,,,5.000000,0.000000,0.685536,-0.234802,-0.670471,-0.159302,0.990844,-0.094250,-0.002930,-41.307762,-7.621757,39.225441,,,,,,,,,,,,,,,,,,,,,,,,,,,,,,,,,,,,,,,,,,,,,,,,,,,,,,,,,,,,,,,,,,,,,,,,,,,,,,,,,,,,,,,,,,,,,,,,,,,,,
1742897133.781031,1742897133.781861,21.000000,0.000000,4245.641113,4230.000000,4271.025879,4247.179688,4186.794922,4186.666504,4175.512695,4181.794922,4175.769043,4172.051270,4491.922852,4416.794922,4335.384766,4430.769043,0.000000,0.000000,11.000000,,,,0.000000,4.000000,4.000000,4.000000,4.000000,4.000000,4.000000,4.000000,4.000000,4.000000,4.000000,4.000000,4.000000,4.000000,4.000000,100.000000,,,,,,,,,,,,,,,,,,,,,,,,,,,,,,,,,,,,,,,,,,,,,,,,,,,,,,,,,,,,,,,,,,,,,,,,,,,,,,,,,,,,,,,,,,,,,,,,,,,,,,,,,,,,,,,,,,,,,,,,,,,,,,,,,
1742897133.788839,1742897133.789669,22.000000,0.000000,4250.256348,4234.102539,4277.307617,4256.025879,4186.410156,4191.410156,4178.846191,4187.436035,4182.692383,4182.948730,4505.512695,4424.743652,4348.333496,4445.128418,0.000000,0.000000,11.000000,,,,0.000000,4.000000,4.000000,4.000000,4.000000,4.000000,4.000000,4.000000,4.000000,4.000000,4.000000,4.000000,4.000000,4.000000,4.000000,100.000000,,,,,,,,,,,,,,,,,,,,,,,,,,,,,,,,,,,,,,,,,,,,,,,,,,,,,,,,,,,,,,,,,,,,,,,,,,,,,,,,,,,,,,,,,,,,,,,,,,,,,,,,,,,,,,,,,,,,,,,,,,,,,,,,,
1742897133.796647,1742897133.797377,23.000000,0.000000,4253.717773,4236.794922,4281.794922,4260.384766,4188.974121,4193.717773,4179.871582,4175.769043,4176.153809,4178.205078,4506.025879,4422.051270,4350.769043,4451.410156,0.000000,0.000000,11.000000,,,,0.000000,4.000000,4.000000,4.000000,4.000000,4.000000,4.000000,4.000000,4.000000,4.000000,4.000000,4.000000,4.000000,4.000000,4.000000,100.000000,,,,,,,,,,,,,,,,,,,,,,,,,,,,,,,,,,,,,,,,,,,,,,,,,,,,,,,,,,,,,,,,,,,,,,,,,,,,,,,,,,,,,,,,,,,,,,,,,,,,,,,,,,,,,,,,,,,,,,,,,,,,,,,,,
1742897133.804456,1742897133.805185,24.000000,0.000000,4245.897461,4231.666504,4269.230957,4250.384766,4188.077148,4190.128418,4177.179688,4159.615234,4160.769043,4165.641113,4487.948730,4405.128418,4335.769043,4436.410156,0.000000,0.000000,11.000000,,,,0.000000,4.000000,4.000000,4.000000,4.000000,4.000000,4.000000,4.000000,4.000000,4.000000,4.000000,4.000000,4.000000,4.000000,4.000000,100.000000,,,,,,,,,,,,,,,,,6.000000,0.000000,0.685603,-0.234863,-0.670410,-0.159180,1.001099,-0.099622,-0.003907,-41.260323,-7.692915,39.136230,,,,,,,,,,,,,,,,,,,,,,,,,,,,,,,,,,,,,,,,,,,,,,,,,,,,,,,,,,,,,,,,,,,,,,,,,,,,,,,,,,,,,,,,,,,,,,,,,,,,,
1742897133.812264,1742897133.812893,25.000000,0.000000,4238.333496,4229.102539,4265.769043,4247.563965,4187.820313,4186.538574,4173.077148,4156.025879,4157.820313,4165.769043,4485.512695,4397.820313,4329.102539,4425.000000,0.000000,0.000000,11.000000,,,,0.000000,4.000000,4.000000,4.000000,4.000000,4.000000,4.000000,4.000000,4.000000,4.000000,4.000000,4.000000,4.000000,4.000000,4.000000,100.000000,,,,,,,,,,,,,,,,,,,,,,,,,,,,,,,,,,,,,,,,,,,,,,,,,,,,,,,,,,,,,,,,,,,,,,,,,,,,,,,,,,,,,,,,,,,,,,,,,,,,,,,,,,,,,,,,,,,,,,,,,,,,,,,,,
1742897133.820072,1742897133.820801,26.000000,0.000000,4246.794922,4236.025879,4278.717773,4259.358887,4193.589844,4186.153809,4171.153809,4156.025879,4165.897461,4174.487305,4497.179688,4402.820313,4343.589844,4435.897461,0.000000,0.000000,11.000000,,,,0.000000,4.000000,4.000000,4.000000,4.000000,4.000000,4.000000,4.000000,4.000000,4.000000,4.000000,4.000000,4.000000,4.000000,4.000000,100.000000,,,,,,,,,,,,,,,,,,,,,,,,,,,,,,,,,,,,,,,,,,,,,,,,,,,,,,,,,,,,,,,,,,,,,,,,,,,,,,,,,,,,,,,,,,,,,,,,,,,,,,,,,,,,,,,,,,,,,,,,,,,,,,,,,
1742897133.827880,1742897133.828609,27.000000,0.000000,4248.974121,4241.666504,4276.794922,4261.153809,4194.487305,4191.666504,4172.692383,4162.948730,4170.128418,4175.769043,4494.102539,4406.153809,4350.256348,4442.051270,0.000000,0.000000,11.000000,,,,0.000000,4.000000,4.000000,4.000000,4.000000,4.000000,4.000000,4.000000,4.000000,4.000000,4.000000,4.000000,4.000000,4.000000,4.000000,100.000000,,,,,,,,,,,,,,,,,,,,,,,,,,,,,,,,,,,,,,,,,,,,,,,,,,,,,,,,,,,,,,,,,,,,,,,,,,,,,,,,,,,,,,,,,,,,,,,,,,,,,,,,,,,,,,,,,,,,,,,,,,,,,,,,,
1742897133.835688,1742897133.836417,28.000000,0.000000,4228.589844,4227.436035,4257.820313,4242.436035,4186.410156,4195.897461,4178.461426,4180.000000,4173.205078,4165.512695,4476.666504,4403.205078,4327.692383,4422.307617,0.000000,0.000000,11.000000,,,,0.000000,4.000000,4.000000,4.000000,4.000000,4.000000,4.000000,4.000000,4.000000,4.000000,4.000000,4.000000,4.000000,4.000000,4.000000,100.000000,,,,,,,,,,,,,,,,,7.000000,0.000000,0.685515,-0.234680,-0.670593,-0.159058,0.990355,-0.107435,-0.008302,-41.217621,-7.656957,39.055939,,,,,,,,,,,,,,,,,,,,,,,,,,,,,,,,,,,,,,,,,,,,,,,,,,,,,,,,,,,,,,,,,,,,,,,,,,,,,,,,,,,,,,,,,,,,,,,,,,,,,
1742897133.843496,1742897133.844125,29.000000,0.000000,4229.487305,4223.077148,4258.077148,4243.461426,4184.487305,4194.615234,4186.538574,4189.230957,4179.230957,4163.461426,4481.025879,4408.461426,4323.461426,4420.384766,0.000000,0.000000,11.000000,,,,0.000000,4.000000,4.000000,4.000000,4.000000,4.000000,4.000000,4.000000,4.000000,4.000000,4.000000,4.000000,4.000000,4.000000,4.000000,100.000000,,,,,,,,,,,,,,,,,,,,,,,,,,,,,,,,,,,,,,,,,,,,,,,,,,,,,,,,,,,,,,,,,,,,,,,,,,,,,,,,,,,,,,,,,,,,,,,,,,,,,,,,,,,,,,,,,,,,,,,,,,,,,,,,,
1742897133.851304,1742897133.851933,30.000000,0.000000,4252.179688,4243.205078,4276.025879,4264.615234,4190.128418,4197.692383,4189.615234,4195.128418,4189.230957,4180.128418,4509.230957,4429.102539,4356.282227,4443.846191,0.000000,0.000000,11.000000,,,,0.000000,4.000000,4.000000,4.000000,4.000000,4.000000,4.000000,4.000000,4.000000,4.000000,4.000000,4.000000,4.000000,4.000000,4.000000,100.000000,,,,,,,,,,,,,,,,,,,,,,,,,,,,,,,,,,,,,,,,,,,,,,,,,,,,,,,,,,,,,,,,,,,,,,,,,,,,,,,,,,,,,,,,,,,,,,,,,,,,,,,,,,,,,,,,,,,,,,,,,,,,,,,,,
1742897133.859112,1742897133.859641,31.000000,0.000000,4244.358887,4235.897461,4272.563965,4259.358887,4187.307617,4201.922852,4187.692383,4205.000000,4198.846191,4185.641113,4512.820313,4435.384766,4354.743652,4440.641113,0.000000,0.000000,11.000000,,,,0.000000,4.000000,4.000000,4.000000,4.000000,4.000000,4.000000,4.000000,4.000000,4.000000,4.000000,4.000000,4.000000,4.000000,4.000000,100.000000,,,,,,,,,,,,,,,,,,,,,,,,,,,,,,,,,,,,,,,,,,,,,,,,,,,,,,,,,,,,,,,,,,,,,,,,,,,,,,,,,,,,,,,,,,,,,,,,,,,,,,,,,,,,,,,,,,,,,,,,,,,,,,,,,
1742897133.866920,1742897133.867549,32.000000,0.000000,4223.846191,4207.948730,4260.897461,4239.230957,4181.538574,4197.948730,4182.051270,4206.538574,4200.256348,4170.128418,4490.769043,4427.051270,4322.307617,4418.333496,0.000000,0.000000,11.000000,,,,0.000000,4.000000,4.000000,4.000000,4.000000,4.000000,4.000000,4.000000,4.000000,4.000000,4.000000,4.000000,4.000000,4.000000,4.000000,100.000000,,,,,,,,,,,,,,,,,8.000000,0.000000,0.685201,-0.234192,-0.671143,-0.158813,1.010377,-0.107435,-0.010255,-41.245861,-7.691261,39.117012,,,,,,,,,,,,,,,,,,,,,,,,,,,,,,,,,,,,,,,,,,,,,,,,,,,,,,,,,,,,,,,,,,,,,,,,,,,,,,,,,,,,,,,,,,,,,,,,,,,,,
1742897133.874728,1742897133.875357,33.000000,0.000000,4237.436035,4220.512695,4270.897461,4248.205078,4188.974121,4196.282227,4178.717773,4200.256348,4195.384766,4167.051270,4488.974121,4432.179688,4327.948730,4425.512695,0.000000,0.000000,11.000000,,,,0.000000,4.000000,4.000000,4.000000,4.000000,4.000000,4.000000,4.000000,4.000000,4.000000,4.000000,4.000000,4.000000,4.000000,4.000000,100.000000,,,,,,,,,,,,,,,,,,,,,,,,,,,,,,,,,,,,,,,,,,,,,,,,,,,,,,,,,,,,3.865057,3.728225,0.622935,0.234922,0.217351,8.309562,4.375904,0.790341,0.480042,0.241772,1.955468,2.154573,0.857158,0.162169,0.150421,2.196522,1.663724,0.455238,0.194012,0.163771,0.622429,0.330645,0.402892,0.083539,0.084604,0.160176,0.279431,0.295260,0.127562,0.110996,0.392061,0.775202,0.789818,0.366394,0.268827,1.196888,0.975463,1.273322,0.457591,0.212719,0.835807,0.861194,0.739688,0.237464,0.124253,1.599601,0.833671,0.387077,0.151409,0.115823,2.071998,1.581958,0.969790,0.319624,0.225094,2.799217,2.716301,2.310703,0.669852,0.203406,5.360554,2.112286,0.802134,0.248620,0.334974,2.259360,2.766305,0.751048,0.197080,0.244944
1742897133.882537,1742897133.883265,34.000000,0.000000,4253.589844,4242.820313,4279.871582,4264.743652,4200.128418,4202.692383,4186.153809,4204.230957,4199.358887,4182.179688,4505.512695,4442.307617,4350.897461,4445.641113,0.000000,0.000000,11.000000,,,,0.000000,4.000000,4.000000,4.000000,4.000000,4.000000,4.000000,4.000000,4.000000,4.000000,4.000000,4.000000,4.000000,4.000000,4.000000,100.000000,,,,,,,,,,,,,,,,,,,,,,,,,,,,,,,,,,,,,,,,,,,,,,,,,,,,,,,,,,,,,,,,,,,,,,,,,,,,,,,,,,,,,,,,,,,,,,,,,,,,,,,,,,,,,,,,,,,,,,,,,,,,,,,,,
1742897133.890345,1742897133.891073,35.000000,0.000000,4239.102539,4228.589844,4272.436035,4256.538574,4198.077148,4202.179688,4190.256348,4209.743652,4203.974121,4182.948730,4506.025879,4439.230957,4345.000000,4442.307617,0.000000,0.000000,11.000000,,,,0.000000,4.000000,4.000000,4.000000,4.000000,4.000000,4.000000,4.000000,4.000000,4.000000,4.000000,4.000000,4.000000,4.000000,4.000000,100.000000,,,,,,,,,,,,,,,,,,,,,,,,,,,,,,,,,,,,,,,,,,,,,,,,,,,,,,,,,,,,,,,,,,,,,,,,,,,,,,,,,,,,,,,,,,,,,,,,,,,,,,,,,,,,,,,,,,,,,,,,,,,,,,,,,
1742897133.898153,1742897133.898981,36.000000,0.000000,4228.846191,4222.948730,4270.128418,4246.025879,4192.307617,4192.179688,4178.589844,4200.256348,4196.922852,4175.384766,4497.563965,4428.077148,4336.025879,4430.641113,0.000000,0.000000,11.000000,,,,0.000000,4.000000,4.000000,4.000000,4.000000,4.000000,4.000000,4.000000,4.000000,4.000000,4.000000,4.000000,4.000000,4.000000,4.000000,100.000000,,,,,,,,,,,,,,,,,9.000000,0.000000,0.684692,-0.233704,-0.671875,-0.158630,0.975705,-0.101575,-0.005860,-41.171272,-7.488801,39.071980,,,,,,,,,,,,,,,,,,,,,,,,,,,,,,,,,,,,,,,,,,,,,,,,,,,,,,,,,,,,,,,,,,,,,,,,,,,,,,,,,,,,,,,,,,,,,,,,,,,,,
1742897133.905961,1742897133.906789,37.000000,0.000000,4235.384766,4234.743652,4272.307617,4250.128418,4191.666504,4192.563965,4173.974121,4199.102539,4196.025879,4183.461426,4502.563965,4430.256348,4343.846191,4433.589844,0.000000,0.000000,11.000000,,,,0.000000,4.000000,4.000000,4.000000,4.000000,4.000000,4.000000,4.000000,4.000000,4.000000,4.000000,4.000000,4.000000,4.000000,4.000000,100.000000,,,,,,,,,,,,,,,,,,,,,,,,,,,,,,,,,,,,,,,,,,,,,,,,,,,,,,,,,,,,,,,,,,,,,,,,,,,,,,,,,,,,,,,,,,,,,,,,,,,,,,,,,,,,,,,,,,,,,,,,,,,,,,,,,
1742897133.913769,1742897133.914697,38.000000,0.000000,4235.512695,4221.922852,4266.794922,4249.487305,4186.794922,4201.794922,4182.179688,4205.769043,4200.641113,4189.487305,4510.256348,4435.000000,4343.589844,4437.563965,0.000000,0.000000,11.000000,,,,0.000000,4.000000,4.000000,4.000000,4.000000,4.000000,4.000000,4.000000,4.000000,4.000000,4.000000,4.000000,4.000000,4.000000,4.000000,100.000000,,,,,,,,,,,,,,,,,,,,,,,,,,,,,,,,,,,,,,,,,,,,,,,,,,,,,,,,,,,,,,,,,,,,,,,,,,,,,,,,,,,,,,,,,,,,,,,,,,,,,,,,,,,,,,,,,,,,,,,,,,,,,,,,,
1742897133.921577,1742897133.922504,39.000000,0.000000,4226.666504,4210.769043,4260.897461,4241.538574,4185.512695,4203.077148,4181.025879,4195.256348,4193.333496,4183.205078,4504.487305,4424.102539,4333.589844,4426.153809,0.000000,0.000000,11.000000,,,,0.000000,4.000000,4.000000,4.000000,4.000000,4.000000,4.000000,4.000000,4.000000,4.000000,4.000000,4.000000,4.000000,4.000000,4.000000,100.000000,,,,,,,,,,,,,,,,,,,,,,,,,,,,,,,,,,,,,,,,,,,,,,,,,,,,,,,,,,,,,,,,,,,,,,,,,,,,,,,,,,,,,,,,,,,,,,,,,,,,,,,,,,,,,,,,,,,,,,,,,,,,,,,,,
1742897133.929385,1742897133.930213,40.000000,0.000000,4230.000000,4232.563965,4265.897461,4248.974121,4198.461426,4204.102539,4183.333496,4193.205078,4191.666504,4181.922852,4502.948730,4425.256348,4330.897461,4423.461426,0.000000,0.000000,11.000000,,,,0.000000,4.000000,4.000000,4.000000,4.000000,4.000000,4.000000,4.000000,4.000000,4.000000,4.000000,4.000000,4.000000,4.000000,4.000000,100.000000,,,,,,,,,,,,,,,,,10.000000,0.000000,0.684384,-0.233398,-0.672424,-0.158081,0.988890,-0.094738,-0.008302,-41.237480,-7.373255,39.098114,,,,,,,,,,,,,,,,,,,,,,,,,,,,,,,,,,,,,,,,,,,,,,,,,,,,,,,,,,,,,,,,,,,,,,,,,,,,,,,,,,,,,,,,,,,,,,,,,,,,,
1742897133.937193,1742897133.938021,41.000000,0.000000,4242.692383,4246.153809,4272.307617,4265.384766,4205.641113,4209.615234,4193.717773,4202.563965,4196.794922,4186.153809,4507.820313,4435.897461,4333.461426,4437.179688,0.000000,0.000000,11.000000,,,,0.000000,4.000000,4.000000,4.000000,4.000000,4.000000,4.000000,4.000000,4.000000,4.000000,4.000000,4.000000,4.000000,4.000000,4.000000,100.000000,,,,,,,,,,,,,,,,,,,,,,,,,,,,,,,,,,,,,,,,,,,,,,,,,,,,,,,,,,,,,,,,,,,,,,,,,,,,,,,,,,,,,,,,,,,,,,,,,,,,,,,,,,,,,,,,,,,,,,,,,,,,,,,,,
1742897133.945001,1742897133.945729,42.000000,0.000000,4245.769043,4236.794922,4269.102539,4261.922852,4202.051270,4208.205078,4192.179688,4202.179688,4195.641113,4184.230957,4506.410156,4436.666504,4335.641113,4442.307617,0.000000,0.000000,11.000000,,,,0.000000,4.000000,4.000000,4.000000,4.000000,4.000000,4.000000,4.000000,4.000000,4.000000,4.000000,4.000000,4.000000,4.000000,4.000000,100.000000,,,,,,,,,,,,,,,,,,,,,,,,,,,,,,,,,,,,,,,,,,,,,,,,,,,,,,,,,,,,,,,,,,,,,,,,,,,,,,,,,,,,,,,,,,,,,,,,,,,,,,,,,,,,,,,,,,,,,,,,,,,,,,,,,
1742897133.952809,1742897133.953537,43.000000,0.000000,4243.846191,4234.743652,4268.205078,4253.846191,4204.487305,4208.974121,4191.922852,4207.563965,4203.846191,4187.051270,4512.820313,4444.487305,4342.436035,4443.461426,0.000000,0.000000,11.000000,,,,0.000000,4.000000,4.000000,4.000000,4.000000,4.000000,4.000000,4.000000,4.000000,4.000000,4.000000,4.000000,4.000000,4.000000,4.000000,100.000000,,,,,,,,,,,,,,,,,,,,,,,,,,,,,,,,,,,,,,,,,,,,,,,,,,,,,,,,,,,,,,,,,,,,,,,,,,,,,,,,,,,,,,,,,,,,,,,,,,,,,,,,,,,,,,,,,,,,,,,,,,,,,,,,,
