Timestamp,OriginalTimestamp,EEG.Counter,EEG.Interpolated,EEG.AF3,EEG.F7,EEG.F3,EEG.FC5,EEG.T7,EEG.P7,EEG.O1,EEG.O2,EEG.P8,EEG.T8,EEG.FC6,EEG.F4,EEG.F8,EEG.AF4,EEG.RawCq,EEG.Battery,EEG.BatteryPercent,MarkerIndex,MarkerType,MarkerValueInt,EEG.MarkerHardware,CQ.AF3,CQ.F7,CQ.F3,CQ.FC5,CQ.T7,CQ.P7,CQ.O1,CQ.O2,CQ.P8,CQ.T8,CQ.FC6,CQ.F4,CQ.F8,CQ.AF4,CQ.Overall,EQ.SampleRateQuality,EQ.OVERALL,EQ.AF3,EQ.F7,EQ.F3,EQ.FC5,EQ.T7,EQ.P7,EQ.O1,EQ.O2,EQ.P8,EQ.T8,EQ.FC6,EQ.F4,EQ.F8,EQ.AF4,MOT.CounterMems,MOT.InterpolatedMems,MOT.Q0,MOT.Q1,MOT.Q2,MOT.Q3,MOT.AccX,MOT.AccY,MOT.AccZ,MOT.MagX,MOT.MagY,MOT.MagZ,PM.Attention.IsActive,PM.Attention.Scaled,PM.Attention.Raw,PM.Attention.Min,PM.Attention.Max,PM.Engagement.IsActive,PM.Engagement.Scaled,PM.Engagement.Raw,PM.Engagement.Min,PM.Engagement.Max,PM.Excitement.IsActive,PM.Excitement.Scaled,PM.Excitement.Raw,PM.Excitement.Min,PM.Excitement.Max,PM.LongTermExcitement,PM.Stress.IsActive,PM.Stress.Scaled,PM.Stress.Raw,PM.Stress.Min,PM.Stress.Max,PM.Relaxation.IsActive,PM.Relaxation.Scaled,PM.Relaxation.Raw,PM.Relaxation.Min,PM.Relaxation.Max,PM.Interest.IsActive,PM.Interest.Scaled,PM.Interest.Raw,PM.Interest.Min,PM.Interest.Max,POW.AF3.Theta,POW.AF3.Alpha,POW.AF3.BetaL,POW.AF3.BetaH,POW.AF3.Gamma,POW.F7.Theta,POW.F7.Alpha,POW.F7.BetaL,POW.F7.BetaH,POW.F7.Gamma,POW.F3.Theta,POW.F3.Alpha,POW.F3.BetaL,POW.F3.BetaH,POW.F3.Gamma,POW.FC5.Theta,POW.FC5.Alpha,POW.FC5.BetaL,POW.FC5.BetaH,POW.FC5.Gamma,POW.T7.Theta,POW.T7.Alpha,POW.T7.BetaL,POW.T7.BetaH,POW.T7.Gamma,POW.P7.Theta,POW.P7.Alpha,POW.P7.BetaL,POW.P7.BetaH,POW.P7.Gamma,POW.O1.Theta,POW.O1.Alpha,POW.O1.BetaL,POW.O1.BetaH,POW.O1.Gamma,POW.O2.Theta,POW.O2.Alpha,POW.O2.BetaL,POW.O2.BetaH,POW.O2.Gamma,POW.P8.Theta,POW.P8.Alpha,POW.P8.BetaL,POW.P8.BetaH,POW.P8.Gamma,POW.T8.Theta,POW.T8.Alpha,POW.T8.BetaL,POW.T8.BetaH,POW.T8.Gamma,POW.FC6.Theta,POW.FC6.Alpha,POW.FC6.BetaL,POW.FC6.BetaH,POW.FC6.Gamma,POW.F4.Theta,POW.F4.Alpha,POW.F4.BetaL,POW.F4.BetaH,POW.F4.Gamma,POW.F8.Theta,POW.F8.Alpha,POW.F8.BetaL,POW.F8.BetaH,POW.F8.Gamma,POW.AF4.Theta,POW.AF4.Alpha,POW.AF4.BetaL,POW.AF4.BetaH,POW.AF4.Gamma
1739356001.827581,1739356001.828071,56.000000,0.000000,4270.000000,4257.436035,4305.512695,4504.743652,4252.820313,4245.384766,4252.563965,4309.487305,4252.948730,4249.358887,4576.666504,4508.461426,4411.666504,4477.436035,0.000000,0.000000,12.000000,,,,0.000000,4.000000,4.000000,4.000000,4.000000,4.000000,4.000000,4.000000,4.000000,4.000000,4.000000,4.000000,4.000000,4.000000,4.000000,100.000000,,,,,,,,,,,,,,,,,14.000000,0.000000,0.703733,-0.143311,-0.692200,0.071289,0.948358,-0.308631,0.005372,-38.943008,-35.869232,40.074051,,,,,,,,,,,,,,,,,,,,,,,,,,,,,,,,23.714453,5.726146,2.657355,1.611596,2.256272,20.123924,3.388825,2.097877,1.727830,2.063338,3.806649,1.576638,0.993150,1.372124,2.006856,6.739351,1.557353,1.176883,1.887084,2.131126,0.820464,0.391867,0.509055,1.207301,1.802466,0.472226,0.481191,0.413620,1.001103,1.887216,0.709924,0.915664,0.830916,1.135812,2.051570,0.091722,0.136073,0.205485,0.197827,0.326737,0.536035,1.427592,1.031902,1.325763,1.957226,1.485383,2.259690,1.850357,1.866884,2.352380,3.515618,2.762042,1.438906,1.715446,2.098352,5.063000,2.943825,1.665871,2.238422,2.888869,7.949073,4.435983,1.477933,1.387169,1.534806,18.252443,5.573137,2.367539,1.974725,2.265612
1739356001.835390,1739356001.835979,57.000000,0.000000,4250.769043,4239.871582,4287.179688,4485.769043,4236.538574,4224.871582,4233.333496,4299.487305,4230.256348,4232.436035,4559.230957,4483.461426,4396.025879,4457.051270,0.000000,0.000000,12.000000,,,,0.000000,4.000000,4.000000,4.000000,4.000000,4.000000,4.000000,4.000000,4.000000,4.000000,4.000000,4.000000,4.000000,4.000000,4.000000,100.000000,,,,,,,,,,,,,,,,,,,,,,,,,,,,,,,,,,,,,,,,,,,,,,,,,,,,,,,,,,,,,,,,,,,,,,,,,,,,,,,,,,,,,,,,,,,,,,,,,,,,,,,,,,,,,,,,,,,,,,,,,,,,,,,,,
1739356001.843197,1739356001.843787,58.000000,0.000000,4258.333496,4247.307617,4292.948730,4498.589844,4245.512695,4233.333496,4237.692383,4305.512695,4240.641113,4242.692383,4569.743652,4494.615234,4404.102539,4468.974121,0.000000,0.000000,12.000000,,,,0.000000,4.000000,4.000000,4.000000,4.000000,4.000000,4.000000,4.000000,4.000000,4.000000,4.000000,4.000000,4.000000,4.000000,4.000000,100.000000,,,,,,,,,,,,,,,,,,,,,,,,,,,,,,,,,,,,,,,,,,,,,,,,,,,,,,,,,,,,,,,,,,,,,,,,,,,,,,,,,,,,,,,,,,,,,,,,,,,,,,,,,,,,,,,,,,,,,,,,,,,,,,,,,
1739356001.851006,1739356001.851695,59.000000,0.000000,4293.461426,4279.871582,4319.487305,4531.025879,4271.666504,4262.051270,4266.410156,4310.256348,4276.025879,4276.794922,4601.153809,4528.077148,4429.871582,4498.974121,0.000000,0.000000,12.000000,,,,0.000000,4.000000,4.000000,4.000000,4.000000,4.000000,4.000000,4.000000,4.000000,4.000000,4.000000,4.000000,4.000000,4.000000,4.000000,100.000000,,,,,,,,,,,,,,,,,,,,,,,,,,,,,,,,,,,,,,,,,,,,,,,,,,,,,,,,,,,,,,,,,,,,,,,,,,,,,,,,,,,,,,,,,,,,,,,,,,,,,,,,,,,,,,,,,,,,,,,,,,,,,,,,,
1739356001.858814,1739356001.859503,60.000000,0.000000,4307.051270,4288.974121,4330.641113,4534.358887,4276.153809,4267.563965,4275.512695,4299.615234,4284.102539,4289.487305,4605.897461,4537.436035,4435.000000,4502.563965,0.000000,0.000000,12.000000,,,,0.000000,4.000000,4.000000,4.000000,4.000000,4.000000,4.000000,4.000000,4.000000,4.000000,4.000000,4.000000,4.000000,4.000000,4.000000,100.000000,,,,,,,,,,,,,,,,,15.000000,0.000000,0.704434,-0.140808,-0.691956,0.071716,0.955195,-0.293493,0.005860,-38.998707,-35.815643,40.099979,,,,,,,,,,,,,,,,,,,,,,,,,,,,,,,,,,,,,,,,,,,,,,,,,,,,,,,,,,,,,,,,,,,,,,,,,,,,,,,,,,,,,,,,,,,,,,,,,,,,,
1739356001.866622,1739356001.867211,61.000000,0.000000,4279.743652,4261.282227,4306.666504,4506.410156,4253.589844,4241.922852,4251.025879,4284.230957,4252.563965,4258.589844,4576.025879,4508.974121,4406.922852,4474.871582,0.000000,0.000000,12.000000,,,,0.000000,4.000000,4.000000,4.000000,4.000000,4.000000,4.000000,4.000000,4.000000,4.000000,4.000000,4.000000,4.000000,4.000000,4.000000,100.000000,,,,,,,,,,,,,,,,,,,,,,,,,,,,,,,,,,,,,,,,,,,,,,,,,,,,,,,,,,,,,,,,,,,,,,,,,,,,,,,,,,,,,,,,,,,,,,,,,,,,,,,,,,,,,,,,,,,,,,,,,,,,,,,,,
1739356001.874430,1739356001.875019,62.000000,0.000000,4260.000000,4246.538574,4286.410156,4494.487305,4239.230957,4225.769043,4237.692383,4281.410156,4233.846191,4235.384766,4555.769043,4485.897461,4386.410156,4458.589844,0.000000,0.000000,12.000000,,,,0.000000,4.000000,4.000000,4.000000,4.000000,4.000000,4.000000,4.000000,4.000000,4.000000,4.000000,4.000000,4.000000,4.000000,4.000000,100.000000,,,,,,,,,,,,,,,,,,,,,,,,,,,,,,,,,,,,,,,,,,,,,,,,,,,,,,,,,,,,,,,,,,,,,,,,,,,,,,,,,,,,,,,,,,,,,,,,,,,,,,,,,,,,,,,,,,,,,,,,,,,,,,,,,
1739356001.882238,1739356001.882727,63.000000,0.000000,4265.000000,4254.487305,4290.128418,4500.897461,4240.897461,4233.205078,4243.717773,4291.538574,4241.153809,4240.256348,4556.410156,4489.230957,4394.871582,4466.538574,0.000000,0.000000,12.000000,,,,0.000000,4.000000,4.000000,4.000000,4.000000,4.000000,4.000000,4.000000,4.000000,4.000000,4.000000,4.000000,4.000000,4.000000,4.000000,100.000000,,,,,,,,,,,,,,,,,,,,,,,,,,,,,,,,,,,,,,,,,,,,,,,,,,,,,,,,,,,,,,,,,,,,,,,,,,,,,,,,,,,,,,,,,,,,,,,,,,,,,,,,,,,,,,,,,,,,,,,,,,,,,,,,,
1739356001.890046,1739356001.890535,64.000000,0.000000,4281.794922,4265.384766,4306.538574,4512.948730,4254.743652,4250.384766,4257.307617,4306.153809,4258.205078,4256.282227,4574.871582,4511.153809,4419.102539,4487.307617,5081.000000,0.000000,12.000000,,,,0.000000,4.000000,4.000000,4.000000,4.000000,4.000000,4.000000,4.000000,4.000000,4.000000,4.000000,4.000000,4.000000,4.000000,4.000000,100.000000,,,,,,,,,,,,,,,,,16.000000,0.000000,0.704856,-0.139465,-0.691772,0.071960,0.944451,-0.279331,0.001953,-39.132172,-35.850742,40.173317,,,,,,,,,,,,,,,,,,,,,,,,,,,,,,,,,,,,,,,,,,,,,,,,,,,,,,,,,,,,,,,,,,,,,,,,,,,,,,,,,,,,,,,,,,,,,,,,,,,,,
1739356001.897854,1739356001.898243,65.000000,0.000000,4300.897461,4281.794922,4323.461426,4532.820313,4273.077148,4263.077148,4273.846191,4314.743652,4274.487305,4275.256348,4600.384766,4538.333496,4434.102539,4506.153809,5594.000000,0.000000,12.000000,,,,0.000000,4.000000,4.000000,4.000000,4.000000,4.000000,4.000000,4.000000,4.000000,4.000000,4.000000,4.000000,4.000000,4.000000,4.000000,100.000000,,,,,,,,,,,,,,,,,,,,,,,,,,,,,,,,,,,,,,,,,,,,,,,,,,,,,,,,,,,,,,,,,,,,,,,,,,,,,,,,,,,,,,,,,,,,,,,,,,,,,,,,,,,,,,,,,,,,,,,,,,,,,,,,,
1739356001.905662,1739356001.906051,66.000000,0.000000,4300.128418,4285.769043,4324.487305,4537.179688,4274.102539,4258.717773,4269.230957,4310.897461,4274.743652,4276.794922,4599.102539,4541.410156,4426.922852,4504.230957,5631.000000,0.000000,12.000000,,,,0.000000,4.000000,4.000000,4.000000,4.000000,4.000000,4.000000,4.000000,4.000000,4.000000,4.000000,4.000000,4.000000,4.000000,4.000000,100.000000,,,,,,,,,,,,,,,,,,,,,,,,,,,,,,,,,,,,,,,,,,,,,,,,,,,,,,,,,,,,,,,,,,,,,,,,,,,,,,,,,,,,,,,,,,,,,,,,,,,,,,,,,,,,,,,,,,,,,,,,,,,,,,,,,
1739356001.913470,1739356001.913760,67.000000,0.000000,4286.794922,4270.256348,4313.717773,4522.436035,4263.461426,4246.922852,4245.384766,4303.461426,4264.615234,4267.820313,4581.410156,4526.666504,4422.307617,4492.692383,5567.000000,0.000000,12.000000,,,,0.000000,4.000000,4.000000,4.000000,4.000000,4.000000,4.000000,4.000000,4.000000,4.000000,4.000000,4.000000,4.000000,4.000000,4.000000,100.000000,,,,,,,,,,,,,,,,,,,,,,,,,,,,,,,,,,,,,,,,,,,,,,,,,,,,,,,,,,,,,,,,,,,,,,,,,,,,,,,,,,,,,,,,,,,,,,,,,,,,,,,,,,,,,,,,,,,,,,,,,,,,,,,,,
1739356001.921278,1739356001.921567,68.000000,0.000000,4277.563965,4256.794922,4301.282227,4508.974121,4250.000000,4234.487305,4229.487305,4297.436035,4251.282227,4255.897461,4570.000000,4511.282227,4421.025879,4482.563965,5529.000000,0.000000,12.000000,,,,0.000000,4.000000,4.000000,4.000000,4.000000,4.000000,4.000000,4.000000,4.000000,4.000000,4.000000,4.000000,4.000000,4.000000,4.000000,100.000000,,,,,,,,,,,,,,,,,17.000000,0.000000,0.705912,-0.136597,-0.691223,0.072388,0.943963,-0.299353,0.004395,-39.102287,-35.782337,40.289318,,,,,,,,,,,,,,,,,,,,,,,,,,,,,,,,,,,,,,,,,,,,,,,,,,,,,,,,,,,,,,,,,,,,,,,,,,,,,,,,,,,,,,,,,,,,,,,,,,,,,
1739356001.929086,1739356001.929276,69.000000,0.000000,4281.410156,4261.794922,4299.102539,4512.948730,4245.256348,4228.846191,4231.025879,4289.743652,4246.794922,4250.256348,4570.769043,4507.948730,4420.897461,4483.461426,5516.000000,0.000000,12.000000,,,,0.000000,4.000000,4.000000,4.000000,4.000000,4.000000,4.000000,4.000000,4.000000,4.000000,4.000000,4.000000,4.000000,4.000000,4.000000,100.000000,,,,,,,,,,,,,,,,,,,,,,,,,,,,,,,,,,,,,,,,,,,,,,,,,,,,,,,,,,,,,,,,,,,,,,,,,,,,,,,,,,,,,,,,,,,,,,,,,,,,,,,,,,,,,,,,,,,,,,,,,,,,,,,,,
1739356001.936895,1739356001.937084,70.000000,0.000000,4299.230957,4282.820313,4315.384766,4531.153809,4262.051270,4243.589844,4243.333496,4291.538574,4259.358887,4261.666504,4587.436035,4526.922852,4439.358887,4503.846191,5482.000000,0.000000,12.000000,,,,0.000000,4.000000,4.000000,4.000000,4.000000,4.000000,4.000000,4.000000,4.000000,4.000000,4.000000,4.000000,4.000000,4.000000,4.000000,100.000000,,,,,,,,,,,,,,,,,,,,,,,,,,,,,,,,,,,,,,,,,,,,,,,,,,,,,,,,,,,,,,,,,,,,,,,,,,,,,,,,,,,,,,,,,,,,,,,,,,,,,,,,,,,,,,,,,,,,,,,,,,,,,,,,,
1739356001.944703,1739356001.944792,71.000000,0.000000,4345.769043,4329.102539,4358.589844,4574.102539,4306.538574,4283.846191,4283.077148,4319.615234,4299.615234,4306.922852,4634.743652,4584.615234,4484.615234,4551.282227,2109.000000,0.000000,12.000000,,,,0.000000,4.000000,4.000000,4.000000,4.000000,4.000000,4.000000,4.000000,4.000000,4.000000,4.000000,4.000000,4.000000,4.000000,4.000000,100.000000,,,,,,,,,,,,,,,,,,,,,,,,,,,,,,,,,,,,,,,,,,,,,,,,,,,,,,,,,,,,,,,,,,,,,,,,,,,,,,,,,,,,,,,,,,,,,,,,,,,,,,,,,,,,,,,,,,,,,,,,,,,,,,,,,
1739356001.952511,1739356001.952600,72.000000,0.000000,4357.563965,4337.948730,4366.153809,4585.128418,4311.666504,4288.974121,4291.538574,4334.230957,4308.717773,4324.358887,4649.871582,4603.333496,4489.615234,4560.128418,5260.000000,0.000000,12.000000,,,,0.000000,4.000000,4.000000,4.000000,4.000000,4.000000,4.000000,4.000000,4.000000,4.000000,4.000000,4.000000,4.000000,4.000000,4.000000,100.000000,1.000000,25.000000,1.000000,1.000000,1.000000,1.000000,3.000000,1.000000,1.000000,4.000000,3.000000,1.000000,3.000000,1.000000,3.000000,1.000000,18.000000,0.000000,0.707208,-0.133118,-0.690552,0.072632,0.962520,-0.286656,0.007813,-39.142059,-35.520771,40.377052,,,,,,,,,,,,,,,,,,,,,,,,,,,,,,,,9.427413,2.727341,1.858099,1.559968,2.318362,10.029111,1.707451,1.370375,1.681774,2.150901,1.975312,0.935952,0.817014,1.354159,2.049993,4.020251,0.909278,0.836233,1.781925,2.186984,0.793555,0.324223,0.500855,1.163490,1.870700,0.377605,0.366237,0.400681,0.942170,1.984539,0.545580,0.775334,0.815992,1.063834,2.129066,0.089424,0.120881,0.179173,0.189106,0.335435,0.517601,1.305979,1.026907,1.339755,2.087663,1.600846,2.032614,1.979205,1.675465,2.451810,2.039147,2.177037,1.462417,1.671386,2.136173,2.497135,1.985065,1.518177,2.250535,2.961995,4.399060,3.588326,1.419644,1.494877,1.655617,6.890512,2.950541,1.808596,1.950705,2.377971
1739356001.960319,1739356001.960308,73.000000,0.000000,4306.153809,4280.897461,4320.641113,4538.974121,4262.436035,4245.384766,4246.282227,4315.769043,4261.282227,4272.436035,4602.563965,4546.666504,4442.563965,4509.102539,5611.000000,0.000000,12.000000,,,,0.000000,4.000000,4.000000,4.000000,4.000000,4.000000,4.000000,4.000000,4.000000,4.000000,4.000000,4.000000,4.000000,4.000000,4.000000,100.000000,,,,,,,,,,,,,,,,,,,,,,,,,,,,,,,,,,,,,,,,,,,,,,,,,,,,,,,,,,,,,,,,,,,,,,,,,,,,,,,,,,,,,,,,,,,,,,,,,,,,,,,,,,,,,,,,,,,,,,,,,,,,,,,,,
1739356001.968127,1739356001.968216,74.000000,0.000000,4309.230957,4280.128418,4327.051270,4543.589844,4262.307617,4248.974121,4252.820313,4312.563965,4263.974121,4267.307617,4601.538574,4548.461426,4449.615234,4514.230957,4928.000000,0.000000,12.000000,,,,0.000000,4.000000,4.000000,4.000000,4.000000,4.000000,4.000000,4.000000,4.000000,4.000000,4.000000,4.000000,4.000000,4.000000,4.000000,100.000000,,,,,,,,,,,,,,,,,,,,,,,,,,,,,,,,,,,,,,,,,,,,,,,,,,,,,,,,,,,,,,,,,,,,,,,,,,,,,,,,,,,,,,,,,,,,,,,,,,,,,,,,,,,,,,,,,,,,,,,,,,,,,,,,,
1739356001.975935,1739356001.976024,75.000000,0.000000,4361.794922,4330.897461,4373.333496,4592.179688,4309.358887,4294.487305,4306.538574,4328.974121,4317.179688,4326.410156,4654.487305,4609.487305,4496.922852,4566.538574,5619.000000,0.000000,12.000000,,,,0.000000,4.000000,4.000000,4.000000,4.000000,4.000000,4.000000,4.000000,4.000000,4.000000,4.000000,4.000000,4.000000,4.000000,4.000000,100.000000,,,,,,,,,,,,,,,,,,,,,,,,,,,,,,,,,,,,,,,,,,,,,,,,,,,,,,,,,,,,,,,,,,,,,,,,,,,,,,,,,,,,,,,,,,,,,,,,,,,,,,,,,,,,,,,,,,,,,,,,,,,,,,,,,
1739356001.983743,1739356001.983932,76.000000,0.000000,4347.051270,4310.512695,4360.512695,4580.641113,4307.692383,4296.410156,4305.128418,4324.743652,4318.589844,4332.692383,4648.717773,4598.717773,4483.205078,4550.384766,5639.000000,0.000000,12.000000,,,,0.000000,4.000000,4.000000,4.000000,4.000000,4.000000,4.000000,4.000000,4.000000,4.000000,4.000000,4.000000,4.000000,4.000000,4.000000,100.000000,,,,,,,,,,,,,,,,,19.000000,0.000000,0.708574,-0.129395,-0.689819,0.072998,0.964962,-0.269076,0.019045,-39.261185,-35.418694,40.372681,,,,,,,,,,,,,,,,,,,,,,,,,,,,,,,,,,,,,,,,,,,,,,,,,,,,,,,,,,,,,,,,,,,,,,,,,,,,,,,,,,,,,,,,,,,,,,,,,,,,,
1739356001.991551,1739356001.991740,77.000000,0.000000,4293.461426,4265.128418,4313.974121,4535.641113,4268.717773,4260.512695,4260.641113,4305.769043,4273.461426,4278.205078,4592.307617,4534.358887,4432.307617,4493.461426,6484.000000,0.000000,12.000000,,,,0.000000,4.000000,4.000000,4.000000,4.000000,4.000000,4.000000,4.000000,4.000000,4.000000,4.000000,4.000000,4.000000,4.000000,4.000000,100.000000,,,,,,,,,,,,,,,,,,,,,,,,,,,,,,,,,,,,,,,,,,,,,,,,,,,,,,,,,,,,,,,,,,,,,,,,,,,,,,,,,,,,,,,,,,,,,,,,,,,,,,,,,,,,,,,,,,,,,,,,,,,,,,,,,
1739356001.999359,1739356001.999648,78.000000,0.000000,4319.358887,4318.461426,4331.666504,4562.051270,4283.461426,4269.487305,4267.820313,4308.461426,4274.743652,4269.615234,4597.179688,4542.563965,4434.743652,4510.641113,4928.000000,0.000000,12.000000,,,,0.000000,4.000000,4.000000,4.000000,4.000000,4.000000,4.000000,4.000000,4.000000,4.000000,4.000000,4.000000,4.000000,4.000000,4.000000,100.000000,,,,,,,,,,,,,,,,,,,,,,,,,,,,,,,,,,,,,,,,,,,,,,,,,,,,,,,,,,,,,,,,,,,,,,,,,,,,,,,,,,,,,,,,,,,,,,,,,,,,,,,,,,,,,,,,,,,,,,,,,,,,,,,,,
1739356002.007167,1739356002.007457,79.000000,0.000000,4377.692383,4388.077148,4372.563965,4617.307617,4319.358887,4303.589844,4299.743652,4317.692383,4299.871582,4298.846191,4630.641113,4590.256348,4452.307617,4560.897461,5619.000000,0.000000,12.000000,,,,0.000000,4.000000,4.000000,4.000000,4.000000,4.000000,4.000000,4.000000,4.000000,4.000000,4.000000,4.000000,4.000000,4.000000,4.000000,100.000000,,,,,,,,,,,,,,,,,,,,,,,,,,,,,,,,,,,,,,,,,,,,,,,,,,,,,,,,,,,,,,,,,,,,,,,,,,,,,,,,,,,,,,,,,,,,,,,,,,,,,,,,,,,,,,,,,,,,,,,,,,,,,,,,,
1739356002.014975,1739356002.015365,80.000000,0.000000,4384.743652,4386.538574,4371.410156,4625.769043,4315.256348,4300.000000,4294.871582,4314.487305,4290.512695,4293.077148,4620.769043,4594.743652,4433.205078,4562.948730,5639.000000,0.000000,12.000000,,,,0.000000,4.000000,4.000000,4.000000,4.000000,4.000000,4.000000,4.000000,4.000000,4.000000,4.000000,4.000000,4.000000,4.000000,4.000000,100.000000,,,,,,,,,,,,,,,,,20.000000,0.000000,0.709959,-0.125366,-0.689087,0.073486,0.963497,-0.267611,0.020999,-39.285069,-35.193489,40.418747,,,,,,,,,,,,,,,,,,,,,,,,,,,,,,,,,,,,,,,,,,,,,,,,,,,,,,,,,,,,,,,,,,,,,,,,,,,,,,,,,,,,,,,,,,,,,,,,,,,,,
1739356002.022783,1739356002.023173,81.000000,0.000000,4398.974121,4404.871582,4377.436035,4638.717773,4317.179688,4296.410156,4293.461426,4315.641113,4289.743652,4292.436035,4624.230957,4601.538574,4433.717773,4571.794922,6484.000000,0.000000,12.000000,,,,0.000000,4.000000,4.000000,4.000000,4.000000,4.000000,4.000000,4.000000,4.000000,4.000000,4.000000,4.000000,4.000000,4.000000,4.000000,100.000000,,,,,,,,,,,,,,,,,,,,,,,,,,,,,,,,,,,,,,,,,,,,,,,,,,,,,,,,,,,,,,,,,,,,,,,,,,,,,,,,,,,,,,,,,,,,,,,,,,,,,,,,,,,,,,,,,,,,,,,,,,,,,,,,,
1739356002.030591,1739356002.031081,82.000000,0.000000,4420.128418,4436.794922,4387.436035,4653.589844,4327.948730,4305.384766,4302.692383,4317.179688,4293.846191,4297.820313,4638.717773,4610.256348,4451.538574,4590.256348,4928.000000,0.000000,12.000000,,,,0.000000,4.000000,4.000000,4.000000,4.000000,4.000000,4.000000,4.000000,4.000000,4.000000,4.000000,4.000000,4.000000,4.000000,4.000000,100.000000,,,,,,,,,,,,,,,,,,,,,,,,,,,,,,,,,,,,,,,,,,,,,,,,,,,,,,,,,,,,,,,,,,,,,,,,,,,,,,,,,,,,,,,,,,,,,,,,,,,,,,,,,,,,,,,,,,,,,,,,,,,,,,,,,
1739356002.038400,1739356002.038889,83.000000,0.000000,4401.666504,4413.461426,4370.000000,4638.717773,4316.410156,4300.512695,4298.846191,4316.153809,4277.436035,4279.871582,4623.077148,4593.461426,4444.102539,4576.538574,5619.000000,0.000000,12.000000,,,,0.000000,4.000000,4.000000,4.000000,4.000000,4.000000,4.000000,4.000000,4.000000,4.000000,4.000000,4.000000,4.000000,4.000000,4.000000,100.000000,,,,,,,,,,,,,,,,,,,,,,,,,,,,,,,,,,,,,,,,,,,,,,,,,,,,,,,,,,,,,,,,,,,,,,,,,,,,,,,,,,,,,,,,,,,,,,,,,,,,,,,,,,,,,,,,,,,,,,,,,,,,,,,,,
1739356002.046208,1739356002.046797,84.000000,0.000000,4384.615234,4387.948730,4359.871582,4628.717773,4306.922852,4294.871582,4295.512695,4322.179688,4273.846191,4275.769043,4620.256348,4591.410156,4435.128418,4563.974121,5639.000000,0.000000,12.000000,,,,0.000000,4.000000,4.000000,4.000000,4.000000,4.000000,4.000000,4.000000,4.000000,4.000000,4.000000,4.000000,4.000000,4.000000,4.000000,100.000000,,,,,,,,,,,,,,,,,21.000000,0.000000,0.711190,-0.121826,-0.688354,0.074402,0.961055,-0.270052,0.034184,-39.523228,-35.090809,40.576870,,,,,,,,,,,,,,,,,,,,,,,,,,,,,,,,,,,,,,,,,,,,,,,,,,,,,,,,,,,,,,,,,,,,,,,,,,,,,,,,,,,,,,,,,,,,,,,,,,,,,
1739356002.054016,1739356002.054605,85.000000,0.000000,4426.282227,4426.153809,4395.128418,4663.717773,4337.563965,4326.538574,4327.820313,4339.487305,4316.282227,4321.025879,4671.282227,4641.922852,4469.102539,4602.051270,6484.000000,0.000000,12.000000,,,,0.000000,4.000000,4.000000,4.000000,4.000000,4.000000,4.000000,4.000000,4.000000,4.000000,4.000000,4.000000,4.000000,4.000000,4.000000,100.000000,,,,,,,,,,,,,,,,,,,,,,,,,,,,,,,,,,,,,,,,,,,,,,,,,,,,,,,,,,,,,,,,,,,,,,,,,,,,,,,,,,,,,,,,,,,,,,,,,,,,,,,,,,,,,,,,,,,,,,,,,,,,,,,,,
1739356002.061824,1739356002.062313,86.000000,0.000000,4446.153809,4441.666504,4410.000000,4679.615234,4353.333496,4343.461426,4344.358887,4333.589844,4341.666504,4347.307617,4686.025879,4659.615234,4487.692383,4621.025879,4928.000000,0.000000,12.000000,,,,0.000000,4.000000,4.000000,4.000000,4.000000,4.000000,4.000000,4.000000,4.000000,4.000000,4.000000,4.000000,4.000000,4.000000,4.000000,100.000000,,,,,,,,,,,,,,,,,,,,,,,,,,,,,,,,,,,,,,,,,,,,,,,,,,,,,,,,,,,,,,,,,,,,,,,,,,,,,,,,,,,,,,,,,,,,,,,,,,,,,,,,,,,,,,,,,,,,,,,,,,,,,,,,,
1739356002.069632,1739356002.070121,87.000000,0.000000,4390.256348,4386.922852,4365.769043,4633.846191,4318.846191,4307.692383,4304.230957,4304.871582,4300.256348,4302.179688,4626.410156,4601.025879,4443.333496,4569.102539,5619.000000,0.000000,12.000000,,,,0.000000,4.000000,4.000000,4.000000,4.000000,4.000000,4.000000,4.000000,4.000000,4.000000,4.000000,4.000000,4.000000,4.000000,4.000000,100.000000,,,,,,,,,,,,,,,,,,,,,,,,,,,,,,,,,,,,,,,,,,,,,,,,,,,,,,,,,,,,,,,,,,,,,,,,,,,,,,,,,,,,,,,,,,,,,,,,,,,,,,,,,,,,,,,,,,,,,,,,,,,,,,,,,
1739356002.077440,1739356002.077829,88.000000,0.000000,4386.666504,4387.948730,4364.487305,4635.128418,4323.846191,4311.153809,4303.589844,4310.769043,4293.077148,4295.256348,4625.897461,4598.589844,4436.794922,4566.153809,5639.000000,0.000000,12.000000,,,,0.000000,4.000000,4.000000,4.000000,4.000000,4.000000,4.000000,4.000000,4.000000,4.000000,4.000000,4.000000,4.000000,4.000000,4.000000,100.000000,,,,,,,,,,,,,,,,,22.000000,0.000000,0.712268,-0.118835,-0.687622,0.075684,0.960566,-0.266146,0.041021,-39.320904,-34.848392,40.702518,,,,,,,,,,,,,,,,,,,,,,,,,,,,,,,,3.384321,1.292067,1.501511,1.555945,2.346860,5.399178,1.006557,1.136757,1.657236,2.208854,1.225342,0.630005,0.766000,1.337369,2.053859,2.887349,0.629332,0.690149,1.658442,2.222742,0.766285,0.329213,0.525582,1.120671,1.884808,0.312661,0.277138,0.411001,0.906153,2.024585,0.434025,0.619569,0.791774,1.020581,2.152030,0.087532,0.099497,0.154068,0.179020,0.346242,0.502720,1.134528,1.037296,1.334509,2.207718,1.732054,1.762279,2.039800,1.495935,2.486784,1.521722,1.745766,1.493261,1.631855,2.174572,1.457644,1.414345,1.507910,2.258553,2.973235,3.205076,3.035584,1.405028,1.600951,1.754986,2.092753,1.713244,1.577964,1.930685,2.443907
1739356002.085248,1739356002.085737,89.000000,0.000000,4429.487305,4431.410156,4402.436035,4673.846191,4357.692383,4348.461426,4340.384766,4335.128418,4331.282227,4337.051270,4677.307617,4645.641113,4473.717773,4610.641113,6484.000000,0.000000,12.000000,,,,0.000000,4.000000,4.000000,4.000000,4.000000,4.000000,4.000000,4.000000,4.000000,4.000000,4.000000,4.000000,4.000000,4.000000,4.000000,100.000000,,,,,,,,,,,,,,,,,,,,,,,,,,,,,,,,,,,,,,,,,,,,,,,,,,,,,,,,,,,,,,,,,,,,,,,,,,,,,,,,,,,,,,,,,,,,,,,,,,,,,,,,,,,,,,,,,,,,,,,,,,,,,,,,,
1739356002.093056,1739356002.093545,90.000000,0.000000,4399.871582,4404.102539,4380.641113,4645.256348,4332.948730,4330.641113,4321.666504,4329.871582,4314.358887,4314.615234,4655.512695,4620.641113,4455.769043,4587.563965,4928.000000,0.000000,12.000000,,,,0.000000,4.000000,4.000000,4.000000,4.000000,4.000000,4.000000,4.000000,4.000000,4.000000,4.000000,4.000000,4.000000,4.000000,4.000000,100.000000,,,,,,,,,,,,,,,,,,,,,,,,,,,,,,,,,,,,,,,,,,,,,,,,,,,,,,,,,,,,,,,,,,,,,,,,,,,,,,,,,,,,,,,,,,,,,,,,,,,,,,,,,,,,,,,,,,,,,,,,,,,,,,,,,
1739356002.100864,1739356002.101454,91.000000,0.000000,4385.512695,4390.256348,4367.820313,4630.897461,4322.948730,4322.179688,4314.615234,4331.153809,4297.563965,4296.153809,4641.666504,4607.563965,4448.333496,4572.820313,5619.000000,0.000000,12.000000,,,,0.000000,4.000000,4.000000,4.000000,4.000000,4.000000,4.000000,4.000000,4.000000,4.000000,4.000000,4.000000,4.000000,4.000000,4.000000,100.000000,,,,,,,,,,,,,,,,,,,,,,,,,,,,,,,,,,,,,,,,,,,,,,,,,,,,,,,,,,,,,,,,,,,,,,,,,,,,,,,,,,,,,,,,,,,,,,,,,,,,,,,,,,,,,,,,,,,,,,,,,,,,,,,,,
1739356002.108672,1739356002.109262,92.000000,0.000000,4440.641113,4436.410156,4413.077148,4681.538574,4368.333496,4363.205078,4360.384766,4351.794922,4340.256348,4347.563965,4693.333496,4663.077148,4492.948730,4622.051270,5639.000000,0.000000,12.000000,,,,0.000000,4.000000,4.000000,4.000000,4.000000,4.000000,4.000000,4.000000,4.000000,4.000000,4.000000,4.000000,4.000000,4.000000,4.000000,100.000000,,,,,,,,,,,,,,,,,23.000000,0.000000,0.712625,-0.117676,-0.687378,0.076355,0.972287,-0.276889,0.039556,-39.355480,-34.630222,40.932266,,,,,,,,,,,,,,,,,,,,,,,,,,,,,,,,,,,,,,,,,,,,,,,,,,,,,,,,,,,,,,,,,,,,,,,,,,,,,,,,,,,,,,,,,,,,,,,,,,,,,
1739356002.116480,1739356002.117170,93.000000,0.000000,4428.974121,4419.230957,4402.820313,4670.384766,4357.692383,4350.641113,4346.538574,4342.307617,4336.794922,4345.384766,4683.717773,4651.025879,4480.384766,4610.128418,6484.000000,0.000000,12.000000,,,,0.000000,4.000000,4.000000,4.000000,4.000000,4.000000,4.000000,4.000000,4.000000,4.000000,4.000000,4.000000,4.000000,4.000000,4.000000,100.000000,,,,,,,,,,,,,,,,,,,,,,,,,,,,,,,,,,,,,,,,,,,,,,,,,,,,,,,,,,,,,,,,,,,,,,,,,,,,,,,,,,,,,,,,,,,,,,,,,,,,,,,,,,,,,,,,,,,,,,,,,,,,,,,,,
1739356002.124288,1739356002.124978,94.000000,0.000000,4401.025879,4395.769043,4376.666504,4640.897461,4336.153809,4330.769043,4322.563965,4333.589844,4316.666504,4322.563965,4661.153809,4623.333496,4463.077148,4583.717773,4928.000000,0.000000,12.000000,,,,0.000000,4.000000,4.000000,4.000000,4.000000,4.000000,4.000000,4.000000,4.000000,4.000000,4.000000,4.000000,4.000000,4.000000,4.000000,100.000000,,,,,,,,,,,,,,,,,,,,,,,,,,,,,,,,,,,,,,,,,,,,,,,,,,,,,,,,,,,,,,,,,,,,,,,,,,,,,,,,,,,,,,,,,,,,,,,,,,,,,,,,,,,,,,,,,,,,,,,,,,,,,,,,,
1739356002.132096,1739356002.132786,95.000000,0.000000,4453.333496,4446.153809,4418.846191,4688.461426,4380.256348,4377.307617,4371.666504,4356.153809,4366.410156,4376.282227,4714.230957,4680.769043,4510.641113,4636.282227,5619.000000,0.000000,12.000000,,,,0.000000,4.000000,4.000000,4.000000,4.000000,4.000000,4.000000,4.000000,4.000000,4.000000,4.000000,4.000000,4.000000,4.000000,4.000000,100.000000,,,,,,,,,,,,,,,,,,,,,,,,,,,,,,,,,,,,,,,,,,,,,,,,,,,,,,,,,,,,,,,,,,,,,,,,,,,,,,,,,,,,,,,,,,,,,,,,,,,,,,,,,,,,,,,,,,,,,,,,,,,,,,,,,
1739356002.139905,1739356002.140494,96.000000,0.000000,4449.102539,4432.179688,4411.410156,4682.563965,4374.743652,4373.589844,4367.948730,4349.743652,4366.025879,4376.922852,4708.846191,4674.615234,4498.205078,4629.487305,5639.000000,0.000000,12.000000,,,,0.000000,4.000000,4.000000,4.000000,4.000000,4.000000,4.000000,4.000000,4.000000,4.000000,4.000000,4.000000,4.000000,4.000000,4.000000,100.000000,,,,,,,,,,,,,,,,,24.000000,0.000000,0.713316,-0.115601,-0.686890,0.077454,0.958613,-0.291539,0.028324,-39.419933,-34.533867,41.089039,,,,,,,,,,,,,,,,,,,,,,,,,,,,,,,,,,,,,,,,,,,,,,,,,,,,,,,,,,,,,,,,,,,,,,,,,,,,,,,,,,,,,,,,,,,,,,,,,,,,,
1739356002.147713,1739356002.148302,97.000000,0.000000,4413.461426,4391.410156,4371.666504,4645.128418,4344.487305,4345.769043,4336.666504,4335.128418,4330.000000,4336.922852,4673.077148,4631.410156,4466.153809,4588.974121,6484.000000,0.000000,12.000000,,,,0.000000,4.000000,4.000000,4.000000,4.000000,4.000000,4.000000,4.000000,4.000000,4.000000,4.000000,4.000000,4.000000,4.000000,4.000000,100.000000,,,,,,,,,,,,,,,,,,,,,,,,,,,,,,,,,,,,,,,,,,,,,,,,,,,,,,,,,,,,,,,,,,,,,,,,,,,,,,,,,,,,,,,,,,,,,,,,,,,,,,,,,,,,,,,,,,,,,,,,,,,,,,,,,
1739356002.155521,1739356002.156010,98.000000,0.000000,4463.974121,4446.410156,4410.769043,4697.820313,4387.563965,4389.487305,4385.512695,4356.153809,4377.436035,4382.692383,4723.717773,4686.666504,4517.307617,4639.358887,4928.000000,0.000000,12.000000,,,,0.000000,4.000000,4.000000,4.000000,4.000000,4.000000,4.000000,4.000000,4.000000,4.000000,4.000000,4.000000,4.000000,4.000000,4.000000,100.000000,,,,,,,,,,,,,,,,,,,,,,,,,,,,,,,,,,,,,,,,,,,,,,,,,,,,,,,,,,,,,,,,,,,,,,,,,,,,,,,,,,,,,,,,,,,,,,,,,,,,,,,,,,,,,,,,,,,,,,,,,,,,,,,,,
1739356002.163329,1739356002.163919,99.000000,0.000000,4492.179688,4478.077148,4439.102539,4731.153809,4410.000000,4413.974121,4409.358887,4361.666504,4408.333496,4418.205078,4750.897461,4720.384766,4540.000000,4667.692383,5619.000000,0.000000,12.000000,,,,0.000000,4.000000,4.000000,4.000000,4.000000,4.000000,4.000000,4.000000,4.000000,4.000000,4.000000,4.000000,4.000000,4.000000,4.000000,100.000000,,,,,,,,,,,,,,,,,,,,,,,,,,,,,,,,,,,,,,,,,,,,,,,,,,,,,,,,,,,,,,,,,,,,,,,,,,,,,,,,,,,,,,,,,,,,,,,,,,,,,,,,,,,,,,,,,,,,,,,,,,,,,,,,,
1739356002.171137,1739356002.171727,100.000000,0.000000,4468.974121,4449.358887,4415.769043,4703.974121,4390.256348,4393.589844,4380.256348,4348.589844,4381.025879,4398.717773,4724.615234,4692.179688,4512.563965,4639.615234,5639.000000,0.000000,12.000000,,,,0.000000,4.000000,4.000000,4.000000,4.000000,4.000000,4.000000,4.000000,4.000000,4.000000,4.000000,4.000000,4.000000,4.000000,4.000000,100.000000,,,,,,,,,,,,,,,,,25.000000,0.000000,0.713828,-0.114075,-0.686523,0.078247,0.960566,-0.279331,0.036137,-39.444607,-34.213814,41.280136,,,,,,,,,,,,,,,,,,,,,,,,,,,,,,,,,,,,,,,,,,,,,,,,,,,,,,,,,,,,,,,,,,,,,,,,,,,,,,,,,,,,,,,,,,,,,,,,,,,,,
1739356002.178945,1739356002.179635,101.000000,0.000000,4482.563965,4460.128418,4418.846191,4709.871582,4400.769043,4401.794922,4385.000000,4353.974121,4386.538574,4403.205078,4738.077148,4703.205078,4525.128418,4652.563965,6484.000000,0.000000,12.000000,,,,0.000000,4.000000,4.000000,4.000000,4.000000,4.000000,4.000000,4.000000,4.000000,4.000000,4.000000,4.000000,4.000000,4.000000,4.000000,100.000000,,,,,,,,,,,,,,,,,,,,,,,,,,,,,,,,,,,,,,,,,,,,,,,,,,,,,,,,,,,,,,,,,,,,,,,,,,,,,,,,,,,,,,,,,,,,,,,,,,,,,,,,,,,,,,,,,,,,,,,,,,,,,,,,,
1739356002.186753,1739356002.187443,102.000000,0.000000,4501.410156,4485.897461,4438.717773,4735.128418,4420.000000,4422.307617,4403.461426,4359.102539,4407.436035,4416.538574,4760.512695,4724.743652,4544.230957,4676.025879,4928.000000,0.000000,12.000000,,,,0.000000,4.000000,4.000000,4.000000,4.000000,4.000000,4.000000,4.000000,4.000000,4.000000,4.000000,4.000000,4.000000,4.000000,4.000000,100.000000,,,,,,,,,,,,,,,,,,,,,,,,,,,,,,,,,,,,,,,,,,,,,,,,,,,,,,,,,,,,,,,,,,,,,,,,,,,,,,,,,,,,,,,,,,,,,,,,,,,,,,,,,,,,,,,,,,,,,,,,,,,,,,,,,
1739356002.194561,1739356002.195351,103.000000,0.000000,4479.743652,4465.512695,4428.205078,4720.000000,4409.743652,4413.333496,4389.743652,4350.128418,4392.820313,4402.820313,4739.871582,4701.282227,4520.256348,4653.077148,5619.000000,0.000000,12.000000,,,,0.000000,4.000000,4.000000,4.000000,4.000000,4.000000,4.000000,4.000000,4.000000,4.000000,4.000000,4.000000,4.000000,4.000000,4.000000,100.000000,,,,,,,,,,,,,,,,,,,,,,,,,,,,,,,,,,,,,,,,,,,,,,,,,,,,,,,,,,,,,,,,,,,,,,,,,,,,,,,,,,,,,,,,,,,,,,,,,,,,,,,,,,,,,,,,,,,,,,,,,,,,,,,,,
1739356002.202369,1739356002.203159,104.000000,0.000000,4458.589844,4438.717773,4405.769043,4691.922852,4391.282227,4397.307617,4372.051270,4343.077148,4367.820313,4383.205078,4713.077148,4673.589844,4498.333496,4626.410156,5639.000000,0.000000,12.000000,,,,0.000000,4.000000,4.000000,4.000000,4.000000,4.000000,4.000000,4.000000,4.000000,4.000000,4.000000,4.000000,4.000000,4.000000,4.000000,100.000000,,,,,,,,,,,,,,,,,26.000000,0.000000,0.714193,-0.112915,-0.686279,0.078735,0.953241,-0.277866,0.033696,-39.466812,-34.142429,41.452122,,,,,,,,,,,,,,,,,,,,,,,,,,,,,,,,1.881468,0.847120,1.340874,1.582347,2.362199,3.926527,0.866297,1.134159,1.686704,2.253454,1.070665,0.558237,0.750616,1.334507,2.047101,2.287686,0.577392,0.636721,1.585675,2.257211,0.719068,0.365930,0.555276,1.101801,1.864266,0.289827,0.224968,0.432712,0.909704,2.028637,0.412940,0.482666,0.751778,1.016177,2.156022,0.094288,0.083497,0.142184,0.180374,0.364728,0.476233,0.957245,1.020381,1.325454,2.327426,1.766470,1.479861,1.964277,1.373909,2.487814,1.471222,1.438168,1.433450,1.609942,2.243010,1.201851,1.145885,1.492265,2.274662,2.971696,3.156638,2.561029,1.335203,1.650534,1.849941,1.012737,1.266408,1.435780,1.896182,2.482305
1739356002.210177,1739356002.211067,105.000000,0.000000,4468.205078,4447.820313,4407.692383,4695.897461,4398.589844,4408.461426,4383.461426,4345.384766,4368.589844,4382.563965,4719.102539,4677.179688,4509.487305,4633.461426,6484.000000,0.000000,12.000000,,,,0.000000,4.000000,4.000000,4.000000,4.000000,4.000000,4.000000,4.000000,4.000000,4.000000,4.000000,4.000000,4.000000,4.000000,4.000000,100.000000,,,,,,,,,,,,,,,,,,,,,,,,,,,,,,,,,,,,,,,,,,,,,,,,,,,,,,,,,,,,,,,,,,,,,,,,,,,,,,,,,,,,,,,,,,,,,,,,,,,,,,,,,,,,,,,,,,,,,,,,,,,,,,,,,
1739356002.217985,1739356002.218876,106.000000,0.000000,4506.153809,4485.769043,4443.205078,4735.384766,4436.153809,4449.230957,4426.922852,4358.461426,4408.205078,4417.563965,4760.000000,4717.307617,4542.051270,4670.769043,4928.000000,0.000000,12.000000,,,,0.000000,4.000000,4.000000,4.000000,4.000000,4.000000,4.000000,4.000000,4.000000,4.000000,4.000000,4.000000,4.000000,4.000000,4.000000,100.000000,,,,,,,,,,,,,,,,,,,,,,,,,,,,,,,,,,,,,,,,,,,,,,,,,,,,,,,,,,,,,,,,,,,,,,,,,,,,,,,,,,,,,,,,,,,,,,,,,,,,,,,,,,,,,,,,,,,,,,,,,,,,,,,,,
1739356002.225793,1739356002.226784,107.000000,0.000000,4509.358887,4481.538574,4447.307617,4738.717773,4432.179688,4450.128418,4432.948730,4359.230957,4417.563965,4426.025879,4764.743652,4726.153809,4542.692383,4674.102539,5619.000000,0.000000,12.000000,,,,0.000000,4.000000,4.000000,4.000000,4.000000,4.000000,4.000000,4.000000,4.000000,4.000000,4.000000,4.000000,4.000000,4.000000,4.000000,100.000000,,,,,,,,,,,,,,,,,,,,,,,,,,,,,,,,,,,,,,,,,,,,,,,,,,,,,,,,,,,,,,,,,,,,,,,,,,,,,,,,,,,,,,,,,,,,,,,,,,,,,,,,,,,,,,,,,,,,,,,,,,,,,,,,,
1739356002.233601,1739356002.234692,108.000000,0.000000,4476.282227,4445.256348,4415.128418,4704.743652,4396.538574,4416.794922,4396.666504,4347.948730,4380.897461,4393.333496,4735.512695,4693.974121,4518.846191,4642.563965,5639.000000,0.000000,12.000000,,,,0.000000,4.000000,4.000000,4.000000,4.000000,4.000000,4.000000,4.000000,4.000000,4.000000,4.000000,4.000000,4.000000,4.000000,4.000000,100.000000,,,,,,,,,,,,,,,,,27.000000,0.000000,0.714396,-0.111938,-0.686157,0.079346,0.969845,-0.264192,0.051276,-39.536797,-34.161522,41.573578,,,,,,,,,,,,,,,,,,,,,,,,,,,,,,,,,,,,,,,,,,,,,,,,,,,,,,,,,,,,,,,,,,,,,,,,,,,,,,,,,,,,,,,,,,,,,,,,,,,,,
1739356002.241410,1739356002.242500,109.000000,0.000000,4492.692383,4463.846191,4431.794922,4722.948730,4417.692383,4431.666504,4411.153809,4355.769043,4391.153809,4407.179688,4757.307617,4710.641113,4533.974121,4657.692383,6484.000000,0.000000,12.000000,,,,0.000000,4.000000,4.000000,4.000000,4.000000,4.000000,4.000000,4.000000,4.000000,4.000000,4.000000,4.000000,4.000000,4.000000,4.000000,100.000000,,,,,,,,,,,,,,,,,,,,,,,,,,,,,,,,,,,,,,,,,,,,,,,,,,,,,,,,,,,,,,,,,,,,,,,,,,,,,,,,,,,,,,,,,,,,,,,,,,,,,,,,,,,,,,,,,,,,,,,,,,,,,,,,,
1739356002.249218,1739356002.250308,110.000000,0.000000,4531.794922,4502.563965,4468.846191,4760.128418,4450.641113,4463.077148,4449.615234,4370.256348,4428.974121,4444.102539,4791.410156,4749.871582,4560.384766,4692.436035,4928.000000,0.000000,12.000000,,,,0.000000,4.000000,4.000000,4.000000,4.000000,4.000000,4.000000,4.000000,4.000000,4.000000,4.000000,4.000000,4.000000,4.000000,4.000000,100.000000,,,,,,,,,,,,,,,,,,,,,,,,,,,,,,,,,,,,,,,,,,,,,,,,,,,,,,,,,,,,,,,,,,,,,,,,,,,,,,,,,,,,,,,,,,,,,,,,,,,,,,,,,,,,,,,,,,,,,,,,,,,,,,,,,
1739356002.257026,1739356002.258016,111.000000,0.000000,4516.282227,4486.410156,4454.230957,4742.307617,4429.358887,4448.589844,4428.589844,4362.692383,4418.717773,4427.948730,4771.538574,4732.563965,4547.307617,4677.051270,5619.000000,0.000000,12.000000,,,,0.000000,4.000000,4.000000,4.000000,4.000000,4.000000,4.000000,4.000000,4.000000,4.000000,4.000000,4.000000,4.000000,4.000000,4.000000,100.000000,,,,,,,,,,,,,,,,,,,,,,,,,,,,,,,,,,,,,,,,,,,,,,,,,,,,,,,,,,,,,,,,,,,,,,,,,,,,,,,,,,,,,,,,,,,,,,,,,,,,,,,,,,,,,,,,,,,,,,,,,,,,,,,,,
1739356002.264834,1739356002.265824,112.000000,0.000000,4502.563965,4476.666504,4445.128418,4731.410156,4424.230957,4440.384766,4415.128418,4358.589844,4413.077148,4417.051270,4765.512695,4721.794922,4539.871582,4667.820313,5639.000000,0.000000,12.000000,,,,0.000000,4.000000,4.000000,4.000000,4.000000,4.000000,4.000000,4.000000,4.000000,4.000000,4.000000,4.000000,4.000000,4.000000,4.000000,100.000000,,,,,,,,,,,,,,,,,28.000000,0.000000,0.714452,-0.111145,-0.686157,0.079956,0.950311,-0.255402,0.044439,-39.466450,-33.845367,41.682884,,,,,,,,,,,,,,,,,,,,,,,,,,,,,,,,,,,,,,,,,,,,,,,,,,,,,,,,,,,,,,,,,,,,,,,,,,,,,,,,,,,,,,,,,,,,,,,,,,,,,
1739356002.272642,1739356002.273532,113.000000,0.000000,4534.358887,4513.077148,4477.051270,4767.307617,4459.102539,4472.436035,4454.487305,4372.948730,4447.692383,4456.666504,4806.153809,4761.282227,4568.589844,4707.563965,6484.000000,0.000000,12.000000,,,,0.000000,4.000000,4.000000,4.000000,4.000000,4.000000,4.000000,4.000000,4.000000,4.000000,4.000000,4.000000,4.000000,4.000000,4.000000,100.000000,,,,,,,,,,,,,,,,,,,,,,,,,,,,,,,,,,,,,,,,,,,,,,,,,,,,,,,,,,,,,,,,,,,,,,,,,,,,,,,,,,,,,,,,,,,,,,,,,,,,,,,,,,,,,,,,,,,,,,,,,,,,,,,,,
1739356002.280450,1739356002.281340,114.000000,0.000000,4531.153809,4511.153809,4473.205078,4765.641113,4453.333496,4472.692383,4453.461426,4372.692383,4443.077148,4459.358887,4802.307617,4758.461426,4566.282227,4710.641113,4928.000000,0.000000,12.000000,,,,0.000000,4.000000,4.000000,4.000000,4.000000,4.000000,4.000000,4.000000,4.000000,4.000000,4.000000,4.000000,4.000000,4.000000,4.000000,100.000000,,,,,,,,,,,,,,,,,,,,,,,,,,,,,,,,,,,,,,,,,,,,,,,,,,,,,,,,,,,,,,,,,,,,,,,,,,,,,,,,,,,,,,,,,,,,,,,,,,,,,,,,,,,,,,,,,,,,,,,,,,,,,,,,,
1739356002.288258,1739356002.289048,115.000000,0.000000,4502.563965,4478.205078,4446.410156,4732.436035,4430.769043,4450.897461,4421.922852,4362.948730,4416.794922,4422.179688,4768.205078,4723.846191,4538.589844,4676.538574,5619.000000,0.000000,12.000000,,,,0.000000,4.000000,4.000000,4.000000,4.000000,4.000000,4.000000,4.000000,4.000000,4.000000,4.000000,4.000000,4.000000,4.000000,4.000000,100.000000,,,,,,,,,,,,,,,,,,,,,,,,,,,,,,,,,,,,,,,,,,,,,,,,,,,,,,,,,,,,,,,,,,,,,,,,,,,,,,,,,,,,,,,,,,,,,,,,,,,,,,,,,,,,,,,,,,,,,,,,,,,,,,,,,
1739356002.296066,1739356002.296856,116.000000,0.000000,4517.692383,4492.436035,4463.846191,4750.256348,4456.025879,4473.461426,4443.077148,4371.282227,4436.153809,4436.794922,4787.436035,4745.512695,4554.487305,4689.102539,5639.000000,0.000000,12.000000,,,,0.000000,4.000000,4.000000,4.000000,4.000000,4.000000,4.000000,4.000000,4.000000,4.000000,4.000000,4.000000,4.000000,4.000000,4.000000,100.000000,,,,,,,,,,,,,,,,,29.000000,0.000000,0.714604,-0.110168,-0.686157,0.079956,0.960078,-0.246612,0.036137,-39.553139,-33.877499,41.797932,,,,,,,,,,,,,,,,,,,,,,,,,,,,,,,,,,,,,,,,,,,,,,,,,,,,,,,,,,,,,,,,,,,,,,,,,,,,,,,,,,,,,,,,,,,,,,,,,,,,,
1739356002.303874,1739356002.304564,117.000000,0.000000,4521.538574,4504.358887,4469.743652,4762.563965,4464.615234,4484.102539,4453.974121,4373.589844,4441.538574,4452.563965,4800.256348,4755.384766,4561.410156,4700.256348,6484.000000,0.000000,12.000000,,,,0.000000,4.000000,4.000000,4.000000,4.000000,4.000000,4.000000,4.000000,4.000000,4.000000,4.000000,4.000000,4.000000,4.000000,4.000000,100.000000,,,,,,,,,,,,,,,,,,,,,,,,,,,,,,,,,,,,,,,,,,,,,,,,,,,,,,,,,,,,,,,,,,,,,,,,,,,,,,,,,,,,,,,,,,,,,,,,,,,,,,,,,,,,,,,,,,,,,,,,,,,,,,,,,
1739356002.311682,1739356002.312372,118.000000,0.000000,4487.051270,4468.717773,4441.025879,4724.230957,4431.794922,4458.205078,4424.358887,4361.922852,4412.307617,4420.512695,4766.025879,4715.897461,4527.179688,4666.794922,4928.000000,0.000000,12.000000,,,,0.000000,4.000000,4.000000,4.000000,4.000000,4.000000,4.000000,4.000000,4.000000,4.000000,4.000000,4.000000,4.000000,4.000000,4.000000,100.000000,,,,,,,,,,,,,,,,,,,,,,,,,,,,,,,,,,,,,,,,,,,,,,,,,,,,,,,,,,,,,,,,,,,,,,,,,,,,,,,,,,,,,,,,,,,,,,,,,,,,,,,,,,,,,,,,,,,,,,,,,,,,,,,,,
1739356002.319490,1739356002.320080,119.000000,0.000000,4476.794922,4451.922852,4438.589844,4707.051270,4425.897461,4460.000000,4426.794922,4367.820313,4412.563965,4418.461426,4759.615234,4706.922852,4521.025879,4654.487305,5619.000000,0.000000,12.000000,,,,0.000000,4.000000,4.000000,4.000000,4.000000,4.000000,4.000000,4.000000,4.000000,4.000000,4.000000,4.000000,4.000000,4.000000,4.000000,100.000000,,,,,,,,,,,,,,,,,,,,,,,,,,,,,,,,,,,,,,,,,,,,,,,,,,,,,,,,,,,,,,,,,,,,,,,,,,,,,,,,,,,,,,,,,,,,,,,,,,,,,,,,,,,,,,,,,,,,,,,,,,,,,,,,,
1739356002.327299,1739356002.327888,120.000000,0.000000,4498.205078,4479.358887,4458.717773,4725.897461,4451.666504,4481.794922,4453.333496,4380.897461,4437.436035,4448.589844,4791.153809,4732.820313,4548.589844,4677.563965,5639.000000,0.000000,12.000000,,,,0.000000,4.000000,4.000000,4.000000,4.000000,4.000000,4.000000,4.000000,4.000000,4.000000,4.000000,4.000000,4.000000,4.000000,4.000000,100.000000,,,,,,,,,,,,,,,,,30.000000,0.000000,0.714644,-0.109863,-0.686157,0.080017,0.960078,-0.265169,0.041509,-39.447826,-33.789749,41.751469,,,,,,,,,,,,,,,,,,,,,,,,,,,,,,,,1.683714,0.856927,1.214061,1.673151,2.419007,3.477636,0.992133,1.259732,1.821636,2.338272,1.068543,0.611772,0.717083,1.383154,2.082674,2.001609,0.665886,0.629215,1.647609,2.329512,0.664561,0.416830,0.569084,1.149047,1.856067,0.319908,0.216901,0.454317,0.984680,2.042142,0.488710,0.405914,0.701332,1.080665,2.197733,0.127195,0.083858,0.173873,0.211106,0.397107,0.496359,0.830276,0.955218,1.363596,2.472733,1.801957,1.260592,1.740293,1.372525,2.521636,1.517221,1.260517,1.255978,1.660036,2.387258,1.178517,1.099679,1.390118,2.363891,3.049418,3.309671,2.110568,1.163610,1.653783,1.977327,0.898084,1.101499,1.255142,1.893959,2.549308
1739356002.335106,1739356002.335596,121.000000,0.000000,4493.974121,4476.410156,4448.333496,4714.615234,4446.025879,4469.358887,4443.461426,4372.563965,4430.128418,4434.487305,4786.153809,4727.051270,4539.487305,4671.153809,6484.000000,0.000000,12.000000,,,,0.000000,4.000000,4.000000,4.000000,4.000000,4.000000,4.000000,4.000000,4.000000,4.000000,4.000000,4.000000,4.000000,4.000000,4.000000,100.000000,,,,,,,,,,,,,,,,,,,,,,,,,,,,,,,,,,,,,,,,,,,,,,,,,,,,,,,,,,,,,,,,,,,,,,,,,,,,,,,,,,,,,,,,,,,,,,,,,,,,,,,,,,,,,,,,,,,,,,,,,,,,,,,,,
1739356002.342915,1739356002.343404,122.000000,0.000000,4485.384766,4455.000000,4438.205078,4696.410156,4428.205078,4457.179688,4429.487305,4368.333496,4422.692383,4422.692383,4774.230957,4718.461426,4528.333496,4660.512695,4928.000000,0.000000,12.000000,,,,0.000000,4.000000,4.000000,4.000000,4.000000,4.000000,4.000000,4.000000,4.000000,4.000000,4.000000,4.000000,4.000000,4.000000,4.000000,100.000000,,,,,,,,,,,,,,,,,,,,,,,,,,,,,,,,,,,,,,,,,,,,,,,,,,,,,,,,,,,,,,,,,,,,,,,,,,,,,,,,,,,,,,,,,,,,,,,,,,,,,,,,,,,,,,,,,,,,,,,,,,,,,,,,,
1739356002.350723,1739356002.351112,123.000000,0.000000,4492.692383,4461.282227,4448.717773,4702.820313,4434.871582,4465.384766,4432.436035,4376.666504,4434.743652,4441.666504,4788.589844,4726.794922,4545.128418,4672.179688,5619.000000,0.000000,12.000000,,,,0.000000,4.000000,4.000000,4.000000,4.000000,4.000000,4.000000,4.000000,4.000000,4.000000,4.000000,4.000000,4.000000,4.000000,4.000000,100.000000,,,,,,,,,,,,,,,,,,,,,,,,,,,,,,,,,,,,,,,,,,,,,,,,,,,,,,,,,,,,,,,,,,,,,,,,,,,,,,,,,,,,,,,,,,,,,,,,,,,,,,,,,,,,,,,,,,,,,,,,,,,,,,,,,
1739356002.358531,1739356002.359021,124.000000,0.000000,4487.820313,4466.282227,4447.820313,4700.000000,4443.974121,4470.128418,4436.666504,4376.922852,4432.692383,4438.205078,4787.051270,4722.820313,4537.051270,4669.487305,5639.000000,0.000000,12.000000,,,,0.000000,4.000000,4.000000,4.000000,4.000000,4.000000,4.000000,4.000000,4.000000,4.000000,4.000000,4.000000,4.000000,4.000000,4.000000,100.000000,,,,,,,,,,,,,,,,,31.000000,0.000000,0.714601,-0.109375,-0.686279,0.080017,0.957636,-0.261262,0.034184,-39.569710,-33.594109,41.959656,,,,,,,,,,,,,,,,,,,,,,,,,,,,,,,,,,,,,,,,,,,,,,,,,,,,,,,,,,,,,,,,,,,,,,,,,,,,,,,,,,,,,,,,,,,,,,,,,,,,,
1739356002.366339,1739356002.366829,125.000000,0.000000,4467.563965,4447.307617,4434.358887,4677.820313,4436.153809,4468.333496,4434.615234,4367.307617,4420.384766,4420.897461,4764.230957,4706.794922,4513.974121,4649.230957,6484.000000,0.000000,12.000000,,,,0.000000,4.000000,4.000000,4.000000,4.000000,4.000000,4.000000,4.000000,4.000000,4.000000,4.000000,4.000000,4.000000,4.000000,4.000000,100.000000,,,,,,,,,,,,,,,,,,,,,,,,,,,,,,,,,,,,,,,,,,,,,,,,,,,,,,,,,,,,,,,,,,,,,,,,,,,,,,,,,,,,,,,,,,,,,,,,,,,,,,,,,,,,,,,,,,,,,,,,,,,,,,,,,
1739356002.374147,1739356002.374737,126.000000,0.000000,4452.563965,4433.077148,4422.692383,4656.153809,4421.410156,4455.897461,4417.307617,4362.051270,4406.666504,4412.179688,4749.230957,4688.205078,4515.256348,4632.820313,4928.000000,0.000000,12.000000,,,,0.000000,4.000000,4.000000,4.000000,4.000000,4.000000,4.000000,4.000000,4.000000,4.000000,4.000000,4.000000,4.000000,4.000000,4.000000,100.000000,,,,,,,,,,,,,,,,,,,,,,,,,,,,,,,,,,,,,,,,,,,,,,,,,,,,,,,,,,,,,,,,,,,,,,,,,,,,,,,,,,,,,,,,,,,,,,,,,,,,,,,,,,,,,,,,,,,,,,,,,,,,,,,,,
1739356002.381955,1739356002.382545,127.000000,0.000000,4461.666504,4445.256348,4426.025879,4658.461426,4424.487305,4452.051270,4413.717773,4366.794922,4407.563965,4413.205078,4761.922852,4688.589844,4540.000000,4640.256348,12.000000,0.000000,12.000000,,,,0.000000,4.000000,4.000000,4.000000,4.000000,4.000000,4.000000,4.000000,4.000000,4.000000,4.000000,4.000000,4.000000,4.000000,4.000000,100.000000,,,,,,,,,,,,,,,,,,,,,,,,,,,,,,,,,,,,,,,,,,,,,,,,,,,,,,,,,,,,,,,,,,,,,,,,,,,,,,,,,,,,,,,,,,,,,,,,,,,,,,,,,,,,,,,,,,,,,,,,,,,,,,,,,
1739356002.389763,1739356002.390453,0.000000,0.000000,4465.000000,4446.922852,4433.589844,4665.769043,4431.794922,4459.743652,4426.922852,4368.717773,4414.487305,4415.384766,4770.000000,4697.692383,4546.410156,4648.077148,5121.000000,0.000000,12.000000,,,,0.000000,4.000000,4.000000,4.000000,4.000000,4.000000,4.000000,4.000000,4.000000,4.000000,4.000000,4.000000,4.000000,4.000000,4.000000,100.000000,,,,,,,,,,,,,,,,,0.000000,0.000000,0.714656,-0.108337,-0.686401,0.079895,0.963497,-0.248077,0.030277,-39.612740,-33.551365,42.047024,,,,,,,,,,,,,,,,,,,,,,,,,,,,,,,,,,,,,,,,,,,,,,,,,,,,,,,,,,,,,,,,,,,,,,,,,,,,,,,,,,,,,,,,,,,,,,,,,,,,,
1739356002.397571,1739356002.398261,1.000000,0.000000,4443.461426,4424.871582,4420.897461,4647.307617,4420.256348,4452.051270,4416.410156,4360.256348,4397.179688,4400.256348,4749.615234,4681.922852,4524.615234,4629.487305,5639.000000,0.000000,12.000000,,,,0.000000,4.000000,4.000000,4.000000,4.000000,4.000000,4.000000,4.000000,4.000000,4.000000,4.000000,4.000000,4.000000,4.000000,4.000000,100.000000,,,,,,,,,,,,,,,,,,,,,,,,,,,,,,,,,,,,,,,,,,,,,,,,,,,,,,,,,,,,,,,,,,,,,,,,,,,,,,,,,,,,,,,,,,,,,,,,,,,,,,,,,,,,,,,,,,,,,,,,,,,,,,,,,
1739356002.405379,1739356002.406169,2.000000,0.000000,4439.615234,4424.871582,4411.410156,4637.692383,4414.358887,4444.358887,4399.871582,4358.461426,4382.948730,4388.205078,4743.461426,4672.051270,4520.897461,4622.692383,5674.000000,0.000000,12.000000,,,,0.000000,4.000000,4.000000,4.000000,4.000000,4.000000,4.000000,4.000000,4.000000,4.000000,4.000000,4.000000,4.000000,4.000000,4.000000,100.000000,,,,,,,,,,,,,,,,,,,,,,,,,,,,,,,,,,,,,,,,,,,,,,,,,,,,,,,,,,,,,,,,,,,,,,,,,,,,,,,,,,,,,,,,,,,,,,,,,,,,,,,,,,,,,,,,,,,,,,,,,,,,,,,,,
1739356002.413187,1739356002.413978,3.000000,0.000000,4442.820313,4427.307617,4410.384766,4636.666504,4410.769043,4440.000000,4397.692383,4360.897461,4384.358887,4387.051270,4746.282227,4671.282227,4527.179688,4627.820313,5614.000000,0.000000,12.000000,,,,0.000000,4.000000,4.000000,4.000000,4.000000,4.000000,4.000000,4.000000,4.000000,4.000000,4.000000,4.000000,4.000000,4.000000,4.000000,100.000000,,,,,,,,,,,,,,,,,,,,,,,,,,,,,,,,,,,,,,,,,,,,,,,,,,,,,,,,,,,,,,,,,,,,,,,,,,,,,,,,,,,,,,,,,,,,,,,,,,,,,,,,,,,,,,,,,,,,,,,,,,,,,,,,,
1739356002.420995,1739356002.421886,4.000000,0.000000,4432.307617,4411.922852,4410.769043,4625.641113,4405.000000,4438.589844,4400.000000,4362.307617,4388.589844,4391.282227,4739.487305,4667.563965,4519.871582,4623.461426,5579.000000,0.000000,12.000000,,,,0.000000,4.000000,4.000000,4.000000,4.000000,4.000000,4.000000,4.000000,4.000000,4.000000,4.000000,4.000000,4.000000,4.000000,4.000000,100.000000,,,,,,,,,,,,,,,,,1.000000,0.000000,0.714742,-0.107056,-0.686462,0.080322,0.955683,-0.256379,0.036137,-39.534798,-33.329559,42.142323,,,,,,,,,,,,,,,,,,,,,,,,,,,,,,,,,,,,,,,,,,,,,,,,,,,,,,,,,,,,,,,,,,,,,,,,,,,,,,,,,,,,,,,,,,,,,,,,,,,,,
1739356002.428804,1739356002.429694,5.000000,0.000000,4424.487305,4404.230957,4407.820313,4616.666504,4401.666504,4441.666504,4399.487305,4362.563965,4388.461426,4390.384766,4735.384766,4662.948730,4508.974121,4613.461426,5564.000000,0.000000,12.000000,,,,0.000000,4.000000,4.000000,4.000000,4.000000,4.000000,4.000000,4.000000,4.000000,4.000000,4.000000,4.000000,4.000000,4.000000,4.000000,100.000000,,,,,,,,,,,,,,,,,,,,,,,,,,,,,,,,,,,,,,,,,,,,,,,,,,,,,,,,,,,,,,,,,,,,,,,,,,,,,,,,,,,,,,,,,,,,,,,,,,,,,,,,,,,,,,,,,,,,,,,,,,,,,,,,,
1739356002.436612,1739356002.437402,6.000000,0.000000,4411.922852,4392.948730,4392.307617,4601.153809,4385.128418,4423.846191,4382.948730,4354.871582,4373.333496,4367.179688,4725.897461,4643.846191,4501.410156,4598.717773,5542.000000,0.000000,12.000000,,,,0.000000,4.000000,4.000000,4.000000,4.000000,4.000000,4.000000,4.000000,4.000000,4.000000,4.000000,4.000000,4.000000,4.000000,4.000000,100.000000,,,,,,,,,,,,,,,,,,,,,,,,,,,,,,,,,,,,,,,,,,,,,,,,,,,,,,,,,,,,,,,,,,,,,,,,,,,,,,,,,,,,,,,,,,,,,,,,,,,,,,,,,,,,,,,,,,,,,,,,,,,,,,,,,
1739356002.444420,1739356002.445210,7.000000,0.000000,4407.436035,4386.282227,4389.487305,4591.538574,4378.717773,4411.410156,4373.077148,4354.615234,4370.897461,4362.692383,4725.641113,4643.461426,4508.077148,4597.692383,2145.000000,0.000000,12.000000,,,,0.000000,4.000000,4.000000,4.000000,4.000000,4.000000,4.000000,4.000000,4.000000,4.000000,4.000000,4.000000,4.000000,4.000000,4.000000,100.000000,,,,,,,,,,,,,,,,,,,,,,,,,,,,,,,,,,,,,,,,,,,,,,,,,,,,,,,,,,,,,,,,,,,,,,,,,,,,,,,,,,,,,,,,,,,,,,,,,,,,,,,,,,,,,,,,,,,,,,,,,,,,,,,,,
1739356002.452228,1739356002.452918,8.000000,0.000000,4417.820313,4395.256348,4400.897461,4600.256348,4389.743652,4423.461426,4384.102539,4362.436035,4383.205078,4383.205078,4735.128418,4661.794922,4514.871582,4608.589844,5310.000000,0.000000,12.000000,,,,0.000000,4.000000,4.000000,4.000000,4.000000,4.000000,4.000000,4.000000,4.000000,4.000000,4.000000,4.000000,4.000000,4.000000,4.000000,100.000000,1.000000,25.000000,1.000000,1.000000,1.000000,1.000000,1.000000,1.000000,1.000000,4.000000,3.000000,1.000000,1.000000,1.000000,3.000000,1.000000,2.000000,0.000000,0.714937,-0.105774,-0.686401,0.080811,0.952753,-0.257356,0.035161,-39.547985,-33.296604,42.228088,,,,,,,,,,,,,,,,,,,,,,,,,,,,,,,,1.568143,1.140166,1.135986,1.867940,2.590376,3.376508,1.383840,1.566818,2.074742,2.540629,1.048632,0.725362,0.674502,1.507629,2.218460,1.784410,0.888664,0.691855,1.872045,2.491622,0.608904,0.478209,0.561993,1.283341,1.921861,0.392474,0.247123,0.466636,1.142002,2.118313,0.654192,0.419323,0.651030,1.228891,2.335297,0.209926,0.102935,0.276937,0.280361,0.448882,0.574882,0.803445,0.845144,1.490487,2.676694,1.828980,1.183910,1.419586,1.524670,2.664661,1.522152,1.242347,1.025391,1.826048,2.655452,1.133586,1.250935,1.242555,2.576255,3.301672,3.507650,1.773898,0.939132,1.657142,2.179267,0.813469,1.105052,1.091418,1.980781,2.717795
1739356002.460036,1739356002.460726,9.000000,0.000000,4407.948730,4388.589844,4396.794922,4595.897461,4385.897461,4420.769043,4378.846191,4361.025879,4372.563965,4367.307617,4719.230957,4647.179688,4492.563965,4595.769043,5659.000000,0.000000,12.000000,,,,0.000000,4.000000,4.000000,4.000000,4.000000,4.000000,4.000000,4.000000,4.000000,4.000000,4.000000,4.000000,4.000000,4.000000,4.000000,100.000000,,,,,,,,,,,,,,,,,,,,,,,,,,,,,,,,,,,,,,,,,,,,,,,,,,,,,,,,,,,,,,,,,,,,,,,,,,,,,,,,,,,,,,,,,,,,,,,,,,,,,,,,,,,,,,,,,,,,,,,,,,,,,,,,,
1739356002.467844,1739356002.468434,10.000000,0.000000,4388.461426,4371.410156,4388.717773,4580.512695,4373.205078,4405.897461,4365.384766,4358.589844,4357.820313,4340.769043,4704.230957,4630.000000,4474.230957,4578.333496,4984.000000,0.000000,12.000000,,,,0.000000,4.000000,4.000000,4.000000,4.000000,4.000000,4.000000,4.000000,4.000000,4.000000,4.000000,4.000000,4.000000,4.000000,4.000000,100.000000,,,,,,,,,,,,,,,,,,,,,,,,,,,,,,,,,,,,,,,,,,,,,,,,,,,,,,,,,,,,,,,,,,,,,,,,,,,,,,,,,,,,,,,,,,,,,,,,,,,,,,,,,,,,,,,,,,,,,,,,,,,,,,,,,
1739356002.475652,1739356002.476242,11.000000,0.000000,4396.666504,4377.051270,4396.282227,4583.717773,4377.179688,4412.820313,4373.333496,4362.436035,4367.051270,4355.128418,4719.871582,4646.410156,4489.615234,4592.563965,5678.000000,0.000000,12.000000,,,,0.000000,4.000000,4.000000,4.000000,4.000000,4.000000,4.000000,4.000000,4.000000,4.000000,4.000000,4.000000,4.000000,4.000000,4.000000,100.000000,,,,,,,,,,,,,,,,,,,,,,,,,,,,,,,,,,,,,,,,,,,,,,,,,,,,,,,,,,,,,,,,,,,,,,,,,,,,,,,,,,,,,,,,,,,,,,,,,,,,,,,,,,,,,,,,,,,,,,,,,,,,,,,,,
1739356002.483460,1739356002.483950,12.000000,0.000000,4400.256348,4381.410156,4388.717773,4582.692383,4378.205078,4414.615234,4373.205078,4358.846191,4360.256348,4354.230957,4713.205078,4641.666504,4488.461426,4595.384766,5691.000000,0.000000,12.000000,,,,0.000000,4.000000,4.000000,4.000000,4.000000,4.000000,4.000000,4.000000,4.000000,4.000000,4.000000,4.000000,4.000000,4.000000,4.000000,100.000000,,,,,,,,,,,,,,,,,3.000000,0.000000,0.715184,-0.104370,-0.686279,0.081482,0.963497,-0.246124,0.039067,-39.609852,-33.183609,42.305283,,,,,,,,,,,,,,,,,,,,,,,,,,,,,,,,,,,,,,,,,,,,,,,,,,,,,,,,,,,,,,,,,,,,,,,,,,,,,,,,,,,,,,,,,,,,,,,,,,,,,
1739356002.491268,1739356002.491758,13.000000,0.000000,4382.820313,4369.102539,4371.666504,4566.666504,4363.974121,4395.512695,4354.615234,4350.897461,4334.743652,4323.974121,4690.384766,4616.282227,4469.487305,4575.897461,6551.000000,0.000000,12.000000,,,,0.000000,4.000000,4.000000,4.000000,4.000000,4.000000,4.000000,4.000000,4.000000,4.000000,4.000000,4.000000,4.000000,4.000000,4.000000,100.000000,,,,,,,,,,,,,,,,,,,,,,,,,,,,,,,,,,,,,,,,,,,,,,,,,,,,,,,,,,,,,,,,,,,,,,,,,,,,,,,,,,,,,,,,,,,,,,,,,,,,,,,,,,,,,,,,,,,,,,,,,,,,,,,,,
1739356002.499076,1739356002.499466,14.000000,0.000000,4381.282227,4367.692383,4374.358887,4559.102539,4357.051270,4389.615234,4346.410156,4352.307617,4331.282227,4320.897461,4697.179688,4618.974121,4475.897461,4577.179688,4984.000000,0.000000,12.000000,,,,0.000000,4.000000,4.000000,4.000000,4.000000,4.000000,4.000000,4.000000,4.000000,4.000000,4.000000,4.000000,4.000000,4.000000,4.000000,100.000000,,,,,,,,,,,,,,,,,,,,,,,,,,,,,,,,,,,,,,,,,,,,,,,,,,,,,,,,,,,,,,,,,,,,,,,,,,,,,,,,,,,,,,,,,,,,,,,,,,,,,,,,,,,,,,,,,,,,,,,,,,,,,,,,,
1739356002.506884,1739356002.507274,15.000000,0.000000,4391.410156,4374.102539,4380.000000,4560.769043,4361.922852,4397.179688,4350.512695,4355.384766,4342.436035,4334.615234,4708.589844,4626.922852,4488.846191,4590.512695,5678.000000,0.000000,12.000000,,,,0.000000,4.000000,4.000000,4.000000,4.000000,4.000000,4.000000,4.000000,4.000000,4.000000,4.000000,4.000000,4.000000,4.000000,4.000000,100.000000,,,,,,,,,,,,,,,,,,,,,,,,,,,,,,,,,,,,,,,,,,,,,,,,,,,,,,,,,,,,,,,,,,,,,,,,,,,,,,,,,,,,,,,,,,,,,,,,,,,,,,,,,,,,,,,,,,,,,,,,,,,,,,,,,
1739356002.514692,1739356002.514982,16.000000,0.000000,4383.589844,4368.077148,4374.358887,4554.871582,4356.282227,4389.102539,4345.769043,4356.153809,4343.846191,4332.179688,4698.205078,4613.974121,4483.846191,4585.384766,0.000000,0.000000,12.000000,,,,0.000000,4.000000,4.000000,4.000000,4.000000,4.000000,4.000000,4.000000,4.000000,4.000000,4.000000,4.000000,4.000000,4.000000,4.000000,100.000000,,,,,,,,,,,,,,,,,4.000000,0.000000,0.715322,-0.103149,-0.686218,0.082336,0.963008,-0.257844,0.041997,-39.732201,-32.981915,42.408085,,,,,,,,,,,,,,,,,,,,,,,,,,,,,,,,,,,,,,,,,,,,,,,,,,,,,,,,,,,,,,,,,,,,,,,,,,,,,,,,,,,,,,,,,,,,,,,,,,,,,
1739356002.522501,1739356002.522790,17.000000,0.000000,4361.794922,4349.487305,4358.077148,4532.820313,4332.692383,4362.436035,4323.333496,4351.153809,4322.820313,4310.000000,4672.948730,4589.102539,4465.256348,4562.820313,0.000000,0.000000,12.000000,,,,0.000000,4.000000,4.000000,4.000000,4.000000,4.000000,4.000000,4.000000,4.000000,4.000000,4.000000,4.000000,4.000000,4.000000,4.000000,100.000000,,,,,,,,,,,,,,,,,,,,,,,,,,,,,,,,,,,,,,,,,,,,,,,,,,,,,,,,,,,,,,,,,,,,,,,,,,,,,,,,,,,,,,,,,,,,,,,,,,,,,,,,,,,,,,,,,,,,,,,,,,,,,,,,,
1739356002.530309,1739356002.530498,18.000000,0.000000,4358.589844,4344.615234,4351.538574,4522.563965,4324.871582,4355.256348,4316.410156,4346.794922,4309.871582,4290.641113,4662.307617,4583.461426,4455.256348,4558.333496,0.000000,0.000000,12.000000,,,,0.000000,4.000000,4.000000,4.000000,4.000000,4.000000,4.000000,4.000000,4.000000,4.000000,4.000000,4.000000,4.000000,4.000000,4.000000,100.000000,,,,,,,,,,,,,,,,,,,,,,,,,,,,,,,,,,,,,,,,,,,,,,,,,,,,,,,,,,,,,,,,,,,,,,,,,,,,,,,,,,,,,,,,,,,,,,,,,,,,,,,,,,,,,,,,,,,,,,,,,,,,,,,,,
1739356002.538117,1739356002.538406,19.000000,0.000000,4372.948730,4355.641113,4358.717773,4531.282227,4337.563965,4368.589844,4329.871582,4351.666504,4323.333496,4296.666504,4674.871582,4600.384766,4465.641113,4572.307617,0.000000,0.000000,12.000000,,,,0.000000,4.000000,4.000000,4.000000,4.000000,4.000000,4.000000,4.000000,4.000000,4.000000,4.000000,4.000000,4.000000,4.000000,4.000000,100.000000,,,,,,,,,,,,,,,,,,,,,,,,,,,,,,,,,,,,,,,,,,,,,,,,,,,,,,,,,,,,,,,,,,,,,,,,,,,,,,,,,,,,,,,,,,,,,,,,,,,,,,,,,,,,,,,,,,,,,,,,,,,,,,,,,
1739356002.545925,1739356002.546214,20.000000,0.000000,4360.384766,4342.948730,4348.974121,4517.179688,4326.666504,4356.025879,4318.461426,4350.512695,4317.436035,4295.769043,4669.230957,4587.692383,4460.256348,4558.333496,0.000000,0.000000,12.000000,,,,0.000000,4.000000,4.000000,4.000000,4.000000,4.000000,4.000000,4.000000,4.000000,4.000000,4.000000,4.000000,4.000000,4.000000,4.000000,100.000000,,,,,,,,,,,,,,,,,5.000000,0.000000,0.715456,-0.102295,-0.686096,0.083252,0.960078,-0.247589,0.040532,-39.842316,-32.800392,42.367279,,,,,,,,,,,,,,,,,,,,,,,,,,,,,,,,,,,,,,,,,,,,,,,,,,,,,,,,,,,,,,,,,,,,,,,,,,,,,,,,,,,,,,,,,,,,,,,,,,,,,
1739356002.553733,1739356002.554122,21.000000,0.000000,4344.487305,4328.333496,4336.153809,4500.000000,4310.384766,4339.358887,4301.153809,4346.025879,4299.102539,4282.563965,4657.051270,4565.897461,4449.871582,4540.256348,0.000000,0.000000,12.000000,,,,0.000000,4.000000,4.000000,4.000000,4.000000,4.000000,4.000000,4.000000,4.000000,4.000000,4.000000,4.000000,4.000000,4.000000,4.000000,100.000000,,,,,,,,,,,,,,,,,,,,,,,,,,,,,,,,,,,,,,,,,,,,,,,,,,,,,,,,,,,,,,,,,,,,,,,,,,,,,,,,,,,,,,,,,,,,,,,,,,,,,,,,,,,,,,,,,,,,,,,,,,,,,,,,,
1739356002.561541,1739356002.561930,22.000000,0.000000,4355.384766,4340.769043,4343.333496,4511.538574,4317.948730,4346.922852,4310.769043,4346.282227,4303.846191,4283.974121,4665.256348,4576.922852,4459.743652,4552.948730,0.000000,0.000000,12.000000,,,,0.000000,4.000000,4.000000,4.000000,4.000000,4.000000,4.000000,4.000000,4.000000,4.000000,4.000000,4.000000,4.000000,4.000000,4.000000,100.000000,,,,,,,,,,,,,,,,,,,,,,,,,,,,,,,,,,,,,,,,,,,,,,,,,,,,,,,,,,,,,,,,,,,,,,,,,,,,,,,,,,,,,,,,,,,,,,,,,,,,,,,,,,,,,,,,,,,,,,,,,,,,,,,,,
1739356002.569349,1739356002.569839,23.000000,0.000000,4346.794922,4332.692383,4336.025879,4500.000000,4304.102539,4335.641113,4298.589844,4339.358887,4294.743652,4273.589844,4651.666504,4571.025879,4447.692383,4543.589844,0.000000,0.000000,12.000000,,,,0.000000,4.000000,4.000000,4.000000,4.000000,4.000000,4.000000,4.000000,4.000000,4.000000,4.000000,4.000000,4.000000,4.000000,4.000000,100.000000,,,,,,,,,,,,,,,,,,,,,,,,,,,,,,,,,,,,,,,,,,,,,,,,,,,,,,,,,,,,,,,,,,,,,,,,,,,,,,,,,,,,,,,,,,,,,,,,,,,,,,,,,,,,,,,,,,,,,,,,,,,,,,,,,
1739356002.577157,1739356002.577647,24.000000,0.000000,4332.948730,4315.256348,4327.051270,4477.820313,4283.333496,4316.410156,4277.563965,4334.743652,4279.871582,4257.563965,4634.230957,4555.897461,4425.769043,4524.743652,0.000000,0.000000,12.000000,,,,0.000000,4.000000,4.000000,4.000000,4.000000,4.000000,4.000000,4.000000,4.000000,4.000000,4.000000,4.000000,4.000000,4.000000,4.000000,100.000000,,,,,,,,,,,,,,,,,6.000000,0.000000,0.715472,-0.101929,-0.686096,0.083557,0.959590,-0.263216,0.052252,-39.824749,-32.737019,42.397217,,,,,,,,,,,,,,,,,,,,,,,,,,,,,,,,1.690070,1.675853,1.171263,2.149589,2.915628,3.949609,2.089670,2.088710,2.383734,2.908656,1.008867,0.871699,0.653345,1.685030,2.476321,1.955339,1.249993,0.849573,2.196593,2.771947,0.567292,0.552414,0.532682,1.476156,2.102090,0.467618,0.299525,0.462020,1.348515,2.283913,0.848549,0.527008,0.605841,1.435279,2.591920,0.341088,0.133663,0.451346,0.379538,0.519513,0.746691,0.919157,0.711639,1.702044,2.949722,1.920420,1.312796,1.082954,1.798269,2.953005,1.550586,1.421953,0.833638,2.089281,3.059940,1.128767,1.605123,1.127004,2.886723,3.757315,3.907069,1.688215,0.742121,1.696432,2.470929,0.760346,1.320316,1.034812,2.156297,3.027321
1739356002.584965,1739356002.585555,25.000000,0.000000,4350.641113,4327.179688,4346.538574,4489.358887,4298.717773,4326.538574,4291.666504,4341.282227,4293.589844,4272.179688,4651.794922,4572.436035,4440.641113,4541.922852,0.000000,0.000000,12.000000,,,,0.000000,4.000000,4.000000,4.000000,4.000000,4.000000,4.000000,4.000000,4.000000,4.000000,4.000000,4.000000,4.000000,4.000000,4.000000,100.000000,,,,,,,,,,,,,,,,,,,,,,,,,,,,,,,,,,,,,,,,,,,,,,,,,,,,,,,,,,,,,,,,,,,,,,,,,,,,,,,,,,,,,,,,,,,,,,,,,,,,,,,,,,,,,,,,,,,,,,,,,,,,,,,,,
1739356002.592773,1739356002.593363,26.000000,0.000000,4359.615234,4337.563965,4351.538574,4496.025879,4313.205078,4336.025879,4300.641113,4344.487305,4300.128418,4285.897461,4663.077148,4581.282227,4455.769043,4553.589844,0.000000,0.000000,12.000000,,,,0.000000,4.000000,4.000000,4.000000,4.000000,4.000000,4.000000,4.000000,4.000000,4.000000,4.000000,4.000000,4.000000,4.000000,4.000000,100.000000,,,,,,,,,,,,,,,,,,,,,,,,,,,,,,,,,,,,,,,,,,,,,,,,,,,,,,,,,,,,,,,,,,,,,,,,,,,,,,,,,,,,,,,,,,,,,,,,,,,,,,,,,,,,,,,,,,,,,,,,,,,,,,,,,
1739356002.600581,1739356002.601271,27.000000,0.000000,4335.641113,4315.641113,4330.000000,4471.794922,4294.615234,4320.641113,4283.205078,4336.794922,4285.000000,4266.666504,4643.461426,4557.692383,4437.563965,4534.230957,0.000000,0.000000,12.000000,,,,0.000000,4.000000,4.000000,4.000000,4.000000,4.000000,4.000000,4.000000,4.000000,4.000000,4.000000,4.000000,4.000000,4.000000,4.000000,100.000000,,,,,,,,,,,,,,,,,,,,,,,,,,,,,,,,,,,,,,,,,,,,,,,,,,,,,,,,,,,,,,,,,,,,,,,,,,,,,,,,,,,,,,,,,,,,,,,,,,,,,,,,,,,,,,,,,,,,,,,,,,,,,,,,,
1739356002.608390,1739356002.609079,28.000000,0.000000,4321.153809,4292.179688,4321.666504,4455.256348,4277.820313,4308.333496,4274.358887,4330.641113,4271.922852,4246.922852,4625.897461,4540.256348,4422.563965,4521.153809,0.000000,0.000000,12.000000,,,,0.000000,4.000000,4.000000,4.000000,4.000000,4.000000,4.000000,4.000000,4.000000,4.000000,4.000000,4.000000,4.000000,4.000000,4.000000,100.000000,,,,,,,,,,,,,,,,,7.000000,0.000000,0.715575,-0.101318,-0.686035,0.083923,0.960078,-0.249054,0.056159,-39.925610,-32.579983,42.524162,,,,,,,,,,,,,,,,,,,,,,,,,,,,,,,,,,,,,,,,,,,,,,,,,,,,,,,,,,,,,,,,,,,,,,,,,,,,,,,,,,,,,,,,,,,,,,,,,,,,,
1739356002.616197,1739356002.616787,29.000000,0.000000,4332.051270,4295.769043,4328.333496,4461.410156,4280.512695,4308.974121,4276.922852,4335.641113,4267.820313,4248.205078,4626.282227,4543.589844,4430.897461,4526.794922,0.000000,0.000000,12.000000,,,,0.000000,4.000000,4.000000,4.000000,4.000000,4.000000,4.000000,4.000000,4.000000,4.000000,4.000000,4.000000,4.000000,4.000000,4.000000,100.000000,,,,,,,,,,,,,,,,,,,,,,,,,,,,,,,,,,,,,,,,,,,,,,,,,,,,,,,,,,,,,,,,,,,,,,,,,,,,,,,,,,,,,,,,,,,,,,,,,,,,,,,,,,,,,,,,,,,,,,,,,,,,,,,,,
1739356002.624006,1739356002.624595,30.000000,0.000000,4333.077148,4298.333496,4324.358887,4460.769043,4280.384766,4308.333496,4278.717773,4340.641113,4269.615234,4247.563965,4628.333496,4543.205078,4433.333496,4526.153809,0.000000,0.000000,12.000000,,,,0.000000,4.000000,4.000000,4.000000,4.000000,4.000000,4.000000,4.000000,4.000000,4.000000,4.000000,4.000000,4.000000,4.000000,4.000000,100.000000,,,,,,,,,,,,,,,,,,,,,,,,,,,,,,,,,,,,,,,,,,,,,,,,,,,,,,,,,,,,,,,,,,,,,,,,,,,,,,,,,,,,,,,,,,,,,,,,,,,,,,,,,,,,,,,,,,,,,,,,,,,,,,,,,
1739356002.631814,1739356002.632303,31.000000,0.000000,4324.358887,4290.000000,4320.384766,4452.820313,4281.282227,4308.846191,4281.410156,4338.717773,4273.077148,4243.717773,4625.000000,4539.743652,4422.820313,4520.512695,0.000000,0.000000,12.000000,,,,0.000000,4.000000,4.000000,4.000000,4.000000,4.000000,4.000000,4.000000,4.000000,4.000000,4.000000,4.000000,4.000000,4.000000,4.000000,100.000000,,,,,,,,,,,,,,,,,,,,,,,,,,,,,,,,,,,,,,,,,,,,,,,,,,,,,,,,,,,,,,,,,,,,,,,,,,,,,,,,,,,,,,,,,,,,,,,,,,,,,,,,,,,,,,,,,,,,,,,,,,,,,,,,,
1739356002.639622,1739356002.640111,32.000000,0.000000,4308.717773,4271.025879,4312.692383,4431.666504,4267.051270,4295.128418,4264.487305,4327.820313,4254.615234,4228.461426,4603.974121,4519.743652,4404.102539,4503.717773,0.000000,0.000000,12.000000,,,,0.000000,4.000000,4.000000,4.000000,4.000000,4.000000,4.000000,4.000000,4.000000,4.000000,4.000000,4.000000,4.000000,4.000000,4.000000,100.000000,,,,,,,,,,,,,,,,,8.000000,0.000000,0.715381,-0.100830,-0.686279,0.084167,0.954706,-0.264192,0.037602,-39.783047,-32.505318,42.538410,,,,,,,,,,,,,,,,,,,,,,,,,,,,,,,,,,,,,,,,,,,,,,,,,,,,,,,,,,,,,,,,,,,,,,,,,,,,,,,,,,,,,,,,,,,,,,,,,,,,,
1739356002.647430,1739356002.647819,33.000000,0.000000,4291.282227,4254.102539,4293.717773,4408.333496,4243.717773,4272.436035,4240.384766,4317.307617,4227.692383,4206.282227,4579.487305,4493.846191,4388.461426,4483.589844,0.000000,0.000000,12.000000,,,,0.000000,4.000000,4.000000,4.000000,4.000000,4.000000,4.000000,4.000000,4.000000,4.000000,4.000000,4.000000,4.000000,4.000000,4.000000,100.000000,,,,,,,,,,,,,,,,,,,,,,,,,,,,,,,,,,,,,,,,,,,,,,,,,,,,,,,,,,,,,,,,,,,,,,,,,,,,,,,,,,,,,,,,,,,,,,,,,,,,,,,,,,,,,,,,,,,,,,,,,,,,,,,,,
1739356002.655238,1739356002.655627,34.000000,0.000000,4298.974121,4262.179688,4296.666504,4414.871582,4251.282227,4279.487305,4248.974121,4321.666504,4232.436035,4210.384766,4583.461426,4501.794922,4396.153809,4494.358887,0.000000,0.000000,12.000000,,,,0.000000,4.000000,4.000000,4.000000,4.000000,4.000000,4.000000,4.000000,4.000000,4.000000,4.000000,4.000000,4.000000,4.000000,4.000000,100.000000,,,,,,,,,,,,,,,,,,,,,,,,,,,,,,,,,,,,,,,,,,,,,,,,,,,,,,,,,,,,,,,,,,,,,,,,,,,,,,,,,,,,,,,,,,,,,,,,,,,,,,,,,,,,,,,,,,,,,,,,,,,,,,,,,
1739356002.663046,1739356002.663335,35.000000,0.000000,4320.897461,4282.307617,4319.871582,4433.846191,4273.717773,4299.487305,4270.512695,4327.692383,4251.538574,4235.256348,4599.102539,4525.000000,4414.230957,4520.512695,0.000000,0.000000,12.000000,,,,0.000000,4.000000,4.000000,4.000000,4.000000,4.000000,4.000000,4.000000,4.000000,4.000000,4.000000,4.000000,4.000000,4.000000,4.000000,100.000000,,,,,,,,,,,,,,,,,,,,,,,,,,,,,,,,,,,,,,,,,,,,,,,,,,,,,,,,,,,,,,,,,,,,,,,,,,,,,,,,,,,,,,,,,,,,,,,,,,,,,,,,,,,,,,,,,,,,,,,,,,,,,,,,,
1739356002.670854,1739356002.671243,36.000000,0.000000,4319.230957,4284.358887,4321.282227,4433.205078,4268.461426,4293.333496,4265.897461,4323.333496,4252.051270,4237.307617,4593.974121,4524.743652,4412.692383,4519.743652,0.000000,0.000000,12.000000,,,,0.000000,4.000000,4.000000,4.000000,4.000000,4.000000,4.000000,4.000000,4.000000,4.000000,4.000000,4.000000,4.000000,4.000000,4.000000,100.000000,,,,,,,,,,,,,,,,,9.000000,0.000000,0.715112,-0.100769,-0.686523,0.084534,0.961055,-0.259309,0.033207,-39.754742,-32.404785,42.534573,,,,,,,,,,,,,,,,,,,,,,,,,,,,,,,,,,,,,,,,,,,,,,,,,,,,,,,,,,,,,,,,,,,,,,,,,,,,,,,,,,,,,,,,,,,,,,,,,,,,,
1739356002.678662,1739356002.679051,37.000000,0.000000,4301.025879,4271.666504,4307.179688,4423.333496,4250.128418,4276.538574,4249.743652,4317.692383,4242.948730,4218.333496,4579.743652,4513.846191,4402.051270,4501.282227,0.000000,0.000000,12.000000,,,,0.000000,4.000000,4.000000,4.000000,4.000000,4.000000,4.000000,4.000000,4.000000,4.000000,4.000000,4.000000,4.000000,4.000000,4.000000,100.000000,,,,,,,,,,,,,,,,,,,,,,,,,,,,,,,,,,,,,,,,,,,,,,,,,,,,,,,,,,,,,,,,,,,,,,,,,,,,,,,,,,,,,,,,,,,,,,,,,,,,,,,,,,,,,,,,,,,,,,,,,,,,,,,,,
1739356002.686470,1739356002.686960,38.000000,0.000000,4306.666504,4273.589844,4313.589844,4424.615234,4250.256348,4275.897461,4246.410156,4311.794922,4243.717773,4218.846191,4582.051270,4517.692383,4408.077148,4504.102539,0.000000,0.000000,12.000000,,,,0.000000,4.000000,4.000000,4.000000,4.000000,4.000000,4.000000,4.000000,4.000000,4.000000,4.000000,4.000000,4.000000,4.000000,4.000000,100.000000,,,,,,,,,,,,,,,,,,,,,,,,,,,,,,,,,,,,,,,,,,,,,,,,,,,,,,,,,,,,,,,,,,,,,,,,,,,,,,,,,,,,,,,,,,,,,,,,,,,,,,,,,,,,,,,,,,,,,,,,,,,,,,,,,
1739356002.694278,1739356002.694768,39.000000,0.000000,4328.461426,4288.461426,4332.436035,4433.974121,4264.871582,4284.871582,4259.743652,4303.077148,4253.333496,4239.615234,4591.025879,4527.563965,4421.410156,4521.666504,0.000000,0.000000,12.000000,,,,0.000000,4.000000,4.000000,4.000000,4.000000,4.000000,4.000000,4.000000,4.000000,4.000000,4.000000,4.000000,4.000000,4.000000,4.000000,100.000000,,,,,,,,,,,,,,,,,,,,,,,,,,,,,,,,,,,,,,,,,,,,,,,,,,,,,,,,,,,,,,,,,,,,,,,,,,,,,,,,,,,,,,,,,,,,,,,,,,,,,,,,,,,,,,,,,,,,,,,,,,,,,,,,,
1739356002.702086,1739356002.702676,40.000000,0.000000,4328.589844,4291.922852,4331.538574,4439.615234,4272.563965,4288.333496,4271.538574,4304.358887,4257.051270,4244.615234,4586.794922,4525.897461,4419.358887,4525.897461,0.000000,0.000000,12.000000,,,,0.000000,4.000000,4.000000,4.000000,4.000000,4.000000,4.000000,4.000000,4.000000,4.000000,4.000000,4.000000,4.000000,4.000000,4.000000,100.000000,,,,,,,,,,,,,,,,,10.000000,0.000000,0.715089,-0.100464,-0.686584,0.084595,0.953730,-0.261262,0.037602,-39.712601,-32.464310,42.631115,,,,,,,,,,,,,,,,,,,,,,,,,,,,,,,,2.052083,2.387073,1.334165,2.441722,3.354754,5.113691,3.036197,2.743635,2.641112,3.409006,0.962765,1.027711,0.673070,1.852913,2.812816,2.545049,1.712319,1.082587,2.497909,3.138897,0.558865,0.638685,0.484085,1.658573,2.380569,0.552468,0.353214,0.438439,1.537623,2.512960,1.027173,0.698761,0.568620,1.638943,2.927972,0.515269,0.165460,0.659539,0.481698,0.598142,1.021262,1.186976,0.580888,1.937747,3.253559,2.167166,1.645193,0.805017,2.097226,3.344480,1.616392,1.782238,0.746207,2.365687,3.544377,1.132762,2.121936,1.103263,3.199404,4.334786,4.553833,1.880210,0.634051,1.769945,2.815311,0.763717,1.740091,1.128414,2.354602,3.441941
1739356002.709895,1739356002.710484,41.000000,0.000000,4290.384766,4256.282227,4298.205078,4411.282227,4241.025879,4262.563965,4241.794922,4311.794922,4234.230957,4208.717773,4560.128418,4492.820313,4390.641113,4498.077148,0.000000,0.000000,12.000000,,,,0.000000,4.000000,4.000000,4.000000,4.000000,4.000000,4.000000,4.000000,4.000000,4.000000,4.000000,4.000000,4.000000,4.000000,4.000000,100.000000,,,,,,,,,,,,,,,,,,,,,,,,,,,,,,,,,,,,,,,,,,,,,,,,,,,,,,,,,,,,,,,,,,,,,,,,,,,,,,,,,,,,,,,,,,,,,,,,,,,,,,,,,,,,,,,,,,,,,,,,,,,,,,,,,
1739356002.717703,1739356002.718392,42.000000,0.000000,4267.563965,4229.487305,4281.153809,4383.846191,4214.102539,4240.384766,4215.769043,4320.000000,4213.205078,4181.922852,4551.538574,4474.487305,4377.179688,4479.743652,0.000000,0.000000,12.000000,,,,0.000000,4.000000,4.000000,4.000000,4.000000,4.000000,4.000000,4.000000,4.000000,4.000000,4.000000,4.000000,4.000000,4.000000,4.000000,100.000000,,,,,,,,,,,,,,,,,,,,,,,,,,,,,,,,,,,,,,,,,,,,,,,,,,,,,,,,,,,,,,,,,,,,,,,,,,,,,,,,,,,,,,,,,,,,,,,,,,,,,,,,,,,,,,,,,,,,,,,,,,,,,,,,,
1739356002.725511,1739356002.726200,43.000000,0.000000,4300.128418,4259.102539,4315.384766,4411.666504,4242.051270,4266.153809,4244.102539,4334.358887,4233.717773,4209.102539,4581.025879,4513.589844,4407.179688,4512.948730,0.000000,0.000000,12.000000,,,,0.000000,4.000000,4.000000,4.000000,4.000000,4.000000,4.000000,4.000000,4.000000,4.000000,4.000000,4.000000,4.000000,4.000000,4.000000,100.000000,,,,,,,,,,,,,,,,,,,,,,,,,,,,,,,,,,,,,,,,,,,,,,,,,,,,,,,,,,,,,,,,,,,,,,,,,,,,,,,,,,,,,,,,,,,,,,,,,,,,,,,,,,,,,,,,,,,,,,,,,,,,,,,,,
1739356002.733319,1739356002.734108,44.000000,0.000000,4320.769043,4280.641113,4336.025879,4435.256348,4265.641113,4287.692383,4266.666504,4340.641113,4253.589844,4234.358887,4590.897461,4535.384766,4422.563965,4535.512695,0.000000,0.000000,12.000000,,,,0.000000,4.000000,4.000000,4.000000,4.000000,4.000000,4.000000,4.000000,4.000000,4.000000,4.000000,4.000000,4.000000,4.000000,4.000000,100.000000,,,,,,,,,,,,,,,,,11.000000,0.000000,0.715417,-0.099792,-0.686340,0.084595,0.957636,-0.267122,0.043462,-39.491341,-32.351212,42.751335,,,,,,,,,,,,,,,,,,,,,,,,,,,,,,,,,,,,,,,,,,,,,,,,,,,,,,,,,,,,,,,,,,,,,,,,,,,,,,,,,,,,,,,,,,,,,,,,,,,,,
1739356002.741127,1739356002.741917,45.000000,0.000000,4300.641113,4264.102539,4314.615234,4415.000000,4249.102539,4269.615234,4250.512695,4332.436035,4239.743652,4218.974121,4571.282227,4510.769043,4405.128418,4515.000000,0.000000,0.000000,12.000000,,,,0.000000,4.000000,4.000000,4.000000,4.000000,4.000000,4.000000,4.000000,4.000000,4.000000,4.000000,4.000000,4.000000,4.000000,4.000000,100.000000,,,,,,,,,,,,,,,,,,,,,,,,,,,,,,,,,,,,,,,,,,,,,,,,,,,,,,,,,,,,,,,,,,,,,,,,,,,,,,,,,,,,,,,,,,,,,,,,,,,,,,,,,,,,,,,,,,,,,,,,,,,,,,,,,
1739356002.748935,1739356002.749825,46.000000,0.000000,4291.153809,4256.666504,4304.615234,4399.230957,4237.436035,4257.820313,4238.461426,4329.102539,4228.461426,4200.769043,4566.025879,4500.256348,4400.769043,4503.589844,0.000000,0.000000,12.000000,,,,0.000000,4.000000,4.000000,4.000000,4.000000,4.000000,4.000000,4.000000,4.000000,4.000000,4.000000,4.000000,4.000000,4.000000,4.000000,100.000000,,,,,,,,,,,,,,,,,,,,,,,,,,,,,,,,,,,,,,,,,,,,,,,,,,,,,,,,,,,,,,,,,,,,,,,,,,,,,,,,,,,,,,,,,,,,,,,,,,,,,,,,,,,,,,,,,,,,,,,,,,,,,,,,,
1739356002.756743,1739356002.757633,47.000000,0.000000,4299.615234,4257.692383,4314.358887,4400.769043,4239.487305,4259.102539,4237.563965,4332.563965,4234.615234,4203.077148,4573.205078,4508.846191,4410.897461,4509.487305,0.000000,0.000000,12.000000,,,,0.000000,4.000000,4.000000,4.000000,4.000000,4.000000,4.000000,4.000000,4.000000,4.000000,4.000000,4.000000,4.000000,4.000000,4.000000,100.000000,,,,,,,,,,,,,,,,,,,,,,,,,,,,,,,,,,,,,,,,,,,,,,,,,,,,,,,,,,,,,,,,,,,,,,,,,,,,,,,,,,,,,,,,,,,,,,,,,,,,,,,,,,,,,,,,,,,,,,,,,,,,,,,,,
1739356002.764551,1739356002.765541,48.000000,0.000000,4296.282227,4248.205078,4313.077148,4398.077148,4234.358887,4251.666504,4231.666504,4331.282227,4235.769043,4211.666504,4570.641113,4505.000000,4410.256348,4503.461426,0.000000,0.000000,12.000000,,,,0.000000,4.000000,4.000000,4.000000,4.000000,4.000000,4.000000,4.000000,4.000000,4.000000,4.000000,4.000000,4.000000,4.000000,4.000000,100.000000,,,,,,,,,,,,,,,,,12.000000,0.000000,0.715904,-0.098816,-0.685974,0.084595,0.965938,-0.271518,0.042974,-39.625542,-32.266090,42.726204,,,,,,,,,,,,,,,,,,,,,,,,,,,,,,,,,,,,,,,,,,,,,,,,,,,,,,,,,,,,,,,,,,,,,,,,,,,,,,,,,,,,,,,,,,,,,,,,,,,,,
1739356002.772359,1739356002.773349,49.000000,0.000000,4287.436035,4247.051270,4305.128418,4393.974121,4228.974121,4246.410156,4231.794922,4327.692383,4235.000000,4213.589844,4562.948730,4496.410156,4402.820313,4493.205078,0.000000,0.000000,12.000000,,,,0.000000,4.000000,4.000000,4.000000,4.000000,4.000000,4.000000,4.000000,4.000000,4.000000,4.000000,4.000000,4.000000,4.000000,4.000000,100.000000,,,,,,,,,,,,,,,,,,,,,,,,,,,,,,,,,,,,,,,,,,,,,,,,,,,,,,,,,,,,,,,,,,,,,,,,,,,,,,,,,,,,,,,,,,,,,,,,,,,,,,,,,,,,,,,,,,,,,,,,,,,,,,,,,
1739356002.780167,1739356002.781257,50.000000,0.000000,4279.871582,4243.333496,4296.666504,4384.743652,4221.794922,4244.743652,4231.153809,4325.512695,4231.666504,4203.846191,4552.820313,4484.743652,4392.051270,4482.820313,0.000000,0.000000,12.000000,,,,0.000000,4.000000,4.000000,4.000000,4.000000,4.000000,4.000000,4.000000,4.000000,4.000000,4.000000,4.000000,4.000000,4.000000,4.000000,100.000000,,,,,,,,,,,,,,,,,,,,,,,,,,,,,,,,,,,,,,,,,,,,,,,,,,,,,,,,,,,,,,,,,,,,,,,,,,,,,,,,,,,,,,,,,,,,,,,,,,,,,,,,,,,,,,,,,,,,,,,,,,,,,,,,,
1739356002.787975,1739356002.789066,51.000000,0.000000,4273.077148,4230.000000,4288.205078,4374.871582,4219.743652,4240.641113,4222.948730,4322.563965,4219.358887,4193.333496,4541.794922,4471.153809,4381.666504,4471.025879,0.000000,0.000000,12.000000,,,,0.000000,4.000000,4.000000,4.000000,4.000000,4.000000,4.000000,4.000000,4.000000,4.000000,4.000000,4.000000,4.000000,4.000000,4.000000,100.000000,,,,,,,,,,,,,,,,,,,,,,,,,,,,,,,,,,,,,,,,,,,,,,,,,,,,,,,,,,,,,,,,,,,,,,,,,,,,,,,,,,,,,,,,,,,,,,,,,,,,,,,,,,,,,,,,,,,,,,,,,,,,,,,,,
1739356002.795783,1739356002.796774,52.000000,0.000000,4276.538574,4233.974121,4292.307617,4384.230957,4231.153809,4239.871582,4221.922852,4320.384766,4214.615234,4191.666504,4538.333496,4473.461426,4386.025879,4472.307617,0.000000,0.000000,12.000000,,,,0.000000,4.000000,4.000000,4.000000,4.000000,4.000000,4.000000,4.000000,4.000000,4.000000,4.000000,4.000000,4.000000,4.000000,4.000000,100.000000,,,,,,,,,,,,,,,,,13.000000,0.000000,0.716129,-0.098083,-0.685852,0.084534,0.968380,-0.267611,0.046881,-39.612988,-32.272816,42.903584,,,,,,,,,,,,,,,,,,,,,,,,,,,,,,,,,,,,,,,,,,,,,,,,,,,,,,,,,,,,,,,,,,,,,,,,,,,,,,,,,,,,,,,,,,,,,,,,,,,,,
1739356002.803591,1739356002.804682,53.000000,0.000000,4276.153809,4238.461426,4298.974121,4389.871582,4232.820313,4239.102539,4224.230957,4319.230957,4216.922852,4187.179688,4540.641113,4477.948730,4390.000000,4473.846191,0.000000,0.000000,12.000000,,,,0.000000,4.000000,4.000000,4.000000,4.000000,4.000000,4.000000,4.000000,4.000000,4.000000,4.000000,4.000000,4.000000,4.000000,4.000000,100.000000,,,,,,,,,,,,,,,,,,,,,,,,,,,,,,,,,,,,,,,,,,,,,,,,,,,,,,,,,,,,,,,,,,,,,,,,,,,,,,,,,,,,,,,,,,,,,,,,,,,,,,,,,,,,,,,,,,,,,,,,,,,,,,,,,
1739356002.811400,1739356002.812490,54.000000,0.000000,4263.333496,4224.615234,4291.282227,4373.205078,4221.282227,4234.871582,4217.563965,4318.717773,4215.512695,4183.846191,4542.563965,4467.436035,4385.641113,4466.153809,0.000000,0.000000,12.000000,,,,0.000000,4.000000,4.000000,4.000000,4.000000,4.000000,4.000000,4.000000,4.000000,4.000000,4.000000,4.000000,4.000000,4.000000,4.000000,100.000000,,,,,,,,,,,,,,,,,,,,,,,,,,,,,,,,,,,,,,,,,,,,,,,,,,,,,,,,,,,,,,,,,,,,,,,,,,,,,,,,,,,,,,,,,,,,,,,,,,,,,,,,,,,,,,,,,,,,,,,,,,,,,,,,,
1739356002.819208,1739356002.820298,55.000000,0.000000,4257.051270,4214.358887,4280.384766,4359.230957,4214.102539,4228.717773,4209.358887,4318.589844,4211.025879,4185.000000,4537.563965,4456.794922,4381.666504,4461.025879,0.000000,0.000000,12.000000,,,,0.000000,4.000000,4.000000,4.000000,4.000000,4.000000,4.000000,4.000000,4.000000,4.000000,4.000000,4.000000,4.000000,4.000000,4.000000,100.000000,,,,,,,,,,,,,,,,,,,,,,,,,,,,,,,,,,,,,,,,,,,,,,,,,,,,,,,,,,,,,,,,,,,,,,,,,,,,,,,,,,,,,,,,,,,,,,,,,,,,,,,,,,,,,,,,,,,,,,,,,,,,,,,,,
1739356002.827016,1739356002.828006,56.000000,0.000000,4264.615234,4221.025879,4286.538574,4366.538574,4219.871582,4227.692383,4213.974121,4318.974121,4210.641113,4185.000000,4533.205078,4459.871582,4381.666504,4466.922852,0.000000,0.000000,12.000000,,,,0.000000,4.000000,4.000000,4.000000,4.000000,4.000000,4.000000,4.000000,4.000000,4.000000,4.000000,4.000000,4.000000,4.000000,4.000000,100.000000,,,,,,,,,,,,,,,,,14.000000,0.000000,0.716578,-0.096436,-0.685669,0.084106,0.961055,-0.284703,0.047857,-39.501686,-32.095531,42.963223,,,,,,,,,,,,,,,,,,,,,,,,,,,,,,,,2.542297,3.108401,1.569663,2.639204,3.784195,6.626168,4.006371,3.358913,2.739643,3.915293,0.943432,1.169269,0.731791,1.938239,3.124521,3.528251,2.186475,1.334140,2.647155,3.495204,0.550820,0.733693,0.431490,1.752495,2.679356,0.592617,0.396283,0.403594,1.636212,2.730553,1.117746,0.879739,0.539641,1.764664,3.246744,0.690320,0.189211,0.840276,0.552579,0.664420,1.306960,1.555201,0.478678,2.106569,3.503319,2.430509,2.087721,0.624340,2.303409,3.724886,1.624703,2.214712,0.767627,2.545274,3.985427,1.126313,2.689307,1.175693,3.387037,4.857866,5.080566,2.233384,0.621727,1.838640,3.125960,0.822904,2.255293,1.339627,2.477103,3.847190
1739356002.834824,1739356002.835814,57.000000,0.000000,4260.128418,4220.384766,4290.384766,4370.769043,4216.922852,4224.487305,4211.153809,4314.871582,4205.256348,4180.512695,4530.384766,4455.000000,4377.436035,4466.025879,0.000000,0.000000,12.000000,,,,0.000000,4.000000,4.000000,4.000000,4.000000,4.000000,4.000000,4.000000,4.000000,4.000000,4.000000,4.000000,4.000000,4.000000,4.000000,100.000000,,,,,,,,,,,,,,,,,,,,,,,,,,,,,,,,,,,,,,,,,,,,,,,,,,,,,,,,,,,,,,,,,,,,,,,,,,,,,,,,,,,,,,,,,,,,,,,,,,,,,,,,,,,,,,,,,,,,,,,,,,,,,,,,,
1739356002.842632,1739356002.843522,58.000000,0.000000,4230.128418,4198.717773,4266.153809,4345.256348,4195.000000,4209.871582,4189.358887,4304.871582,4186.410156,4164.230957,4508.589844,4424.615234,4355.384766,4438.461426,0.000000,0.000000,12.000000,,,,0.000000,4.000000,4.000000,4.000000,4.000000,4.000000,4.000000,4.000000,4.000000,4.000000,4.000000,4.000000,4.000000,4.000000,4.000000,100.000000,,,,,,,,,,,,,,,,,,,,,,,,,,,,,,,,,,,,,,,,,,,,,,,,,,,,,,,,,,,,,,,,,,,,,,,,,,,,,,,,,,,,,,,,,,,,,,,,,,,,,,,,,,,,,,,,,,,,,,,,,,,,,,,,,
1739356002.850440,1739356002.851330,59.000000,0.000000,4206.538574,4178.077148,4242.820313,4320.512695,4179.743652,4196.410156,4177.436035,4299.615234,4174.358887,4145.128418,4487.692383,4400.769043,4333.333496,4412.179688,0.000000,0.000000,12.000000,,,,0.000000,4.000000,4.000000,4.000000,4.000000,4.000000,4.000000,4.000000,4.000000,4.000000,4.000000,4.000000,4.000000,4.000000,4.000000,100.000000,,,,,,,,,,,,,,,,,,,,,,,,,,,,,,,,,,,,,,,,,,,,,,,,,,,,,,,,,,,,,,,,,,,,,,,,,,,,,,,,,,,,,,,,,,,,,,,,,,,,,,,,,,,,,,,,,,,,,,,,,,,,,,,,,
1739356002.858248,1739356002.859038,60.000000,0.000000,4204.102539,4174.871582,4240.897461,4320.897461,4179.871582,4193.077148,4178.077148,4303.589844,4175.897461,4141.410156,4487.051270,4399.743652,4333.461426,4412.692383,0.000000,0.000000,12.000000,,,,0.000000,4.000000,4.000000,4.000000,4.000000,4.000000,4.000000,4.000000,4.000000,4.000000,4.000000,4.000000,4.000000,4.000000,4.000000,100.000000,,,,,,,,,,,,,,,,,15.000000,0.000000,0.717028,-0.095032,-0.685425,0.083862,0.970333,-0.261751,0.049322,-39.618187,-32.019314,42.800236,,,,,,,,,,,,,,,,,,,,,,,,,,,,,,,,,,,,,,,,,,,,,,,,,,,,,,,,,,,,,,,,,,,,,,,,,,,,,,,,,,,,,,,,,,,,,,,,,,,,,
1739356002.866056,1739356002.866846,61.000000,0.000000,4204.487305,4176.538574,4240.000000,4320.512695,4176.153809,4185.384766,4169.871582,4305.641113,4176.282227,4147.563965,4488.077148,4399.487305,4342.563965,4415.256348,0.000000,0.000000,12.000000,,,,0.000000,4.000000,4.000000,4.000000,4.000000,4.000000,4.000000,4.000000,4.000000,4.000000,4.000000,4.000000,4.000000,4.000000,4.000000,100.000000,,,,,,,,,,,,,,,,,,,,,,,,,,,,,,,,,,,,,,,,,,,,,,,,,,,,,,,,,,,,,,,,,,,,,,,,,,,,,,,,,,,,,,,,,,,,,,,,,,,,,,,,,,,,,,,,,,,,,,,,,,,,,,,,,
1739356002.873864,1739356002.874554,62.000000,0.000000,4187.948730,4163.589844,4224.743652,4299.743652,4159.615234,4165.384766,4152.051270,4296.025879,4158.974121,4132.820313,4470.256348,4378.461426,4330.512695,4394.743652,0.000000,0.000000,12.000000,,,,0.000000,4.000000,4.000000,4.000000,4.000000,4.000000,4.000000,4.000000,4.000000,4.000000,4.000000,4.000000,4.000000,4.000000,4.000000,100.000000,,,,,,,,,,,,,,,,,,,,,,,,,,,,,,,,,,,,,,,,,,,,,,,,,,,,,,,,,,,,,,,,,,,,,,,,,,,,,,,,,,,,,,,,,,,,,,,,,,,,,,,,,,,,,,,,,,,,,,,,,,,,,,,,,
1739356002.881672,1739356002.882362,63.000000,0.000000,4162.307617,4138.461426,4202.692383,4275.769043,4140.256348,4146.794922,4132.820313,4285.128418,4129.487305,4097.820313,4441.410156,4346.282227,4304.743652,4366.666504,0.000000,0.000000,12.000000,,,,0.000000,4.000000,4.000000,4.000000,4.000000,4.000000,4.000000,4.000000,4.000000,4.000000,4.000000,4.000000,4.000000,4.000000,4.000000,100.000000,,,,,,,,,,,,,,,,,,,,,,,,,,,,,,,,,,,,,,,,,,,,,,,,,,,,,,,,,,,,,,,,,,,,,,,,,,,,,,,,,,,,,,,,,,,,,,,,,,,,,,,,,,,,,,,,,,,,,,,,,,,,,,,,,
1739356002.889480,1739356002.890070,64.000000,0.000000,4153.717773,4124.871582,4196.025879,4272.436035,4130.769043,4141.282227,4124.358887,4284.230957,4123.333496,4090.384521,4437.820313,4342.436035,4302.179688,4361.922852,5020.000000,0.000000,12.000000,,,,0.000000,4.000000,4.000000,4.000000,4.000000,4.000000,4.000000,4.000000,4.000000,4.000000,4.000000,4.000000,4.000000,4.000000,4.000000,100.000000,,,,,,,,,,,,,,,,,16.000000,0.000000,0.717595,-0.093933,-0.684998,0.083740,0.956171,-0.263216,0.032230,-39.656368,-32.050716,42.886879,,,,,,,,,,,,,,,,,,,,,,,,,,,,,,,,,,,,,,,,,,,,,,,,,,,,,,,,,,,,,,,,,,,,,,,,,,,,,,,,,,,,,,,,,,,,,,,,,,,,,
1739356002.897288,1739356002.897878,65.000000,0.000000,4142.436035,4114.230957,4187.692383,4262.692383,4115.897461,4124.615234,4112.179688,4280.512695,4118.974121,4085.512939,4428.974121,4335.384766,4295.000000,4351.666504,5556.000000,0.000000,12.000000,,,,0.000000,4.000000,4.000000,4.000000,4.000000,4.000000,4.000000,4.000000,4.000000,4.000000,4.000000,4.000000,4.000000,4.000000,4.000000,100.000000,,,,,,,,,,,,,,,,,,,,,,,,,,,,,,,,,,,,,,,,,,,,,,,,,,,,,,,,,,,,,,,,,,,,,,,,,,,,,,,,,,,,,,,,,,,,,,,,,,,,,,,,,,,,,,,,,,,,,,,,,,,,,,,,,
1739356002.905096,1739356002.905587,66.000000,0.000000,4111.025879,4092.820557,4160.769043,4232.820313,4090.384521,4096.410156,4083.589844,4268.589844,4084.615479,4046.410156,4388.589844,4294.358887,4262.820313,4317.179688,5572.000000,0.000000,12.000000,,,,0.000000,4.000000,4.000000,4.000000,4.000000,4.000000,4.000000,4.000000,4.000000,4.000000,4.000000,4.000000,4.000000,4.000000,4.000000,100.000000,,,,,,,,,,,,,,,,,,,,,,,,,,,,,,,,,,,,,,,,,,,,,,,,,,,,,,,,,,,,,,,,,,,,,,,,,,,,,,,,,,,,,,,,,,,,,,,,,,,,,,,,,,,,,,,,,,,,,,,,,,,,,,,,,
1739356002.912905,1739356002.913394,67.000000,0.000000,4099.743652,4085.512939,4147.948730,4222.563965,4083.461426,4095.128174,4071.153809,4266.282227,4065.128174,4027.820557,4373.974121,4278.077148,4253.205078,4304.487305,5519.000000,0.000000,12.000000,,,,0.000000,4.000000,4.000000,4.000000,4.000000,4.000000,4.000000,4.000000,4.000000,4.000000,4.000000,4.000000,4.000000,4.000000,4.000000,100.000000,,,,,,,,,,,,,,,,,,,,,,,,,,,,,,,,,,,,,,,,,,,,,,,,,,,,,,,,,,,,,,,,,,,,,,,,,,,,,,,,,,,,,,,,,,,,,,,,,,,,,,,,,,,,,,,,,,,,,,,,,,,,,,,,,
1739356002.920713,1739356002.921103,68.000000,0.000000,4112.051270,4092.820557,4156.922852,4233.589844,4093.076904,4105.512695,4081.410156,4271.410156,4081.281982,4044.230713,4392.436035,4296.666504,4268.205078,4316.153809,5492.000000,0.000000,12.000000,,,,0.000000,4.000000,4.000000,4.000000,4.000000,4.000000,4.000000,4.000000,4.000000,4.000000,4.000000,4.000000,4.000000,4.000000,4.000000,100.000000,,,,,,,,,,,,,,,,,17.000000,0.000000,0.718441,-0.093140,-0.684204,0.083862,0.969845,-0.252472,0.060066,-39.707397,-31.945642,42.898190,,,,,,,,,,,,,,,,,,,,,,,,,,,,,,,,,,,,,,,,,,,,,,,,,,,,,,,,,,,,,,,,,,,,,,,,,,,,,,,,,,,,,,,,,,,,,,,,,,,,,
1739356002.928521,1739356002.929011,69.000000,0.000000,4103.846191,4085.384521,4152.307617,4226.922852,4084.743652,4092.051270,4077.435791,4268.717773,4079.743652,4039.743652,4388.589844,4290.256348,4262.307617,4307.692383,5482.000000,0.000000,12.000000,,,,0.000000,4.000000,4.000000,4.000000,4.000000,4.000000,4.000000,4.000000,4.000000,4.000000,4.000000,4.000000,4.000000,4.000000,4.000000,100.000000,,,,,,,,,,,,,,,,,,,,,,,,,,,,,,,,,,,,,,,,,,,,,,,,,,,,,,,,,,,,,,,,,,,,,,,,,,,,,,,,,,,,,,,,,,,,,,,,,,,,,,,,,,,,,,,,,,,,,,,,,,,,,,,,,
1739356002.936329,1739356002.936819,70.000000,0.000000,4087.051270,4072.051270,4137.948730,4208.333496,4071.666748,4078.076904,4062.564209,4264.230957,4059.871826,4023.589844,4374.615234,4271.794922,4247.436035,4293.077148,5445.000000,0.000000,12.000000,,,,0.000000,4.000000,4.000000,4.000000,4.000000,4.000000,4.000000,4.000000,4.000000,4.000000,4.000000,4.000000,4.000000,4.000000,4.000000,100.000000,,,,,,,,,,,,,,,,,,,,,,,,,,,,,,,,,,,,,,,,,,,,,,,,,,,,,,,,,,,,,,,,,,,,,,,,,,,,,,,,,,,,,,,,,,,,,,,,,,,,,,,,,,,,,,,,,,,,,,,,,,,,,,,,,
1739356002.944137,1739356002.944727,71.000000,0.000000,4094.358887,4075.769287,4138.846191,4209.102539,4073.718018,4082.051270,4066.666748,4265.897461,4064.487061,4028.076904,4377.692383,4278.333496,4250.897461,4296.794922,2079.000000,0.000000,12.000000,,,,0.000000,4.000000,4.000000,4.000000,4.000000,4.000000,4.000000,4.000000,4.000000,4.000000,4.000000,4.000000,4.000000,4.000000,4.000000,100.000000,,,,,,,,,,,,,,,,,,,,,,,,,,,,,,,,,,,,,,,,,,,,,,,,,,,,,,,,,,,,,,,,,,,,,,,,,,,,,,,,,,,,,,,,,,,,,,,,,,,,,,,,,,,,,,,,,,,,,,,,,,,,,,,,,
1739356002.951945,1739356002.952535,72.000000,0.000000,4096.794922,4078.076904,4141.538574,4209.871582,4076.794922,4080.641113,4076.410156,4265.000000,4068.974365,4027.948730,4371.666504,4278.846191,4247.820313,4294.743652,5243.000000,0.000000,12.000000,,,,0.000000,4.000000,4.000000,4.000000,4.000000,4.000000,4.000000,4.000000,4.000000,4.000000,4.000000,4.000000,4.000000,4.000000,4.000000,100.000000,1.000000,25.000000,1.000000,1.000000,1.000000,1.000000,1.000000,1.000000,1.000000,4.000000,3.000000,1.000000,1.000000,1.000000,3.000000,1.000000,18.000000,0.000000,0.719084,-0.091919,-0.683716,0.083679,0.969357,-0.254914,0.049811,-39.669991,-31.751080,43.075039,,,,,,,,,,,,,,,,,,,,,,,,,,,,,,,,3.077592,3.630646,1.771480,2.650834,4.049082,7.949489,4.711033,3.720537,2.618073,4.257405,1.016128,1.271253,0.801876,1.885936,3.293034,4.679377,2.547223,1.520528,2.565701,3.716741,0.557209,0.819248,0.385825,1.703870,2.894717,0.612215,0.422669,0.367188,1.595883,2.848254,1.107479,1.008541,0.515344,1.753799,3.437070,0.845339,0.208787,0.935302,0.569433,0.695937,1.538572,1.920575,0.416114,2.128547,3.602155,2.604823,2.490520,0.533097,2.327116,3.961009,1.580862,2.562608,0.840489,2.540882,4.238325,1.202002,3.151135,1.289732,3.345690,5.131894,5.290470,2.551121,0.661718,1.845813,3.301363,1.045021,2.682124,1.566497,2.438731,4.097693
1739356002.959753,1739356002.960443,73.000000,0.000000,4088.718018,4074.871826,4142.948730,4207.307617,4076.025635,4079.102539,4075.897461,4258.974121,4060.512939,4025.641113,4370.641113,4273.077148,4244.102539,4290.128418,5597.000000,0.000000,12.000000,,,,0.000000,4.000000,4.000000,4.000000,4.000000,4.000000,4.000000,4.000000,4.000000,4.000000,4.000000,4.000000,4.000000,4.000000,4.000000,100.000000,,,,,,,,,,,,,,,,,,,,,,,,,,,,,,,,,,,,,,,,,,,,,,,,,,,,,,,,,,,,,,,,,,,,,,,,,,,,,,,,,,,,,,,,,,,,,,,,,,,,,,,,,,,,,,,,,,,,,,,,,,,,,,,,,
1739356002.967561,1739356002.968252,74.000000,0.000000,4096.410156,4079.871826,4151.922852,4212.692383,4077.435791,4083.461426,4075.256348,4257.307617,4060.641113,4032.307617,4385.256348,4279.102539,4252.692383,4300.641113,4894.000000,0.000000,12.000000,,,,0.000000,4.000000,4.000000,4.000000,4.000000,4.000000,4.000000,4.000000,4.000000,4.000000,4.000000,4.000000,4.000000,4.000000,4.000000,100.000000,,,,,,,,,,,,,,,,,,,,,,,,,,,,,,,,,,,,,,,,,,,,,,,,,,,,,,,,,,,,,,,,,,,,,,,,,,,,,,,,,,,,,,,,,,,,,,,,,,,,,,,,,,,,,,,,,,,,,,,,,,,,,,,,,
1739356002.975369,1739356002.976160,75.000000,0.000000,4103.077148,4078.974365,4153.205078,4210.384766,4075.128174,4079.102539,4073.333252,4258.589844,4064.487061,4031.281982,4385.384766,4282.051270,4254.230957,4307.563965,5596.000000,0.000000,12.000000,,,,0.000000,4.000000,4.000000,4.000000,4.000000,4.000000,4.000000,4.000000,4.000000,4.000000,4.000000,4.000000,4.000000,4.000000,4.000000,100.000000,,,,,,,,,,,,,,,,,,,,,,,,,,,,,,,,,,,,,,,,,,,,,,,,,,,,,,,,,,,,,,,,,,,,,,,,,,,,,,,,,,,,,,,,,,,,,,,,,,,,,,,,,,,,,,,,,,,,,,,,,,,,,,,,,
1739356002.983177,1739356002.983968,76.000000,0.000000,4096.794922,4070.769287,4147.563965,4201.538574,4073.333252,4077.179443,4072.820557,4256.282227,4064.871826,4034.487061,4380.128418,4278.717773,4250.128418,4304.743652,5594.000000,0.000000,12.000000,,,,0.000000,4.000000,4.000000,4.000000,4.000000,4.000000,4.000000,4.000000,4.000000,4.000000,4.000000,4.000000,4.000000,4.000000,4.000000,100.000000,,,,,,,,,,,,,,,,,19.000000,0.000000,0.719533,-0.091003,-0.683411,0.083313,0.960078,-0.255891,0.057136,-39.669659,-31.459305,43.284199,,,,,,,,,,,,,,,,,,,,,,,,,,,,,,,,,,,,,,,,,,,,,,,,,,,,,,,,,,,,,,,,,,,,,,,,,,,,,,,,,,,,,,,,,,,,,,,,,,,,,
1739356002.990985,1739356002.991876,77.000000,0.000000,4088.205078,4063.333252,4141.794922,4193.589844,4067.948730,4076.923096,4067.179443,4253.974121,4064.487061,4040.256348,4377.948730,4272.563965,4242.436035,4294.230957,6474.000000,0.000000,12.000000,,,,0.000000,4.000000,4.000000,4.000000,4.000000,4.000000,4.000000,4.000000,4.000000,4.000000,4.000000,4.000000,4.000000,4.000000,4.000000,100.000000,,,,,,,,,,,,,,,,,,,,,,,,,,,,,,,,,,,,,,,,,,,,,,,,,,,,,,,,,,,,,,,,,,,,,,,,,,,,,,,,,,,,,,,,,,,,,,,,,,,,,,,,,,,,,,,,,,,,,,,,,,,,,,,,,
1739356002.998793,1739356002.999684,78.000000,0.000000,4075.384521,4051.794922,4127.563965,4179.358887,4054.615479,4063.589844,4053.333252,4252.179688,4059.358887,4028.333252,4365.897461,4258.077148,4227.948730,4273.846191,4894.000000,0.000000,12.000000,,,,0.000000,4.000000,4.000000,4.000000,4.000000,4.000000,4.000000,4.000000,4.000000,4.000000,4.000000,4.000000,4.000000,4.000000,4.000000,100.000000,,,,,,,,,,,,,,,,,,,,,,,,,,,,,,,,,,,,,,,,,,,,,,,,,,,,,,,,,,,,,,,,,,,,,,,,,,,,,,,,,,,,,,,,,,,,,,,,,,,,,,,,,,,,,,,,,,,,,,,,,,,,,,,,,
1739356003.006601,1739356003.007592,79.000000,0.000000,4066.410156,4041.794922,4121.153809,4170.897461,4050.000000,4057.179443,4052.564209,4251.922852,4055.000000,4019.230713,4358.846191,4250.000000,4226.538574,4266.794922,5596.000000,0.000000,12.000000,,,,0.000000,4.000000,4.000000,4.000000,4.000000,4.000000,4.000000,4.000000,4.000000,4.000000,4.000000,4.000000,4.000000,4.000000,4.000000,100.000000,,,,,,,,,,,,,,,,,,,,,,,,,,,,,,,,,,,,,,,,,,,,,,,,,,,,,,,,,,,,,,,,,,,,,,,,,,,,,,,,,,,,,,,,,,,,,,,,,,,,,,,,,,,,,,,,,,,,,,,,,,,,,,,,,
1739356003.014410,1739356003.015400,80.000000,0.000000,4068.589844,4037.820557,4126.153809,4171.025879,4049.230713,4062.820557,4060.641113,4255.769043,4056.410156,4027.179443,4363.077148,4255.512695,4234.871582,4276.538574,5594.000000,0.000000,12.000000,,,,0.000000,4.000000,4.000000,4.000000,4.000000,4.000000,4.000000,4.000000,4.000000,4.000000,4.000000,4.000000,4.000000,4.000000,4.000000,100.000000,,,,,,,,,,,,,,,,,20.000000,0.000000,0.720017,-0.091003,-0.682922,0.083130,0.958613,-0.274936,0.056159,-39.669357,-31.413374,43.222446,,,,,,,,,,,,,,,,,,,,,,,,,,,,,,,,,,,,,,,,,,,,,,,,,,,,,,,,,,,,,,,,,,,,,,,,,,,,,,,,,,,,,,,,,,,,,,,,,,,,,
1739356003.022218,1739356003.023108,81.000000,0.000000,4051.153809,4019.743652,4106.025879,4146.794922,4027.435791,4039.358887,4035.384521,4248.589844,4034.615479,4008.846191,4342.563965,4235.256348,4217.051270,4256.666504,6474.000000,0.000000,12.000000,,,,0.000000,4.000000,4.000000,4.000000,4.000000,4.000000,4.000000,4.000000,4.000000,4.000000,4.000000,4.000000,4.000000,4.000000,4.000000,100.000000,,,,,,,,,,,,,,,,,,,,,,,,,,,,,,,,,,,,,,,,,,,,,,,,,,,,,,,,,,,,,,,,,,,,,,,,,,,,,,,,,,,,,,,,,,,,,,,,,,,,,,,,,,,,,,,,,,,,,,,,,,,,,,,,,
1739356003.030026,1739356003.030916,82.000000,0.000000,4033.846191,4008.205078,4090.256348,4130.128418,4016.923096,4018.333252,4014.743652,4238.333496,4012.948730,3984.615479,4323.717773,4218.333496,4199.102539,4234.615234,4894.000000,0.000000,12.000000,,,,0.000000,4.000000,4.000000,4.000000,4.000000,4.000000,4.000000,4.000000,4.000000,4.000000,4.000000,4.000000,4.000000,4.000000,4.000000,100.000000,,,,,,,,,,,,,,,,,,,,,,,,,,,,,,,,,,,,,,,,,,,,,,,,,,,,,,,,,,,,,,,,,,,,,,,,,,,,,,,,,,,,,,,,,,,,,,,,,,,,,,,,,,,,,,,,,,,,,,,,,,,,,,,,,
1739356003.037834,1739356003.038624,83.000000,0.000000,4059.358887,4030.641113,4117.051270,4158.077148,4040.512939,4039.871826,4039.358887,4245.256348,4033.076904,4003.718018,4348.205078,4250.256348,4217.179688,4262.948730,5596.000000,0.000000,12.000000,,,,0.000000,4.000000,4.000000,4.000000,4.000000,4.000000,4.000000,4.000000,4.000000,4.000000,4.000000,4.000000,4.000000,4.000000,4.000000,100.000000,,,,,,,,,,,,,,,,,,,,,,,,,,,,,,,,,,,,,,,,,,,,,,,,,,,,,,,,,,,,,,,,,,,,,,,,,,,,,,,,,,,,,,,,,,,,,,,,,,,,,,,,,,,,,,,,,,,,,,,,,,,,,,,,,
1739356003.045642,1739356003.046432,84.000000,0.000000,4082.692383,4047.948730,4133.846191,4176.666504,4051.281982,4052.051270,4049.743652,4250.897461,4047.692383,4022.692383,4364.487305,4275.000000,4235.256348,4291.282227,5594.000000,0.000000,12.000000,,,,0.000000,4.000000,4.000000,4.000000,4.000000,4.000000,4.000000,4.000000,4.000000,4.000000,4.000000,4.000000,4.000000,4.000000,4.000000,100.000000,,,,,,,,,,,,,,,,,21.000000,0.000000,0.720351,-0.090820,-0.682617,0.082947,0.970822,-0.242217,0.052741,-39.735756,-31.255369,43.183537,,,,,,,,,,,,,,,,,,,,,,,,,,,,,,,,,,,,,,,,,,,,,,,,,,,,,,,,,,,,,,,,,,,,,,,,,,,,,,,,,,,,,,,,,,,,,,,,,,,,,
1739356003.053450,1739356003.054140,85.000000,0.000000,4074.615479,4044.102539,4123.205078,4165.512695,4043.205078,4042.307617,4033.589844,4244.102539,4033.205078,4017.564209,4353.461426,4264.615234,4236.538574,4284.230957,6474.000000,0.000000,12.000000,,,,0.000000,4.000000,4.000000,4.000000,4.000000,4.000000,4.000000,4.000000,4.000000,4.000000,4.000000,4.000000,4.000000,4.000000,4.000000,100.000000,,,,,,,,,,,,,,,,,,,,,,,,,,,,,,,,,,,,,,,,,,,,,,,,,,,,,,,,,,,,,,,,,,,,,,,,,,,,,,,,,,,,,,,,,,,,,,,,,,,,,,,,,,,,,,,,,,,,,,,,,,,,,,,,,
1739356003.061258,1739356003.061948,86.000000,0.000000,4078.076904,4051.666748,4131.922852,4168.077148,4053.461426,4052.307617,4042.820557,4246.282227,4041.281982,4025.897461,4362.051270,4275.256348,4244.487305,4288.974121,4894.000000,0.000000,12.000000,,,,0.000000,4.000000,4.000000,4.000000,4.000000,4.000000,4.000000,4.000000,4.000000,4.000000,4.000000,4.000000,4.000000,4.000000,4.000000,100.000000,,,,,,,,,,,,,,,,,,,,,,,,,,,,,,,,,,,,,,,,,,,,,,,,,,,,,,,,,,,,,,,,,,,,,,,,,,,,,,,,,,,,,,,,,,,,,,,,,,,,,,,,,,,,,,,,,,,,,,,,,,,,,,,,,
1739356003.069066,1739356003.069656,87.000000,0.000000,4094.487061,4061.025635,4145.512695,4177.948730,4064.358887,4065.641113,4061.794922,4254.358887,4062.692383,4041.666748,4378.333496,4300.256348,4251.153809,4304.487305,5596.000000,0.000000,12.000000,,,,0.000000,4.000000,4.000000,4.000000,4.000000,4.000000,4.000000,4.000000,4.000000,4.000000,4.000000,4.000000,4.000000,4.000000,4.000000,100.000000,,,,,,,,,,,,,,,,,,,,,,,,,,,,,,,,,,,,,,,,,,,,,,,,,,,,,,,,,,,,,,,,,,,,,,,,,,,,,,,,,,,,,,,,,,,,,,,,,,,,,,,,,,,,,,,,,,,,,,,,,,,,,,,,,
1739356003.076874,1739356003.077464,88.000000,0.000000,4095.512939,4057.435791,4143.589844,4174.358887,4060.128174,4063.718018,4066.666748,4258.077148,4065.000000,4046.794922,4376.538574,4297.179688,4249.743652,4303.205078,5594.000000,0.000000,12.000000,,,,0.000000,4.000000,4.000000,4.000000,4.000000,4.000000,4.000000,4.000000,4.000000,4.000000,4.000000,4.000000,4.000000,4.000000,4.000000,100.000000,,,,,,,,,,,,,,,,,22.000000,0.000000,0.720838,-0.090332,-0.682190,0.082764,0.970333,-0.247589,0.055183,-39.728848,-31.013166,43.248516,,,,,,,,,,,,,,,,,,,,,,,,,,,,,,,,3.512412,3.774893,1.849278,2.442503,4.038654,8.783923,4.903254,3.704550,2.289612,4.297501,1.262630,1.318742,0.859209,1.685026,3.242374,5.858514,2.678976,1.583647,2.258270,3.709653,0.608189,0.873071,0.368641,1.509228,2.945023,0.636216,0.437511,0.346348,1.414427,2.805302,1.042450,1.054279,0.498418,1.590814,3.422126,0.988713,0.241838,0.914621,0.531047,0.677602,1.648791,2.166582,0.395144,1.971146,3.485502,2.523856,2.712682,0.504869,2.140942,3.958148,1.529339,2.702643,0.898904,2.324034,4.198440,1.482903,3.374390,1.387591,3.040012,5.033892,4.927903,2.656729,0.709738,1.746212,3.271711,1.495321,2.860438,1.711202,2.204990,4.084506
1739356003.084682,1739356003.085172,89.000000,0.000000,4091.281982,4057.435791,4145.512695,4171.794922,4060.769287,4069.871826,4073.718018,4260.384766,4072.307617,4058.846191,4381.666504,4293.717773,4249.230957,4298.589844,6474.000000,0.000000,12.000000,,,,0.000000,4.000000,4.000000,4.000000,4.000000,4.000000,4.000000,4.000000,4.000000,4.000000,4.000000,4.000000,4.000000,4.000000,4.000000,100.000000,,,,,,,,,,,,,,,,,,,,,,,,,,,,,,,,,,,,,,,,,,,,,,,,,,,,,,,,,,,,,,,,,,,,,,,,,,,,,,,,,,,,,,,,,,,,,,,,,,,,,,,,,,,,,,,,,,,,,,,,,,,,,,,,,
1739356003.092491,1739356003.092980,90.000000,0.000000,4091.538574,4057.948730,4145.128418,4165.256348,4065.897461,4075.641113,4077.564209,4258.077148,4081.025635,4064.102539,4386.410156,4296.922852,4242.179688,4296.025879,4894.000000,0.000000,12.000000,,,,0.000000,4.000000,4.000000,4.000000,4.000000,4.000000,4.000000,4.000000,4.000000,4.000000,4.000000,4.000000,4.000000,4.000000,4.000000,100.000000,,,,,,,,,,,,,,,,,,,,,,,,,,,,,,,,,,,,,,,,,,,,,,,,,,,,,,,,,,,,,,,,,,,,,,,,,,,,,,,,,,,,,,,,,,,,,,,,,,,,,,,,,,,,,,,,,,,,,,,,,,,,,,,,,
1739356003.100299,1739356003.100688,91.000000,0.000000,4095.512939,4056.410156,4141.410156,4164.871582,4069.230713,4074.615479,4071.538574,4253.589844,4075.641113,4052.051270,4377.820313,4291.282227,4235.769043,4294.871582,5596.000000,0.000000,12.000000,,,,0.000000,4.000000,4.000000,4.000000,4.000000,4.000000,4.000000,4.000000,4.000000,4.000000,4.000000,4.000000,4.000000,4.000000,4.000000,100.000000,,,,,,,,,,,,,,,,,,,,,,,,,,,,,,,,,,,,,,,,,,,,,,,,,,,,,,,,,,,,,,,,,,,,,,,,,,,,,,,,,,,,,,,,,,,,,,,,,,,,,,,,,,,,,,,,,,,,,,,,,,,,,,,,,
1739356003.108106,1739356003.108596,92.000000,0.000000,4085.256348,4047.051270,4131.153809,4162.563965,4059.743652,4061.410156,4057.307617,4245.000000,4058.205078,4036.153809,4360.512695,4273.077148,4226.666504,4281.025879,5594.000000,0.000000,12.000000,,,,0.000000,4.000000,4.000000,4.000000,4.000000,4.000000,4.000000,4.000000,4.000000,4.000000,4.000000,4.000000,4.000000,4.000000,4.000000,100.000000,,,,,,,,,,,,,,,,,23.000000,0.000000,0.721297,-0.089539,-0.681824,0.082642,0.958613,-0.252961,0.054694,-39.689297,-30.911850,43.356998,,,,,,,,,,,,,,,,,,,,,,,,,,,,,,,,,,,,,,,,,,,,,,,,,,,,,,,,,,,,,,,,,,,,,,,,,,,,,,,,,,,,,,,,,,,,,,,,,,,,,
1739356003.115915,1739356003.116405,93.000000,0.000000,4073.589844,4038.718018,4122.692383,4153.846191,4051.025635,4051.794922,4048.333252,4238.589844,4043.589844,4028.076904,4353.461426,4266.153809,4222.692383,4270.769043,6474.000000,0.000000,12.000000,,,,0.000000,4.000000,4.000000,4.000000,4.000000,4.000000,4.000000,4.000000,4.000000,4.000000,4.000000,4.000000,4.000000,4.000000,4.000000,100.000000,,,,,,,,,,,,,,,,,,,,,,,,,,,,,,,,,,,,,,,,,,,,,,,,,,,,,,,,,,,,,,,,,,,,,,,,,,,,,,,,,,,,,,,,,,,,,,,,,,,,,,,,,,,,,,,,,,,,,,,,,,,,,,,,,
1739356003.123723,1739356003.124313,94.000000,0.000000,4090.897461,4055.128174,4138.333496,4170.384766,4070.000000,4070.256348,4064.487061,4247.563965,4052.564209,4042.051270,4369.358887,4286.922852,4235.256348,4293.717773,4894.000000,0.000000,12.000000,,,,0.000000,4.000000,4.000000,4.000000,4.000000,4.000000,4.000000,4.000000,4.000000,4.000000,4.000000,4.000000,4.000000,4.000000,4.000000,100.000000,,,,,,,,,,,,,,,,,,,,,,,,,,,,,,,,,,,,,,,,,,,,,,,,,,,,,,,,,,,,,,,,,,,,,,,,,,,,,,,,,,,,,,,,,,,,,,,,,,,,,,,,,,,,,,,,,,,,,,,,,,,,,,,,,
1739356003.131531,1739356003.132121,95.000000,0.000000,4103.717773,4070.512939,4151.410156,4186.538574,4083.718018,4085.512939,4081.410156,4252.436035,4067.179443,4056.025635,4382.948730,4298.974121,4243.589844,4305.769043,5596.000000,0.000000,12.000000,,,,0.000000,4.000000,4.000000,4.000000,4.000000,4.000000,4.000000,4.000000,4.000000,4.000000,4.000000,4.000000,4.000000,4.000000,4.000000,100.000000,,,,,,,,,,,,,,,,,,,,,,,,,,,,,,,,,,,,,,,,,,,,,,,,,,,,,,,,,,,,,,,,,,,,,,,,,,,,,,,,,,,,,,,,,,,,,,,,,,,,,,,,,,,,,,,,,,,,,,,,,,,,,,,,,
1739356003.139339,1739356003.140029,96.000000,0.000000,4088.718018,4059.743652,4139.615234,4173.077148,4067.692383,4075.384521,4075.256348,4244.487305,4062.564209,4046.794922,4374.102539,4288.333496,4237.307617,4287.307617,5594.000000,0.000000,12.000000,,,,0.000000,4.000000,4.000000,4.000000,4.000000,4.000000,4.000000,4.000000,4.000000,4.000000,4.000000,4.000000,4.000000,4.000000,4.000000,100.000000,,,,,,,,,,,,,,,,,24.000000,0.000000,0.721610,-0.088806,-0.681641,0.082214,0.987425,-0.248077,0.055183,-39.737034,-30.653997,43.404633,,,,,,,,,,,,,,,,,,,,,,,,,,,,,,,,,,,,,,,,,,,,,,,,,,,,,,,,,,,,,,,,,,,,,,,,,,,,,,,,,,,,,,,,,,,,,,,,,,,,,
1739356003.147147,1739356003.147837,97.000000,0.000000,4091.153809,4057.307617,4140.769043,4172.051270,4062.564209,4071.923096,4072.051270,4246.666504,4059.871826,4043.846191,4372.307617,4290.256348,4234.871582,4287.051270,6474.000000,0.000000,12.000000,,,,0.000000,4.000000,4.000000,4.000000,4.000000,4.000000,4.000000,4.000000,4.000000,4.000000,4.000000,4.000000,4.000000,4.000000,4.000000,100.000000,,,,,,,,,,,,,,,,,,,,,,,,,,,,,,,,,,,,,,,,,,,,,,,,,,,,,,,,,,,,,,,,,,,,,,,,,,,,,,,,,,,,,,,,,,,,,,,,,,,,,,,,,,,,,,,,,,,,,,,,,,,,,,,,,
1739356003.154955,1739356003.155745,98.000000,0.000000,4111.153809,4067.692383,4156.410156,4190.128418,4076.666748,4082.051270,4082.051270,4255.000000,4069.487061,4058.974365,4387.820313,4308.077148,4241.410156,4306.153809,4894.000000,0.000000,12.000000,,,,0.000000,4.000000,4.000000,4.000000,4.000000,4.000000,4.000000,4.000000,4.000000,4.000000,4.000000,4.000000,4.000000,4.000000,4.000000,100.000000,,,,,,,,,,,,,,,,,,,,,,,,,,,,,,,,,,,,,,,,,,,,,,,,,,,,,,,,,,,,,,,,,,,,,,,,,,,,,,,,,,,,,,,,,,,,,,,,,,,,,,,,,,,,,,,,,,,,,,,,,,,,,,,,,
1739356003.162763,1739356003.163554,99.000000,0.000000,4110.000000,4060.128174,4154.743652,4185.512695,4077.051270,4081.025635,4084.358887,4251.410156,4072.307617,4062.564209,4390.897461,4310.641113,4243.846191,4305.256348,5596.000000,0.000000,12.000000,,,,0.000000,4.000000,4.000000,4.000000,4.000000,4.000000,4.000000,4.000000,4.000000,4.000000,4.000000,4.000000,4.000000,4.000000,4.000000,100.000000,,,,,,,,,,,,,,,,,,,,,,,,,,,,,,,,,,,,,,,,,,,,,,,,,,,,,,,,,,,,,,,,,,,,,,,,,,,,,,,,,,,,,,,,,,,,,,,,,,,,,,,,,,,,,,,,,,,,,,,,,,,,,,,,,
1739356003.170571,1739356003.171462,100.000000,0.000000,4103.974121,4058.718018,4152.692383,4179.358887,4071.410156,4078.846191,4081.410156,4249.358887,4073.461426,4057.564209,4389.102539,4307.563965,4246.538574,4301.794922,5594.000000,0.000000,12.000000,,,,0.000000,4.000000,4.000000,4.000000,4.000000,4.000000,4.000000,4.000000,4.000000,4.000000,4.000000,4.000000,4.000000,4.000000,4.000000,100.000000,,,,,,,,,,,,,,,,,25.000000,0.000000,0.721853,-0.088928,-0.681396,0.081970,0.963497,-0.239775,0.063973,-39.679996,-30.705265,43.480835,,,,,,,,,,,,,,,,,,,,,,,,,,,,,,,,,,,,,,,,,,,,,,,,,,,,,,,,,,,,,,,,,,,,,,,,,,,,,,,,,,,,,,,,,,,,,,,,,,,,,
1739356003.178379,1739356003.179270,101.000000,0.000000,4109.102539,4072.307617,4156.794922,4188.846191,4075.000000,4081.025635,4081.025635,4253.461426,4075.897461,4059.230713,4392.436035,4312.051270,4243.846191,4309.743652,6474.000000,0.000000,12.000000,,,,0.000000,4.000000,4.000000,4.000000,4.000000,4.000000,4.000000,4.000000,4.000000,4.000000,4.000000,4.000000,4.000000,4.000000,4.000000,100.000000,,,,,,,,,,,,,,,,,,,,,,,,,,,,,,,,,,,,,,,,,,,,,,,,,,,,,,,,,,,,,,,,,,,,,,,,,,,,,,,,,,,,,,,,,,,,,,,,,,,,,,,,,,,,,,,,,,,,,,,,,,,,,,,,,
1739356003.186187,1739356003.187178,102.000000,0.000000,4112.179688,4077.564209,4152.179688,4194.743652,4080.384521,4079.615479,4078.718018,4250.641113,4072.435791,4057.948730,4389.102539,4311.410156,4239.230957,4309.102539,4894.000000,0.000000,12.000000,,,,0.000000,4.000000,4.000000,4.000000,4.000000,4.000000,4.000000,4.000000,4.000000,4.000000,4.000000,4.000000,4.000000,4.000000,4.000000,100.000000,,,,,,,,,,,,,,,,,,,,,,,,,,,,,,,,,,,,,,,,,,,,,,,,,,,,,,,,,,,,,,,,,,,,,,,,,,,,,,,,,,,,,,,,,,,,,,,,,,,,,,,,,,,,,,,,,,,,,,,,,,,,,,,,,
1739356003.193996,1739356003.194986,103.000000,0.000000,4118.846191,4082.307617,4158.205078,4205.769043,4082.820557,4084.487061,4080.384521,4245.000000,4069.743652,4058.974365,4389.871582,4317.563965,4242.307617,4310.000000,5596.000000,0.000000,12.000000,,,,0.000000,4.000000,4.000000,4.000000,4.000000,4.000000,4.000000,4.000000,4.000000,4.000000,4.000000,4.000000,4.000000,4.000000,4.000000,100.000000,,,,,,,,,,,,,,,,,,,,,,,,,,,,,,,,,,,,,,,,,,,,,,,,,,,,,,,,,,,,,,,,,,,,,,,,,,,,,,,,,,,,,,,,,,,,,,,,,,,,,,,,,,,,,,,,,,,,,,,,,,,,,,,,,
1739356003.201804,1739356003.202894,104.000000,0.000000,4135.897461,4095.128174,4179.871582,4217.692383,4086.666748,4092.179443,4088.205078,4247.820313,4079.743652,4076.538574,4401.153809,4336.410156,4248.974121,4324.102539,5594.000000,0.000000,12.000000,,,,0.000000,4.000000,4.000000,4.000000,4.000000,4.000000,4.000000,4.000000,4.000000,4.000000,4.000000,4.000000,4.000000,4.000000,4.000000,100.000000,,,,,,,,,,,,,,,,,26.000000,0.000000,0.722125,-0.088684,-0.681213,0.081360,0.962031,-0.245635,0.059578,-39.728664,-30.601404,43.599419,,,,,,,,,,,,,,,,,,,,,,,,,,,,,,,,3.722234,3.498097,1.772408,2.054586,3.737211,8.747118,4.517900,3.310708,1.834622,3.994030,1.578704,1.323740,0.893567,1.373212,2.972019,6.454656,2.545562,1.510434,1.804505,3.453295,0.690065,0.897184,0.394500,1.217566,2.803640,0.680150,0.466399,0.354971,1.136333,2.593832,1.026600,1.038779,0.491368,1.308599,3.189934,1.133151,0.307518,0.795857,0.456802,0.608335,1.689643,2.231171,0.423653,1.659938,3.153316,2.243823,2.711785,0.526926,1.787902,3.701353,1.567807,2.616389,0.918913,1.940060,3.849929,1.867529,3.323026,1.450613,2.519650,4.568078,4.016034,2.486945,0.761952,1.537455,3.031757,2.015501,2.753407,1.741335,1.811019,3.787428
1739356003.209612,1739356003.210702,105.000000,0.000000,4142.051270,4098.717773,4183.846191,4216.794922,4089.487061,4092.820557,4089.230713,4252.051270,4090.897461,4089.487061,4405.128418,4342.051270,4254.230957,4331.666504,6474.000000,0.000000,12.000000,,,,0.000000,4.000000,4.000000,4.000000,4.000000,4.000000,4.000000,4.000000,4.000000,4.000000,4.000000,4.000000,4.000000,4.000000,4.000000,100.000000,,,,,,,,,,,,,,,,,,,,,,,,,,,,,,,,,,,,,,,,,,,,,,,,,,,,,,,,,,,,,,,,,,,,,,,,,,,,,,,,,,,,,,,,,,,,,,,,,,,,,,,,,,,,,,,,,,,,,,,,,,,,,,,,,
1739356003.217420,1739356003.218410,106.000000,0.000000,4127.820313,4088.205078,4169.615234,4213.077148,4085.384521,4089.871826,4083.333252,4248.077148,4082.692383,4078.461426,4397.692383,4331.025879,4250.769043,4321.282227,4894.000000,0.000000,12.000000,,,,0.000000,4.000000,4.000000,4.000000,4.000000,4.000000,4.000000,4.000000,4.000000,4.000000,4.000000,4.000000,4.000000,4.000000,4.000000,100.000000,,,,,,,,,,,,,,,,,,,,,,,,,,,,,,,,,,,,,,,,,,,,,,,,,,,,,,,,,,,,,,,,,,,,,,,,,,,,,,,,,,,,,,,,,,,,,,,,,,,,,,,,,,,,,,,,,,,,,,,,,,,,,,,,,
1739356003.225228,1739356003.226218,107.000000,0.000000,4121.282227,4087.307617,4168.974121,4215.769043,4086.281982,4094.358887,4090.000000,4244.358887,4075.897461,4070.897461,4397.436035,4328.717773,4248.717773,4314.230957,5596.000000,0.000000,12.000000,,,,0.000000,4.000000,4.000000,4.000000,4.000000,4.000000,4.000000,4.000000,4.000000,4.000000,4.000000,4.000000,4.000000,4.000000,4.000000,100.000000,,,,,,,,,,,,,,,,,,,,,,,,,,,,,,,,,,,,,,,,,,,,,,,,,,,,,,,,,,,,,,,,,,,,,,,,,,,,,,,,,,,,,,,,,,,,,,,,,,,,,,,,,,,,,,,,,,,,,,,,,,,,,,,,,
1739356003.233036,1739356003.233926,108.000000,0.000000,4126.794922,4092.948730,4172.179688,4217.820313,4092.051270,4099.230957,4101.153809,4247.179688,4086.025635,4074.743652,4395.000000,4332.563965,4253.333496,4316.410156,5594.000000,0.000000,12.000000,,,,0.000000,4.000000,4.000000,4.000000,4.000000,4.000000,4.000000,4.000000,4.000000,4.000000,4.000000,4.000000,4.000000,4.000000,4.000000,100.000000,,,,,,,,,,,,,,,,,27.000000,0.000000,0.722554,-0.088257,-0.680908,0.080566,0.973263,-0.243194,0.057136,-39.705799,-30.491264,43.606144,,,,,,,,,,,,,,,,,,,,,,,,,,,,,,,,,,,,,,,,,,,,,,,,,,,,,,,,,,,,,,,,,,,,,,,,,,,,,,,,,,,,,,,,,,,,,,,,,,,,,
1739356003.240844,1739356003.241834,109.000000,0.000000,4117.051270,4082.307617,4157.692383,4210.128418,4084.230713,4094.230713,4096.153809,4244.358887,4085.641113,4068.974365,4382.436035,4319.871582,4247.948730,4308.077148,6474.000000,0.000000,12.000000,,,,0.000000,4.000000,4.000000,4.000000,4.000000,4.000000,4.000000,4.000000,4.000000,4.000000,4.000000,4.000000,4.000000,4.000000,4.000000,100.000000,,,,,,,,,,,,,,,,,,,,,,,,,,,,,,,,,,,,,,,,,,,,,,,,,,,,,,,,,,,,,,,,,,,,,,,,,,,,,,,,,,,,,,,,,,,,,,,,,,,,,,,,,,,,,,,,,,,,,,,,,,,,,,,,,
1739356003.248652,1739356003.249642,110.000000,0.000000,4107.820313,4075.128174,4153.589844,4206.025879,4081.538574,4096.025879,4098.333496,4244.230957,4079.615479,4068.718018,4384.871582,4313.589844,4240.769043,4302.948730,4894.000000,0.000000,12.000000,,,,0.000000,4.000000,4.000000,4.000000,4.000000,4.000000,4.000000,4.000000,4.000000,4.000000,4.000000,4.000000,4.000000,4.000000,4.000000,100.000000,,,,,,,,,,,,,,,,,,,,,,,,,,,,,,,,,,,,,,,,,,,,,,,,,,,,,,,,,,,,,,,,,,,,,,,,,,,,,,,,,,,,,,,,,,,,,,,,,,,,,,,,,,,,,,,,,,,,,,,,,,,,,,,,,
1739356003.256460,1739356003.257550,111.000000,0.000000,4111.410156,4081.025635,4160.256348,4206.410156,4091.538574,4102.563965,4108.717773,4251.410156,4084.102539,4075.769287,4392.563965,4319.230957,4241.794922,4303.461426,5596.000000,0.000000,12.000000,,,,0.000000,4.000000,4.000000,4.000000,4.000000,4.000000,4.000000,4.000000,4.000000,4.000000,4.000000,4.000000,4.000000,4.000000,4.000000,100.000000,,,,,,,,,,,,,,,,,,,,,,,,,,,,,,,,,,,,,,,,,,,,,,,,,,,,,,,,,,,,,,,,,,,,,,,,,,,,,,,,,,,,,,,,,,,,,,,,,,,,,,,,,,,,,,,,,,,,,,,,,,,,,,,,,
1739356003.264268,1739356003.265358,112.000000,0.000000,4091.923096,4066.281982,4138.717773,4192.563965,4076.153809,4087.564209,4088.589844,4244.743652,4069.358887,4055.128174,4372.820313,4296.666504,4229.871582,4281.153809,5594.000000,0.000000,12.000000,,,,0.000000,4.000000,4.000000,4.000000,4.000000,4.000000,4.000000,4.000000,4.000000,4.000000,4.000000,4.000000,4.000000,4.000000,4.000000,100.000000,,,,,,,,,,,,,,,,,28.000000,0.000000,0.722623,-0.088379,-0.680847,0.080322,0.975705,-0.221218,0.061043,-39.601883,-30.392138,43.612194,,,,,,,,,,,,,,,,,,,,,,,,,,,,,,,,,,,,,,,,,,,,,,,,,,,,,,,,,,,,,,,,,,,,,,,,,,,,,,,,,,,,,,,,,,,,,,,,,,,,,
1739356003.272076,1739356003.273166,113.000000,0.000000,4074.743652,4049.615479,4124.230957,4183.974121,4060.384521,4076.538574,4073.076904,4233.717773,4054.358887,4037.435791,4359.230957,4277.692383,4220.384766,4265.512695,6474.000000,0.000000,12.000000,,,,0.000000,4.000000,4.000000,4.000000,4.000000,4.000000,4.000000,4.000000,4.000000,4.000000,4.000000,4.000000,4.000000,4.000000,4.000000,100.000000,,,,,,,,,,,,,,,,,,,,,,,,,,,,,,,,,,,,,,,,,,,,,,,,,,,,,,,,,,,,,,,,,,,,,,,,,,,,,,,,,,,,,,,,,,,,,,,,,,,,,,,,,,,,,,,,,,,,,,,,,,,,,,,,,
1739356003.279884,1739356003.280875,114.000000,0.000000,4101.666504,4072.179443,4147.820313,4198.461426,4081.666748,4099.102539,4096.666504,4241.538574,4078.076904,4062.435791,4386.153809,4304.615234,4240.128418,4289.230957,4894.000000,0.000000,12.000000,,,,0.000000,4.000000,4.000000,4.000000,4.000000,4.000000,4.000000,4.000000,4.000000,4.000000,4.000000,4.000000,4.000000,4.000000,4.000000,100.000000,,,,,,,,,,,,,,,,,,,,,,,,,,,,,,,,,,,,,,,,,,,,,,,,,,,,,,,,,,,,,,,,,,,,,,,,,,,,,,,,,,,,,,,,,,,,,,,,,,,,,,,,,,,,,,,,,,,,,,,,,,,,,,,,,
1739356003.287692,1739356003.288683,115.000000,0.000000,4126.153809,4096.666504,4161.922852,4209.487305,4099.358887,4111.794922,4106.153809,4250.384766,4098.589844,4084.743652,4408.333496,4329.743652,4255.769043,4308.461426,5596.000000,0.000000,12.000000,,,,0.000000,4.000000,4.000000,4.000000,4.000000,4.000000,4.000000,4.000000,4.000000,4.000000,4.000000,4.000000,4.000000,4.000000,4.000000,100.000000,,,,,,,,,,,,,,,,,,,,,,,,,,,,,,,,,,,,,,,,,,,,,,,,,,,,,,,,,,,,,,,,,,,,,,,,,,,,,,,,,,,,,,,,,,,,,,,,,,,,,,,,,,,,,,,,,,,,,,,,,,,,,,,,,
1739356003.295501,1739356003.296391,116.000000,0.000000,4118.717773,4086.281982,4156.025879,4209.230957,4087.692383,4093.718018,4086.153809,4245.897461,4087.820557,4075.000000,4395.769043,4324.358887,4247.051270,4300.256348,5594.000000,0.000000,12.000000,,,,0.000000,4.000000,4.000000,4.000000,4.000000,4.000000,4.000000,4.000000,4.000000,4.000000,4.000000,4.000000,4.000000,4.000000,4.000000,100.000000,,,,,,,,,,,,,,,,,29.000000,0.000000,0.722633,-0.089294,-0.680725,0.080261,0.966915,-0.236357,0.055183,-39.725029,-30.386257,43.617641,,,,,,,,,,,,,,,,,,,,,,,,,,,,,,,,,,,,,,,,,,,,,,,,,,,,,,,,,,,,,,,,,,,,,,,,,,,,,,,,,,,,,,,,,,,,,,,,,,,,,
1739356003.303309,1739356003.304199,117.000000,0.000000,4119.230957,4075.384521,4164.358887,4212.051270,4082.307617,4092.820557,4092.564209,4247.948730,4091.538574,4076.666748,4390.897461,4331.794922,4245.000000,4304.487305,6474.000000,0.000000,12.000000,,,,0.000000,4.000000,4.000000,4.000000,4.000000,4.000000,4.000000,4.000000,4.000000,4.000000,4.000000,4.000000,4.000000,4.000000,4.000000,100.000000,,,,,,,,,,,,,,,,,,,,,,,,,,,,,,,,,,,,,,,,,,,,,,,,,,,,,,,,,,,,,,,,,,,,,,,,,,,,,,,,,,,,,,,,,,,,,,,,,,,,,,,,,,,,,,,,,,,,,,,,,,,,,,,,,
1739356003.311117,1739356003.311907,118.000000,0.000000,4132.051270,4095.769287,4175.256348,4218.974121,4101.922852,4114.102539,4111.794922,4253.717773,4111.410156,4101.282227,4411.282227,4348.846191,4257.179688,4321.153809,4894.000000,0.000000,12.000000,,,,0.000000,4.000000,4.000000,4.000000,4.000000,4.000000,4.000000,4.000000,4.000000,4.000000,4.000000,4.000000,4.000000,4.000000,4.000000,100.000000,,,,,,,,,,,,,,,,,,,,,,,,,,,,,,,,,,,,,,,,,,,,,,,,,,,,,,,,,,,,,,,,,,,,,,,,,,,,,,,,,,,,,,,,,,,,,,,,,,,,,,,,,,,,,,,,,,,,,,,,,,,,,,,,,
1739356003.318925,1739356003.319815,119.000000,0.000000,4123.589844,4102.179688,4164.871582,4225.641113,4110.769043,4113.461426,4104.615234,4249.743652,4103.974121,4102.307617,4410.641113,4335.769043,4253.974121,4312.692383,5596.000000,0.000000,12.000000,,,,0.000000,4.000000,4.000000,4.000000,4.000000,4.000000,4.000000,4.000000,4.000000,4.000000,4.000000,4.000000,4.000000,4.000000,4.000000,100.000000,,,,,,,,,,,,,,,,,,,,,,,,,,,,,,,,,,,,,,,,,,,,,,,,,,,,,,,,,,,,,,,,,,,,,,,,,,,,,,,,,,,,,,,,,,,,,,,,,,,,,,,,,,,,,,,,,,,,,,,,,,,,,,,,,
1739356003.326733,1739356003.327623,120.000000,0.000000,4111.666504,4078.205078,4158.077148,4238.205078,4100.256348,4106.025879,4109.615234,4248.974121,4088.718018,4082.820557,4390.128418,4322.179688,4245.512695,4299.230957,5594.000000,0.000000,12.000000,,,,0.000000,4.000000,4.000000,4.000000,4.000000,4.000000,4.000000,4.000000,4.000000,4.000000,4.000000,4.000000,4.000000,4.000000,4.000000,100.000000,,,,,,,,,,,,,,,,,30.000000,0.000000,0.722481,-0.090515,-0.680725,0.080261,0.955683,-0.228544,0.064949,-39.669193,-30.497631,43.705879,,,,,,,,,,,,,,,,,,,,,,,,,,,,,,,,3.935665,2.979042,1.592548,1.587142,3.219463,8.047385,3.784688,2.682343,1.366767,3.411699,2.127603,1.364612,0.920657,1.023914,2.548593,6.704754,2.267324,1.350675,1.320245,3.000950,1.057158,0.943949,0.469029,0.908289,2.500456,0.992447,0.561518,0.404150,0.833868,2.253283,1.331220,1.052760,0.499719,0.978346,2.789386,1.297046,0.415316,0.633795,0.375623,0.502201,2.003206,2.164076,0.513919,1.274475,2.669585,2.306911,2.596746,0.607438,1.365771,3.251636,2.132410,2.440664,0.923644,1.491931,3.269618,2.727549,3.143333,1.504162,1.906366,3.853046,3.192531,2.143062,0.852547,1.267052,2.636149,2.780602,2.529945,1.704718,1.351557,3.277875
1739356003.334541,1739356003.335531,121.000000,0.000000,4126.153809,4091.281982,4171.282227,4263.974121,4109.871582,4129.487305,4135.897461,4254.230957,4101.282227,4088.333252,4402.692383,4337.307617,4256.282227,4311.922852,6474.000000,0.000000,12.000000,,,,0.000000,4.000000,4.000000,4.000000,4.000000,4.000000,4.000000,4.000000,4.000000,4.000000,4.000000,4.000000,4.000000,4.000000,4.000000,100.000000,,,,,,,,,,,,,,,,,,,,,,,,,,,,,,,,,,,,,,,,,,,,,,,,,,,,,,,,,,,,,,,,,,,,,,,,,,,,,,,,,,,,,,,,,,,,,,,,,,,,,,,,,,,,,,,,,,,,,,,,,,,,,,,,,
1739356003.342349,1739356003.343339,122.000000,0.000000,4136.025879,4123.461426,4178.205078,4305.512695,4129.487305,4150.000000,4137.948730,4251.282227,4110.641113,4099.230957,4422.563965,4347.051270,4266.538574,4322.051270,4894.000000,0.000000,12.000000,,,,0.000000,4.000000,4.000000,4.000000,4.000000,4.000000,4.000000,4.000000,4.000000,4.000000,4.000000,4.000000,4.000000,4.000000,4.000000,100.000000,,,,,,,,,,,,,,,,,,,,,,,,,,,,,,,,,,,,,,,,,,,,,,,,,,,,,,,,,,,,,,,,,,,,,,,,,,,,,,,,,,,,,,,,,,,,,,,,,,,,,,,,,,,,,,,,,,,,,,,,,,,,,,,,,
1739356003.350157,1739356003.351247,123.000000,0.000000,4132.563965,4107.948730,4177.692383,4370.256348,4115.897461,4132.179688,4138.077148,4245.256348,4098.717773,4089.743652,4413.846191,4343.846191,4264.871582,4315.641113,5596.000000,0.000000,12.000000,,,,0.000000,4.000000,4.000000,4.000000,4.000000,4.000000,4.000000,4.000000,4.000000,4.000000,4.000000,4.000000,4.000000,4.000000,4.000000,100.000000,,,,,,,,,,,,,,,,,,,,,,,,,,,,,,,,,,,,,,,,,,,,,,,,,,,,,,,,,,,,,,,,,,,,,,,,,,,,,,,,,,,,,,,,,,,,,,,,,,,,,,,,,,,,,,,,,,,,,,,,,,,,,,,,,
1739356003.357965,1739356003.359056,124.000000,0.000000,4152.051270,4115.384766,4195.769043,4447.948730,4114.230957,4135.769043,4162.436035,4250.000000,4108.974121,4109.230957,4431.410156,4366.922852,4280.256348,4328.461426,5594.000000,0.000000,12.000000,,,,0.000000,4.000000,4.000000,4.000000,4.000000,4.000000,4.000000,4.000000,4.000000,4.000000,4.000000,4.000000,4.000000,4.000000,4.000000,100.000000,,,,,,,,,,,,,,,,,31.000000,0.000000,0.722513,-0.091919,-0.680481,0.080444,0.972287,-0.228055,0.080088,-39.585606,-30.414536,43.768623,,,,,,,,,,,,,,,,,,,,,,,,,,,,,,,,,,,,,,,,,,,,,,,,,,,,,,,,,,,,,,,,,,,,,,,,,,,,,,,,,,,,,,,,,,,,,,,,,,,,,
