Timestamp,OriginalTimestamp,EEG.Counter,EEG.Interpolated,EEG.AF3,EEG.F7,EEG.F3,EEG.FC5,EEG.T7,EEG.P7,EEG.O1,EEG.O2,EEG.P8,EEG.T8,EEG.FC6,EEG.F4,EEG.F8,EEG.AF4,EEG.RawCq,EEG.Battery,EEG.BatteryPercent,MarkerIndex,MarkerType,MarkerValueInt,EEG.MarkerHardware,CQ.AF3,CQ.F7,CQ.F3,CQ.FC5,CQ.T7,CQ.P7,CQ.O1,CQ.O2,CQ.P8,CQ.T8,CQ.FC6,CQ.F4,CQ.F8,CQ.AF4,CQ.Overall,EQ.SampleRateQuality,EQ.OVERALL,EQ.AF3,EQ.F7,EQ.F3,EQ.FC5,EQ.T7,EQ.P7,EQ.O1,EQ.O2,EQ.P8,EQ.T8,EQ.FC6,EQ.F4,EQ.F8,EQ.AF4,MOT.CounterMems,MOT.InterpolatedMems,MOT.Q0,MOT.Q1,MOT.Q2,MOT.Q3,MOT.AccX,MOT.AccY,MOT.AccZ,MOT.MagX,MOT.MagY,MOT.MagZ,PM.Attention.IsActive,PM.Attention.Scaled,PM.Attention.Raw,PM.Attention.Min,PM.Attention.Max,PM.Engagement.IsActive,PM.Engagement.Scaled,PM.Engagement.Raw,PM.Engagement.Min,PM.Engagement.Max,PM.Excitement.IsActive,PM.Excitement.Scaled,PM.Excitement.Raw,PM.Excitement.Min,PM.Excitement.Max,PM.LongTermExcitement,PM.Stress.IsActive,PM.Stress.Scaled,PM.Stress.Raw,PM.Stress.Min,PM.Stress.Max,PM.Relaxation.IsActive,PM.Relaxation.Scaled,PM.Relaxation.Raw,PM.Relaxation.Min,PM.Relaxation.Max,PM.Interest.IsActive,PM.Interest.Scaled,PM.Interest.Raw,PM.Interest.Min,PM.Interest.Max,POW.AF3.Theta,POW.AF3.Alpha,POW.AF3.BetaL,POW.AF3.BetaH,POW.AF3.Gamma,POW.F7.Theta,POW.F7.Alpha,POW.F7.BetaL,POW.F7.BetaH,POW.F7.Gamma,POW.F3.Theta,POW.F3.Alpha,POW.F3.BetaL,POW.F3.BetaH,POW.F3.Gamma,POW.FC5.Theta,POW.FC5.Alpha,POW.FC5.BetaL,POW.FC5.BetaH,POW.FC5.Gamma,POW.T7.Theta,POW.T7.Alpha,POW.T7.BetaL,POW.T7.BetaH,POW.T7.Gamma,POW.P7.Theta,POW.P7.Alpha,POW.P7.BetaL,POW.P7.BetaH,POW.P7.Gamma,POW.O1.Theta,POW.O1.Alpha,POW.O1.BetaL,POW.O1.BetaH,POW.O1.Gamma,POW.O2.Theta,POW.O2.Alpha,POW.O2.BetaL,POW.O2.BetaH,POW.O2.Gamma,POW.P8.Theta,POW.P8.Alpha,POW.P8.BetaL,POW.P8.BetaH,POW.P8.Gamma,POW.T8.Theta,POW.T8.Alpha,POW.T8.BetaL,POW.T8.BetaH,POW.T8.Gamma,POW.FC6.Theta,POW.FC6.Alpha,POW.FC6.BetaL,POW.FC6.BetaH,POW.FC6.Gamma,POW.F4.Theta,POW.F4.Alpha,POW.F4.BetaL,POW.F4.BetaH,POW.F4.Gamma,POW.F8.Theta,POW.F8.Alpha,POW.F8.BetaL,POW.F8.BetaH,POW.F8.Gamma,POW.AF4.Theta,POW.AF4.Alpha,POW.AF4.BetaL,POW.AF4.BetaH,POW.AF4.Gamma
1739355550.145886,1739355550.146884,64.000000,0.000000,4298.333496,4268.846191,4320.128418,3945.256348,4264.615234,4227.563965,4231.666504,4291.538574,4216.922852,4214.358887,4560.897461,4353.589844,4395.512695,4485.384766,4994.000000,0.000000,14.000000,,,,0.000000,4.000000,4.000000,4.000000,4.000000,4.000000,4.000000,4.000000,4.000000,4.000000,4.000000,4.000000,4.000000,4.000000,4.000000,100.000000,,,,,,,,,,,,,,,,,16.000000,0.000000,0.571393,0.243408,-0.669128,0.408081,0.987425,-0.372116,-0.014650,-41.845390,-25.447472,43.830662,,,,,,,,,,,,,,,,,,,,,,,,,,,,,,,,,,,,,,,,,,,,,,,,,,,,,,,,,,,,,,,,,,,,,,,,,,,,,,,,,,,,,,,,,,,,,,,,,,,,,
1739355550.153694,1739355550.154792,65.000000,0.000000,4311.794922,4280.256348,4330.000000,3953.846191,4273.974121,4237.436035,4243.333496,4292.436035,4229.615234,4230.256348,4571.025879,4367.948730,4402.820313,4501.538574,5512.000000,0.000000,14.000000,,,,0.000000,4.000000,4.000000,4.000000,4.000000,4.000000,4.000000,4.000000,4.000000,4.000000,4.000000,4.000000,4.000000,4.000000,4.000000,100.000000,,,,,,,,,,,,,,,,,,,,,,,,,,,,,,,,,,,,,,,,,,,,,,,,,,,,,,,,,,,,,,,,,,,,,,,,,,,,,,,,,,,,,,,,,,,,,,,,,,,,,,,,,,,,,,,,,,,,,,,,,,,,,,,,,
1739355550.161502,1739355550.162600,66.000000,0.000000,4277.948730,4250.384766,4301.538574,3922.307617,4247.563965,4212.436035,4211.922852,4280.384766,4210.512695,4212.307617,4539.358887,4331.153809,4372.179688,4473.077148,5487.000000,0.000000,14.000000,,,,0.000000,4.000000,4.000000,4.000000,4.000000,4.000000,4.000000,4.000000,4.000000,4.000000,4.000000,4.000000,4.000000,4.000000,4.000000,100.000000,,,,,,,,,,,,,,,,,,,,,,,,,,,,,,,,,,,,,,,,,,,,,,,,,,,,,,,,,,,,,,,,,,,,,,,,,,,,,,,,,,,,,,,,,,,,,,,,,,,,,,,,,,,,,,,,,,,,,,,,,,,,,,,,,
1739355550.169310,1739355550.170507,67.000000,0.000000,4275.512695,4253.333496,4306.153809,3922.435791,4246.794922,4217.692383,4210.512695,4284.743652,4211.666504,4214.358887,4540.897461,4327.692383,4376.410156,4475.256348,5440.000000,0.000000,14.000000,,,,0.000000,4.000000,4.000000,4.000000,4.000000,4.000000,4.000000,4.000000,4.000000,4.000000,4.000000,4.000000,4.000000,4.000000,4.000000,100.000000,,,,,,,,,,,,,,,,,,,,,,,,,,,,,,,,,,,,,,,,,,,,,,,,,,,,,,,,,,,,,,,,,,,,,,,,,,,,,,,,,,,,,,,,,,,,,,,,,,,,,,,,,,,,,,,,,,,,,,,,,,,,,,,,,
1739355550.177118,1739355550.178315,68.000000,0.000000,4285.384766,4264.871582,4314.487305,3930.128174,4253.333496,4222.563965,4209.230957,4285.512695,4209.102539,4216.153809,4545.128418,4331.666504,4382.179688,4482.307617,5400.000000,0.000000,14.000000,,,,0.000000,4.000000,4.000000,4.000000,4.000000,4.000000,4.000000,4.000000,4.000000,4.000000,4.000000,4.000000,4.000000,4.000000,4.000000,100.000000,,,,,,,,,,,,,,,,,17.000000,0.000000,0.569996,0.240540,-0.670349,0.409729,0.931754,-0.399951,-0.023440,-41.660851,-25.686058,43.864262,,,,,,,,,,,,,,,,,,,,,,,,,,,,,,,,,,,,,,,,,,,,,,,,,,,,,,,,,,,,,,,,,,,,,,,,,,,,,,,,,,,,,,,,,,,,,,,,,,,,,
1739355550.184926,1739355550.186223,69.000000,0.000000,4279.358887,4259.102539,4309.358887,3927.179443,4248.846191,4215.769043,4196.282227,4281.153809,4198.589844,4212.436035,4542.179688,4316.282227,4380.769043,4480.897461,5397.000000,0.000000,14.000000,,,,0.000000,4.000000,4.000000,4.000000,4.000000,4.000000,4.000000,4.000000,4.000000,4.000000,4.000000,4.000000,4.000000,4.000000,4.000000,100.000000,,,,,,,,,,,,,,,,,,,,,,,,,,,,,,,,,,,,,,,,,,,,,,,,,,,,,,,,,,,,,,,,,,,,,,,,,,,,,,,,,,,,,,,,,,,,,,,,,,,,,,,,,,,,,,,,,,,,,,,,,,,,,,,,,
1739355550.192734,1739355550.194031,70.000000,0.000000,4279.743652,4258.717773,4315.641113,3934.743652,4251.538574,4223.205078,4199.615234,4284.102539,4210.000000,4227.692383,4554.102539,4313.077148,4396.922852,4495.769043,5350.000000,0.000000,14.000000,,,,0.000000,4.000000,4.000000,4.000000,4.000000,4.000000,4.000000,4.000000,4.000000,4.000000,4.000000,4.000000,4.000000,4.000000,4.000000,100.000000,,,,,,,,,,,,,,,,,,,,,,,,,,,,,,,,,,,,,,,,,,,,,,,,,,,,,,,,,,,,,,,,,,,,,,,,,,,,,,,,,,,,,,,,,,,,,,,,,,,,,,,,,,,,,,,,,,,,,,,,,,,,,,,,,
1739355550.200542,1739355550.201939,71.000000,0.000000,4277.692383,4254.102539,4314.871582,3933.846191,4249.743652,4225.512695,4201.922852,4283.589844,4212.563965,4225.897461,4547.948730,4303.333496,4396.666504,4500.769043,2094.000000,0.000000,14.000000,,,,0.000000,4.000000,4.000000,4.000000,4.000000,4.000000,4.000000,4.000000,4.000000,4.000000,4.000000,4.000000,4.000000,4.000000,4.000000,100.000000,,,,,,,,,,,,,,,,,,,,,,,,,,,,,,,,,,,,,,,,,,,,,,,,,,,,,,,,,,,,,,,,,,,,,,,,,,,,,,,,,,,,,,,,,,,,,,,,,,,,,,,,,,,,,,,,,,,,,,,,,,,,,,,,,
1739355550.208350,1739355550.209747,72.000000,0.000000,4277.307617,4250.641113,4316.282227,3932.564209,4250.000000,4227.563965,4205.000000,4283.846191,4207.307617,4216.666504,4536.410156,4290.769043,4387.820313,4493.205078,5141.000000,0.000000,14.000000,,,,0.000000,4.000000,4.000000,4.000000,4.000000,4.000000,4.000000,4.000000,4.000000,4.000000,4.000000,4.000000,4.000000,4.000000,4.000000,100.000000,-1.000000,16.666666,1.000000,1.000000,1.000000,0.000000,1.000000,1.000000,1.000000,3.000000,3.000000,1.000000,1.000000,1.000000,3.000000,1.000000,18.000000,0.000000,0.567755,0.235779,-0.672180,0.412598,0.880479,-0.393114,-0.031742,-41.461433,-25.950785,44.027836,,,,,,,,,,,,,,,,,,,,,,,,,,,,,,,,30.818102,3.093829,2.172472,2.303683,2.740074,28.549061,4.450210,1.856625,1.862142,2.716683,16.789661,0.800241,1.351596,2.023112,2.174034,1743.587158,213.022797,20.290100,4.325380,2.630553,7.097219,1.820309,1.481205,1.596591,1.659704,13.508019,1.716687,1.434380,1.378030,1.713108,8.441569,0.767797,2.277378,2.089441,2.687827,0.689086,0.091727,0.121543,0.260902,0.380172,9.323487,1.461973,0.927947,2.157549,2.046146,13.839353,1.899552,0.992537,2.416867,2.289714,56.460678,3.437543,1.976262,1.578311,2.053153,23.226347,1.254679,1.979662,2.638304,3.249089,14.078135,3.178559,1.356952,1.440320,2.022591,20.324074,1.597280,2.244873,1.846071,2.492268
1739355550.216158,1739355550.217455,73.000000,0.000000,4277.692383,4252.563965,4326.025879,3944.871826,4256.794922,4238.333496,4214.871582,4288.846191,4217.692383,4224.871582,4546.410156,4285.256348,4393.846191,4489.230957,5495.000000,0.000000,14.000000,,,,0.000000,4.000000,4.000000,4.000000,4.000000,4.000000,4.000000,4.000000,4.000000,4.000000,4.000000,4.000000,4.000000,4.000000,4.000000,100.000000,,,,,,,,,,,,,,,,,,,,,,,,,,,,,,,,,,,,,,,,,,,,,,,,,,,,,,,,,,,,,,,,,,,,,,,,,,,,,,,,,,,,,,,,,,,,,,,,,,,,,,,,,,,,,,,,,,,,,,,,,,,,,,,,,
1739355550.223966,1739355550.225263,74.000000,0.000000,4273.205078,4253.205078,4329.358887,3955.384521,4263.846191,4246.794922,4227.563965,4287.436035,4235.128418,4233.846191,4554.615234,4276.025879,4401.410156,4492.563965,4752.000000,0.000000,14.000000,,,,0.000000,4.000000,4.000000,4.000000,4.000000,4.000000,4.000000,4.000000,4.000000,4.000000,4.000000,4.000000,4.000000,4.000000,4.000000,100.000000,,,,,,,,,,,,,,,,,,,,,,,,,,,,,,,,,,,,,,,,,,,,,,,,,,,,,,,,,,,,,,,,,,,,,,,,,,,,,,,,,,,,,,,,,,,,,,,,,,,,,,,,,,,,,,,,,,,,,,,,,,,,,,,,,
1739355550.231774,1739355550.232971,75.000000,0.000000,4273.461426,4257.179688,4329.615234,3958.076904,4271.794922,4250.897461,4238.974121,4282.436035,4240.897461,4234.743652,4550.000000,4260.897461,4402.948730,4499.102539,5349.000000,0.000000,14.000000,,,,0.000000,4.000000,4.000000,4.000000,4.000000,4.000000,4.000000,4.000000,4.000000,4.000000,4.000000,4.000000,4.000000,4.000000,4.000000,100.000000,,,,,,,,,,,,,,,,,,,,,,,,,,,,,,,,,,,,,,,,,,,,,,,,,,,,,,,,,,,,,,,,,,,,,,,,,,,,,,,,,,,,,,,,,,,,,,,,,,,,,,,,,,,,,,,,,,,,,,,,,,,,,,,,,
1739355550.239582,1739355550.240779,76.000000,0.000000,4254.615234,4242.436035,4313.077148,3938.846191,4256.922852,4236.410156,4221.794922,4278.717773,4220.128418,4212.307617,4527.948730,4225.897461,4387.948730,4479.487305,5197.000000,0.000000,14.000000,,,,0.000000,4.000000,4.000000,4.000000,4.000000,4.000000,4.000000,4.000000,4.000000,4.000000,4.000000,4.000000,4.000000,4.000000,4.000000,100.000000,,,,,,,,,,,,,,,,,19.000000,0.000000,0.568385,0.234741,-0.671448,0.413513,0.938591,-0.363814,-0.003418,-41.465290,-26.072372,44.058384,,,,,,,,,,,,,,,,,,,,,,,,,,,,,,,,,,,,,,,,,,,,,,,,,,,,,,,,,,,,,,,,,,,,,,,,,,,,,,,,,,,,,,,,,,,,,,,,,,,,,
1739355550.247391,1739355550.248487,77.000000,0.000000,4219.358887,4210.897461,4287.436035,3907.692383,4224.743652,4212.051270,4193.461426,4275.769043,4194.102539,4183.333496,4502.307617,4181.794922,4366.410156,4448.077148,6389.000000,0.000000,14.000000,,,,0.000000,4.000000,4.000000,4.000000,4.000000,4.000000,4.000000,4.000000,4.000000,4.000000,4.000000,4.000000,4.000000,4.000000,4.000000,100.000000,,,,,,,,,,,,,,,,,,,,,,,,,,,,,,,,,,,,,,,,,,,,,,,,,,,,,,,,,,,,,,,,,,,,,,,,,,,,,,,,,,,,,,,,,,,,,,,,,,,,,,,,,,,,,,,,,,,,,,,,,,,,,,,,,
1739355550.255199,1739355550.256295,78.000000,0.000000,4228.846191,4223.589844,4300.769043,3918.974365,4237.820313,4219.102539,4212.179688,4282.948730,4206.922852,4197.051270,4517.179688,4185.128418,4378.461426,4468.846191,4752.000000,0.000000,14.000000,,,,0.000000,4.000000,4.000000,4.000000,4.000000,4.000000,4.000000,4.000000,4.000000,4.000000,4.000000,4.000000,4.000000,4.000000,4.000000,100.000000,,,,,,,,,,,,,,,,,,,,,,,,,,,,,,,,,,,,,,,,,,,,,,,,,,,,,,,,,,,,,,,,,,,,,,,,,,,,,,,,,,,,,,,,,,,,,,,,,,,,,,,,,,,,,,,,,,,,,,,,,,,,,,,,,
1739355550.263007,1739355550.264003,79.000000,0.000000,4257.051270,4252.820313,4326.282227,3944.743652,4269.615234,4239.615234,4237.179688,4288.461426,4224.102539,4218.589844,4538.205078,4205.512695,4391.538574,4498.333496,5349.000000,0.000000,14.000000,,,,0.000000,4.000000,4.000000,4.000000,4.000000,4.000000,4.000000,4.000000,4.000000,4.000000,4.000000,4.000000,4.000000,4.000000,4.000000,100.000000,,,,,,,,,,,,,,,,,,,,,,,,,,,,,,,,,,,,,,,,,,,,,,,,,,,,,,,,,,,,,,,,,,,,,,,,,,,,,,,,,,,,,,,,,,,,,,,,,,,,,,,,,,,,,,,,,,,,,,,,,,,,,,,,,
1739355550.270815,1739355550.271911,80.000000,0.000000,4246.922852,4240.769043,4318.333496,3933.974365,4260.256348,4232.307617,4222.948730,4279.358887,4208.333496,4204.615234,4528.205078,4184.871582,4376.922852,4481.666504,5197.000000,0.000000,14.000000,,,,0.000000,4.000000,4.000000,4.000000,4.000000,4.000000,4.000000,4.000000,4.000000,4.000000,4.000000,4.000000,4.000000,4.000000,4.000000,100.000000,,,,,,,,,,,,,,,,,20.000000,0.000000,0.570180,0.235535,-0.669495,0.413757,0.934196,-0.329142,-0.001953,-41.202091,-26.298470,44.119213,,,,,,,,,,,,,,,,,,,,,,,,,,,,,,,,,,,,,,,,,,,,,,,,,,,,,,,,,,,,,,,,,,,,,,,,,,,,,,,,,,,,,,,,,,,,,,,,,,,,,
1739355550.278623,1739355550.279719,81.000000,0.000000,4232.820313,4226.282227,4305.769043,3919.743652,4237.948730,4215.897461,4206.794922,4273.589844,4201.410156,4193.333496,4517.307617,4157.563965,4375.128418,4467.307617,6389.000000,0.000000,14.000000,,,,0.000000,4.000000,4.000000,4.000000,4.000000,4.000000,4.000000,4.000000,4.000000,4.000000,4.000000,4.000000,4.000000,4.000000,4.000000,100.000000,,,,,,,,,,,,,,,,,,,,,,,,,,,,,,,,,,,,,,,,,,,,,,,,,,,,,,,,,,,,,,,,,,,,,,,,,,,,,,,,,,,,,,,,,,,,,,,,,,,,,,,,,,,,,,,,,,,,,,,,,,,,,,,,,
1739355550.286431,1739355550.287627,82.000000,0.000000,4236.025879,4230.000000,4302.948730,3923.974365,4235.641113,4208.077148,4201.538574,4276.666504,4202.820313,4190.769043,4512.563965,4148.974121,4379.230957,4468.589844,4752.000000,0.000000,14.000000,,,,0.000000,4.000000,4.000000,4.000000,4.000000,4.000000,4.000000,4.000000,4.000000,4.000000,4.000000,4.000000,4.000000,4.000000,4.000000,100.000000,,,,,,,,,,,,,,,,,,,,,,,,,,,,,,,,,,,,,,,,,,,,,,,,,,,,,,,,,,,,,,,,,,,,,,,,,,,,,,,,,,,,,,,,,,,,,,,,,,,,,,,,,,,,,,,,,,,,,,,,,,,,,,,,,
1739355550.294239,1739355550.295435,83.000000,0.000000,4242.436035,4238.461426,4311.282227,3935.000000,4241.025879,4209.102539,4203.974121,4277.179688,4195.641113,4188.333496,4512.948730,4152.436035,4375.641113,4469.743652,5349.000000,0.000000,14.000000,,,,0.000000,4.000000,4.000000,4.000000,4.000000,4.000000,4.000000,4.000000,4.000000,4.000000,4.000000,4.000000,4.000000,4.000000,4.000000,100.000000,,,,,,,,,,,,,,,,,,,,,,,,,,,,,,,,,,,,,,,,,,,,,,,,,,,,,,,,,,,,,,,,,,,,,,,,,,,,,,,,,,,,,,,,,,,,,,,,,,,,,,,,,,,,,,,,,,,,,,,,,,,,,,,,,
1739355550.302047,1739355550.303343,84.000000,0.000000,4250.000000,4244.871582,4325.897461,3942.948730,4251.153809,4220.769043,4216.794922,4277.436035,4203.846191,4198.974121,4523.333496,4159.615234,4378.461426,4478.077148,5197.000000,0.000000,14.000000,,,,0.000000,4.000000,4.000000,4.000000,4.000000,4.000000,4.000000,4.000000,4.000000,4.000000,4.000000,4.000000,4.000000,4.000000,4.000000,100.000000,,,,,,,,,,,,,,,,,21.000000,0.000000,0.572409,0.236877,-0.667114,0.413757,0.957148,-0.284703,0.017092,-41.115215,-26.401955,44.240627,,,,,,,,,,,,,,,,,,,,,,,,,,,,,,,,,,,,,,,,,,,,,,,,,,,,,,,,,,,,,,,,,,,,,,,,,,,,,,,,,,,,,,,,,,,,,,,,,,,,,
1739355550.309855,1739355550.311151,85.000000,0.000000,4241.025879,4233.846191,4316.410156,3937.179443,4250.384766,4223.077148,4216.794922,4277.563965,4209.487305,4199.358887,4520.769043,4146.410156,4373.589844,4477.051270,6389.000000,0.000000,14.000000,,,,0.000000,4.000000,4.000000,4.000000,4.000000,4.000000,4.000000,4.000000,4.000000,4.000000,4.000000,4.000000,4.000000,4.000000,4.000000,100.000000,,,,,,,,,,,,,,,,,,,,,,,,,,,,,,,,,,,,,,,,,,,,,,,,,,,,,,,,,,,,,,,,,,,,,,,,,,,,,,,,,,,,,,,,,,,,,,,,,,,,,,,,,,,,,,,,,,,,,,,,,,,,,,,,,
1739355550.317663,1739355550.319059,86.000000,0.000000,4213.974121,4208.846191,4287.051270,3915.897461,4228.846191,4207.307617,4194.487305,4271.025879,4188.205078,4181.538574,4499.487305,4114.615234,4356.794922,4454.487305,4752.000000,0.000000,14.000000,,,,0.000000,4.000000,4.000000,4.000000,4.000000,4.000000,4.000000,4.000000,4.000000,4.000000,4.000000,4.000000,4.000000,4.000000,4.000000,100.000000,,,,,,,,,,,,,,,,,,,,,,,,,,,,,,,,,,,,,,,,,,,,,,,,,,,,,,,,,,,,,,,,,,,,,,,,,,,,,,,,,,,,,,,,,,,,,,,,,,,,,,,,,,,,,,,,,,,,,,,,,,,,,,,,,
1739355550.325471,1739355550.326867,87.000000,0.000000,4204.102539,4203.461426,4281.025879,3908.974365,4223.846191,4199.102539,4182.948730,4267.563965,4178.974121,4177.179688,4493.333496,4101.922852,4350.769043,4441.282227,5349.000000,0.000000,14.000000,,,,0.000000,4.000000,4.000000,4.000000,4.000000,4.000000,4.000000,4.000000,4.000000,4.000000,4.000000,4.000000,4.000000,4.000000,4.000000,100.000000,,,,,,,,,,,,,,,,,,,,,,,,,,,,,,,,,,,,,,,,,,,,,,,,,,,,,,,,,,,,,,,,,,,,,,,,,,,,,,,,,,,,,,,,,,,,,,,,,,,,,,,,,,,,,,,,,,,,,,,,,,,,,,,,,
1739355550.333279,1739355550.334775,88.000000,0.000000,4213.205078,4212.436035,4291.794922,3917.820557,4234.487305,4200.897461,4190.256348,4273.974121,4195.256348,4181.153809,4500.384766,4111.282227,4353.846191,4445.512695,5197.000000,0.000000,14.000000,,,,0.000000,4.000000,4.000000,4.000000,4.000000,4.000000,4.000000,4.000000,4.000000,4.000000,4.000000,4.000000,4.000000,4.000000,4.000000,100.000000,,,,,,,,,,,,,,,,,22.000000,0.000000,0.574174,0.237671,-0.665161,0.414001,0.973752,-0.281773,0.035161,-40.953697,-26.661760,44.316563,,,,,,,,,,,,,,,,,,,,,,,,,,,,,,,,22.961178,3.185896,1.836763,2.151009,2.843421,24.884634,5.709613,1.824883,1.769707,2.755581,10.791807,0.987964,1.308052,2.038987,2.220749,2105.218994,262.161224,23.344574,4.566100,2.729789,6.560297,2.132173,1.535382,1.565379,1.759026,12.401031,1.796419,1.378177,1.428973,1.844560,6.270222,0.685424,2.104086,2.285268,2.866721,0.574806,0.120342,0.124142,0.246413,0.408658,8.181466,1.635061,0.987434,1.999480,2.156562,12.277049,2.137995,0.951270,2.212180,2.435810,67.519470,3.934394,2.071459,1.554583,2.208616,18.203417,1.398190,1.870482,2.517693,3.402680,11.197941,3.590050,1.153220,1.313247,2.090890,13.499633,1.724156,2.074115,1.832048,2.598786
1739355550.341087,1739355550.342583,89.000000,0.000000,4226.666504,4218.333496,4296.794922,3926.281982,4234.487305,4204.743652,4200.256348,4280.512695,4208.846191,4191.666504,4508.205078,4127.948730,4360.128418,4457.948730,6389.000000,0.000000,14.000000,,,,0.000000,4.000000,4.000000,4.000000,4.000000,4.000000,4.000000,4.000000,4.000000,4.000000,4.000000,4.000000,4.000000,4.000000,4.000000,100.000000,,,,,,,,,,,,,,,,,,,,,,,,,,,,,,,,,,,,,,,,,,,,,,,,,,,,,,,,,,,,,,,,,,,,,,,,,,,,,,,,,,,,,,,,,,,,,,,,,,,,,,,,,,,,,,,,,,,,,,,,,,,,,,,,,
1739355550.348896,1739355550.350490,90.000000,0.000000,4231.666504,4218.077148,4298.333496,3928.205078,4229.743652,4207.820313,4197.948730,4279.230957,4209.358887,4204.102539,4514.487305,4134.358887,4368.333496,4462.692383,4752.000000,0.000000,14.000000,,,,0.000000,4.000000,4.000000,4.000000,4.000000,4.000000,4.000000,4.000000,4.000000,4.000000,4.000000,4.000000,4.000000,4.000000,4.000000,100.000000,,,,,,,,,,,,,,,,,,,,,,,,,,,,,,,,,,,,,,,,,,,,,,,,,,,,,,,,,,,,,,,,,,,,,,,,,,,,,,,,,,,,,,,,,,,,,,,,,,,,,,,,,,,,,,,,,,,,,,,,,,,,,,,,,
1739355550.356704,1739355550.358298,91.000000,0.000000,4222.179688,4216.282227,4294.615234,3925.897461,4231.666504,4209.615234,4190.128418,4277.436035,4201.282227,4195.512695,4510.512695,4124.743652,4361.666504,4451.538574,5349.000000,0.000000,14.000000,,,,0.000000,4.000000,4.000000,4.000000,4.000000,4.000000,4.000000,4.000000,4.000000,4.000000,4.000000,4.000000,4.000000,4.000000,4.000000,100.000000,,,,,,,,,,,,,,,,,,,,,,,,,,,,,,,,,,,,,,,,,,,,,,,,,,,,,,,,,,,,,,,,,,,,,,,,,,,,,,,,,,,,,,,,,,,,,,,,,,,,,,,,,,,,,,,,,,,,,,,,,,,,,,,,,
1739355550.364512,1739355550.366206,92.000000,0.000000,4217.051270,4220.384766,4286.666504,3928.846191,4231.410156,4207.820313,4192.948730,4275.769043,4186.410156,4176.538574,4498.846191,4115.769043,4341.282227,4441.282227,5197.000000,0.000000,14.000000,,,,0.000000,4.000000,4.000000,4.000000,4.000000,4.000000,4.000000,4.000000,4.000000,4.000000,4.000000,4.000000,4.000000,4.000000,4.000000,100.000000,,,,,,,,,,,,,,,,,23.000000,0.000000,0.575083,0.237610,-0.663940,0.414734,0.978635,-0.270541,0.029300,-40.774994,-26.645584,44.384907,,,,,,,,,,,,,,,,,,,,,,,,,,,,,,,,,,,,,,,,,,,,,,,,,,,,,,,,,,,,,,,,,,,,,,,,,,,,,,,,,,,,,,,,,,,,,,,,,,,,,
1739355550.372320,1739355550.374014,93.000000,0.000000,4216.922852,4214.615234,4282.563965,3929.743652,4226.666504,4206.153809,4196.410156,4272.948730,4173.461426,4168.333496,4491.025879,4114.487305,4330.256348,4439.487305,6389.000000,0.000000,14.000000,,,,0.000000,4.000000,4.000000,4.000000,4.000000,4.000000,4.000000,4.000000,4.000000,4.000000,4.000000,4.000000,4.000000,4.000000,4.000000,100.000000,,,,,,,,,,,,,,,,,,,,,,,,,,,,,,,,,,,,,,,,,,,,,,,,,,,,,,,,,,,,,,,,,,,,,,,,,,,,,,,,,,,,,,,,,,,,,,,,,,,,,,,,,,,,,,,,,,,,,,,,,,,,,,,,,
1739355550.380128,1739355550.381922,94.000000,0.000000,4213.205078,4204.615234,4282.179688,3928.846191,4225.512695,4210.384766,4195.897461,4273.717773,4174.230957,4169.358887,4497.436035,4116.538574,4335.256348,4439.102539,4752.000000,0.000000,14.000000,,,,0.000000,4.000000,4.000000,4.000000,4.000000,4.000000,4.000000,4.000000,4.000000,4.000000,4.000000,4.000000,4.000000,4.000000,4.000000,100.000000,,,,,,,,,,,,,,,,,,,,,,,,,,,,,,,,,,,,,,,,,,,,,,,,,,,,,,,,,,,,,,,,,,,,,,,,,,,,,,,,,,,,,,,,,,,,,,,,,,,,,,,,,,,,,,,,,,,,,,,,,,,,,,,,,
1739355550.387936,1739355550.389730,95.000000,0.000000,4213.846191,4210.641113,4285.256348,3935.000000,4232.948730,4221.282227,4205.512695,4278.077148,4185.000000,4178.974121,4506.538574,4122.948730,4344.615234,4441.153809,5349.000000,0.000000,14.000000,,,,0.000000,4.000000,4.000000,4.000000,4.000000,4.000000,4.000000,4.000000,4.000000,4.000000,4.000000,4.000000,4.000000,4.000000,4.000000,100.000000,,,,,,,,,,,,,,,,,,,,,,,,,,,,,,,,,,,,,,,,,,,,,,,,,,,,,,,,,,,,,,,,,,,,,,,,,,,,,,,,,,,,,,,,,,,,,,,,,,,,,,,,,,,,,,,,,,,,,,,,,,,,,,,,,
1739355550.395744,1739355550.397438,96.000000,0.000000,4223.461426,4222.179688,4290.000000,3944.615479,4246.025879,4227.307617,4216.282227,4279.487305,4194.230957,4195.512695,4510.641113,4134.871582,4350.000000,4449.743652,5197.000000,0.000000,14.000000,,,,0.000000,4.000000,4.000000,4.000000,4.000000,4.000000,4.000000,4.000000,4.000000,4.000000,4.000000,4.000000,4.000000,4.000000,4.000000,100.000000,,,,,,,,,,,,,,,,,24.000000,0.000000,0.575576,0.237183,-0.663208,0.415466,0.965938,-0.280796,0.025882,-40.647491,-26.847692,44.696415,,,,,,,,,,,,,,,,,,,,,,,,,,,,,,,,,,,,,,,,,,,,,,,,,,,,,,,,,,,,,,,,,,,,,,,,,,,,,,,,,,,,,,,,,,,,,,,,,,,,,
1739355550.403552,1739355550.405246,97.000000,0.000000,4219.358887,4214.102539,4286.922852,3940.512939,4237.948730,4221.025879,4209.615234,4273.461426,4193.333496,4196.922852,4509.358887,4135.128418,4350.769043,4447.436035,6389.000000,0.000000,14.000000,,,,0.000000,4.000000,4.000000,4.000000,4.000000,4.000000,4.000000,4.000000,4.000000,4.000000,4.000000,4.000000,4.000000,4.000000,4.000000,100.000000,,,,,,,,,,,,,,,,,,,,,,,,,,,,,,,,,,,,,,,,,,,,,,,,,,,,,,,,,,,,,,,,,,,,,,,,,,,,,,,,,,,,,,,,,,,,,,,,,,,,,,,,,,,,,,,,,,,,,,,,,,,,,,,,,
1739355550.411360,1739355550.412954,98.000000,0.000000,4200.256348,4195.512695,4272.692383,3928.461426,4212.563965,4212.692383,4191.410156,4267.948730,4180.641113,4177.563965,4494.358887,4116.025879,4338.974121,4427.179688,4752.000000,0.000000,14.000000,,,,0.000000,4.000000,4.000000,4.000000,4.000000,4.000000,4.000000,4.000000,4.000000,4.000000,4.000000,4.000000,4.000000,4.000000,4.000000,100.000000,,,,,,,,,,,,,,,,,,,,,,,,,,,,,,,,,,,,,,,,,,,,,,,,,,,,,,,,,,,,,,,,,,,,,,,,,,,,,,,,,,,,,,,,,,,,,,,,,,,,,,,,,,,,,,,,,,,,,,,,,,,,,,,,,
1739355550.419168,1739355550.420762,99.000000,0.000000,4208.205078,4211.922852,4280.128418,3947.948730,4222.820313,4220.769043,4196.666504,4276.025879,4187.692383,4186.282227,4498.077148,4125.256348,4342.563965,4433.974121,5349.000000,0.000000,14.000000,,,,0.000000,4.000000,4.000000,4.000000,4.000000,4.000000,4.000000,4.000000,4.000000,4.000000,4.000000,4.000000,4.000000,4.000000,4.000000,100.000000,,,,,,,,,,,,,,,,,,,,,,,,,,,,,,,,,,,,,,,,,,,,,,,,,,,,,,,,,,,,,,,,,,,,,,,,,,,,,,,,,,,,,,,,,,,,,,,,,,,,,,,,,,,,,,,,,,,,,,,,,,,,,,,,,
1739355550.426977,1739355550.428470,100.000000,0.000000,4217.820313,4220.512695,4285.769043,3956.666748,4235.256348,4223.205078,4198.974121,4277.820313,4198.077148,4204.230957,4506.282227,4136.794922,4348.589844,4448.461426,5197.000000,0.000000,14.000000,,,,0.000000,4.000000,4.000000,4.000000,4.000000,4.000000,4.000000,4.000000,4.000000,4.000000,4.000000,4.000000,4.000000,4.000000,4.000000,100.000000,,,,,,,,,,,,,,,,,25.000000,0.000000,0.575706,0.237122,-0.662964,0.415710,0.965938,-0.260286,0.030765,-40.616077,-26.812923,44.643440,,,,,,,,,,,,,,,,,,,,,,,,,,,,,,,,,,,,,,,,,,,,,,,,,,,,,,,,,,,,,,,,,,,,,,,,,,,,,,,,,,,,,,,,,,,,,,,,,,,,,
1739355550.434785,1739355550.436278,101.000000,0.000000,4199.615234,4191.410156,4267.179688,3930.897461,4211.922852,4210.512695,4177.948730,4269.487305,4184.102539,4190.128418,4492.307617,4115.384766,4334.230957,4430.512695,6389.000000,0.000000,14.000000,,,,0.000000,4.000000,4.000000,4.000000,4.000000,4.000000,4.000000,4.000000,4.000000,4.000000,4.000000,4.000000,4.000000,4.000000,4.000000,100.000000,,,,,,,,,,,,,,,,,,,,,,,,,,,,,,,,,,,,,,,,,,,,,,,,,,,,,,,,,,,,,,,,,,,,,,,,,,,,,,,,,,,,,,,,,,,,,,,,,,,,,,,,,,,,,,,,,,,,,,,,,,,,,,,,,
1739355550.442593,1739355550.443986,102.000000,0.000000,4201.153809,4193.974121,4274.358887,3940.384521,4215.000000,4217.307617,4183.461426,4275.256348,4183.077148,4185.128418,4495.512695,4122.692383,4339.230957,4427.563965,4752.000000,0.000000,14.000000,,,,0.000000,4.000000,4.000000,4.000000,4.000000,4.000000,4.000000,4.000000,4.000000,4.000000,4.000000,4.000000,4.000000,4.000000,4.000000,100.000000,,,,,,,,,,,,,,,,,,,,,,,,,,,,,,,,,,,,,,,,,,,,,,,,,,,,,,,,,,,,,,,,,,,,,,,,,,,,,,,,,,,,,,,,,,,,,,,,,,,,,,,,,,,,,,,,,,,,,,,,,,,,,,,,,
1739355550.450401,1739355550.451794,103.000000,0.000000,4221.153809,4222.692383,4293.589844,3969.102539,4235.000000,4234.230957,4204.358887,4281.666504,4194.102539,4194.871582,4507.436035,4148.846191,4353.333496,4442.820313,5349.000000,0.000000,14.000000,,,,0.000000,4.000000,4.000000,4.000000,4.000000,4.000000,4.000000,4.000000,4.000000,4.000000,4.000000,4.000000,4.000000,4.000000,4.000000,100.000000,,,,,,,,,,,,,,,,,,,,,,,,,,,,,,,,,,,,,,,,,,,,,,,,,,,,,,,,,,,,,,,,,,,,,,,,,,,,,,,,,,,,,,,,,,,,,,,,,,,,,,,,,,,,,,,,,,,,,,,,,,,,,,,,,
1739355550.458209,1739355550.459502,104.000000,0.000000,4218.077148,4215.897461,4283.077148,3961.538574,4220.512695,4230.256348,4197.820313,4275.512695,4186.538574,4190.641113,4498.205078,4138.205078,4342.179688,4432.948730,5197.000000,0.000000,14.000000,,,,0.000000,4.000000,4.000000,4.000000,4.000000,4.000000,4.000000,4.000000,4.000000,4.000000,4.000000,4.000000,4.000000,4.000000,4.000000,100.000000,,,,,,,,,,,,,,,,,26.000000,0.000000,0.576064,0.237061,-0.662598,0.415833,0.962031,-0.268099,0.035161,-40.504471,-26.781631,44.762432,,,,,,,,,,,,,,,,,,,,,,,,,,,,,,,,16.654709,3.283162,1.468262,1.997835,2.891311,20.724924,6.469472,1.655317,1.654751,2.766070,6.421411,1.224423,1.159359,1.963886,2.234386,2193.770264,276.653076,23.101381,4.364760,2.843049,5.798768,2.228754,1.480016,1.491279,1.863505,10.996778,1.773595,1.246892,1.393148,1.931924,4.400996,0.753807,1.804715,2.320444,2.917719,0.462228,0.151727,0.131639,0.231807,0.429901,6.912815,1.696587,0.972768,1.776819,2.243147,10.485858,2.237044,0.862479,1.996792,2.547997,71.374847,4.030480,1.933837,1.496924,2.329257,13.154794,1.645151,1.580099,2.369158,3.519988,8.961173,3.662121,0.940621,1.199344,2.148300,8.468816,1.924218,1.816253,1.816522,2.644017
1739355550.466017,1739355550.467310,105.000000,0.000000,4211.153809,4206.666504,4277.179688,3958.333252,4218.333496,4229.358887,4195.384766,4278.461426,4186.410156,4191.922852,4495.897461,4133.461426,4339.487305,4429.102539,6389.000000,0.000000,14.000000,,,,0.000000,4.000000,4.000000,4.000000,4.000000,4.000000,4.000000,4.000000,4.000000,4.000000,4.000000,4.000000,4.000000,4.000000,4.000000,100.000000,,,,,,,,,,,,,,,,,,,,,,,,,,,,,,,,,,,,,,,,,,,,,,,,,,,,,,,,,,,,,,,,,,,,,,,,,,,,,,,,,,,,,,,,,,,,,,,,,,,,,,,,,,,,,,,,,,,,,,,,,,,,,,,,,
1739355550.473825,1739355550.475018,106.000000,0.000000,4206.794922,4212.179688,4279.743652,3965.897461,4232.051270,4235.384766,4205.897461,4278.333496,4185.384766,4185.000000,4495.384766,4136.922852,4342.563965,4432.179688,4752.000000,0.000000,14.000000,,,,0.000000,4.000000,4.000000,4.000000,4.000000,4.000000,4.000000,4.000000,4.000000,4.000000,4.000000,4.000000,4.000000,4.000000,4.000000,100.000000,,,,,,,,,,,,,,,,,,,,,,,,,,,,,,,,,,,,,,,,,,,,,,,,,,,,,,,,,,,,,,,,,,,,,,,,,,,,,,,,,,,,,,,,,,,,,,,,,,,,,,,,,,,,,,,,,,,,,,,,,,,,,,,,,
1739355550.481633,1739355550.482826,107.000000,0.000000,4198.589844,4202.179688,4275.512695,3956.923096,4221.922852,4235.000000,4203.077148,4271.153809,4171.282227,4168.974121,4483.205078,4129.487305,4335.384766,4418.717773,5349.000000,0.000000,14.000000,,,,0.000000,4.000000,4.000000,4.000000,4.000000,4.000000,4.000000,4.000000,4.000000,4.000000,4.000000,4.000000,4.000000,4.000000,4.000000,100.000000,,,,,,,,,,,,,,,,,,,,,,,,,,,,,,,,,,,,,,,,,,,,,,,,,,,,,,,,,,,,,,,,,,,,,,,,,,,,,,,,,,,,,,,,,,,,,,,,,,,,,,,,,,,,,,,,,,,,,,,,,,,,,,,,,
1739355550.489441,1739355550.490534,108.000000,0.000000,4203.077148,4196.025879,4278.974121,3960.769287,4208.077148,4231.025879,4196.025879,4271.794922,4175.256348,4177.307617,4488.846191,4138.461426,4335.384766,4417.563965,5197.000000,0.000000,14.000000,,,,0.000000,4.000000,4.000000,4.000000,4.000000,4.000000,4.000000,4.000000,4.000000,4.000000,4.000000,4.000000,4.000000,4.000000,4.000000,100.000000,,,,,,,,,,,,,,,,,27.000000,0.000000,0.576075,0.236755,-0.662659,0.415894,0.964473,-0.265657,0.020999,-40.470688,-26.770134,44.919521,,,,,,,,,,,,,,,,,,,,,,,,,,,,,,,,,,,,,,,,,,,,,,,,,,,,,,,,,,,,,,,,,,,,,,,,,,,,,,,,,,,,,,,,,,,,,,,,,,,,,
1739355550.497249,1739355550.498442,109.000000,0.000000,4204.230957,4197.563965,4282.307617,3973.205078,4208.846191,4226.025879,4190.000000,4270.769043,4183.717773,4187.179688,4496.282227,4146.794922,4336.025879,4429.102539,6389.000000,0.000000,14.000000,,,,0.000000,4.000000,4.000000,4.000000,4.000000,4.000000,4.000000,4.000000,4.000000,4.000000,4.000000,4.000000,4.000000,4.000000,4.000000,100.000000,,,,,,,,,,,,,,,,,,,,,,,,,,,,,,,,,,,,,,,,,,,,,,,,,,,,,,,,,,,,,,,,,,,,,,,,,,,,,,,,,,,,,,,,,,,,,,,,,,,,,,,,,,,,,,,,,,,,,,,,,,,,,,,,,
1739355550.505057,1739355550.506250,110.000000,0.000000,4205.641113,4198.717773,4283.205078,3976.666748,4211.025879,4228.333496,4184.743652,4272.692383,4180.128418,4187.179688,4492.307617,4145.512695,4338.333496,4432.692383,4752.000000,0.000000,14.000000,,,,0.000000,4.000000,4.000000,4.000000,4.000000,4.000000,4.000000,4.000000,4.000000,4.000000,4.000000,4.000000,4.000000,4.000000,4.000000,100.000000,,,,,,,,,,,,,,,,,,,,,,,,,,,,,,,,,,,,,,,,,,,,,,,,,,,,,,,,,,,,,,,,,,,,,,,,,,,,,,,,,,,,,,,,,,,,,,,,,,,,,,,,,,,,,,,,,,,,,,,,,,,,,,,,,
1739355550.512865,1739355550.514058,111.000000,0.000000,4213.205078,4200.128418,4288.461426,3979.102539,4204.743652,4227.563965,4181.538574,4277.692383,4185.256348,4196.794922,4491.025879,4155.769043,4348.846191,4433.077148,5349.000000,0.000000,14.000000,,,,0.000000,4.000000,4.000000,4.000000,4.000000,4.000000,4.000000,4.000000,4.000000,4.000000,4.000000,4.000000,4.000000,4.000000,4.000000,100.000000,,,,,,,,,,,,,,,,,,,,,,,,,,,,,,,,,,,,,,,,,,,,,,,,,,,,,,,,,,,,,,,,,,,,,,,,,,,,,,,,,,,,,,,,,,,,,,,,,,,,,,,,,,,,,,,,,,,,,,,,,,,,,,,,,
1739355550.520673,1739355550.521766,112.000000,0.000000,4204.743652,4192.051270,4283.077148,3976.666748,4198.846191,4220.256348,4178.589844,4271.282227,4187.948730,4193.717773,4485.641113,4155.256348,4345.897461,4428.846191,5197.000000,0.000000,14.000000,,,,0.000000,4.000000,4.000000,4.000000,4.000000,4.000000,4.000000,4.000000,4.000000,4.000000,4.000000,4.000000,4.000000,4.000000,4.000000,100.000000,,,,,,,,,,,,,,,,,28.000000,0.000000,0.576282,0.236084,-0.663025,0.415405,0.950800,-0.268587,0.018069,-40.140285,-26.759787,44.977570,,,,,,,,,,,,,,,,,,,,,,,,,,,,,,,,,,,,,,,,,,,,,,,,,,,,,,,,,,,,,,,,,,,,,,,,,,,,,,,,,,,,,,,,,,,,,,,,,,,,,
1739355550.528482,1739355550.529574,113.000000,0.000000,4201.922852,4194.615234,4281.666504,3983.461426,4211.282227,4232.179688,4189.102539,4269.615234,4185.897461,4184.230957,4487.563965,4158.717773,4343.846191,4433.461426,6389.000000,0.000000,14.000000,,,,0.000000,4.000000,4.000000,4.000000,4.000000,4.000000,4.000000,4.000000,4.000000,4.000000,4.000000,4.000000,4.000000,4.000000,4.000000,100.000000,,,,,,,,,,,,,,,,,,,,,,,,,,,,,,,,,,,,,,,,,,,,,,,,,,,,,,,,,,,,,,,,,,,,,,,,,,,,,,,,,,,,,,,,,,,,,,,,,,,,,,,,,,,,,,,,,,,,,,,,,,,,,,,,,
1739355550.536290,1739355550.537282,114.000000,0.000000,4208.974121,4202.307617,4287.307617,3996.025635,4217.307617,4246.666504,4194.743652,4274.871582,4182.307617,4182.948730,4484.230957,4168.846191,4344.487305,4439.615234,4752.000000,0.000000,14.000000,,,,0.000000,4.000000,4.000000,4.000000,4.000000,4.000000,4.000000,4.000000,4.000000,4.000000,4.000000,4.000000,4.000000,4.000000,4.000000,100.000000,,,,,,,,,,,,,,,,,,,,,,,,,,,,,,,,,,,,,,,,,,,,,,,,,,,,,,,,,,,,,,,,,,,,,,,,,,,,,,,,,,,,,,,,,,,,,,,,,,,,,,,,,,,,,,,,,,,,,,,,,,,,,,,,,
1739355550.544098,1739355550.545190,115.000000,0.000000,4199.743652,4195.128418,4280.256348,3992.820557,4203.846191,4243.717773,4186.666504,4268.974121,4167.692383,4174.743652,4464.102539,4155.000000,4330.128418,4427.179688,5349.000000,0.000000,14.000000,,,,0.000000,4.000000,4.000000,4.000000,4.000000,4.000000,4.000000,4.000000,4.000000,4.000000,4.000000,4.000000,4.000000,4.000000,4.000000,100.000000,,,,,,,,,,,,,,,,,,,,,,,,,,,,,,,,,,,,,,,,,,,,,,,,,,,,,,,,,,,,,,,,,,,,,,,,,,,,,,,,,,,,,,,,,,,,,,,,,,,,,,,,,,,,,,,,,,,,,,,,,,,,,,,,,
1739355550.551906,1739355550.552998,116.000000,0.000000,4185.512695,4185.000000,4269.102539,3982.564209,4196.282227,4242.179688,4183.846191,4261.794922,4157.307617,4164.487305,4455.769043,4137.563965,4318.717773,4412.948730,5197.000000,0.000000,14.000000,,,,0.000000,4.000000,4.000000,4.000000,4.000000,4.000000,4.000000,4.000000,4.000000,4.000000,4.000000,4.000000,4.000000,4.000000,4.000000,100.000000,,,,,,,,,,,,,,,,,29.000000,0.000000,0.576942,0.234619,-0.663391,0.414734,0.964473,-0.275913,0.010743,-40.142925,-26.717142,44.996479,,,,,,,,,,,,,,,,,,,,,,,,,,,,,,,,,,,,,,,,,,,,,,,,,,,,,,,,,,,,,,,,,,,,,,,,,,,,,,,,,,,,,,,,,,,,,,,,,,,,,
1739355550.559714,1739355550.560906,117.000000,0.000000,4172.051270,4172.563965,4255.769043,3973.076904,4193.461426,4236.794922,4177.179688,4263.333496,4153.717773,4151.794922,4448.974121,4131.153809,4314.230957,4402.307617,6389.000000,0.000000,14.000000,,,,0.000000,4.000000,4.000000,4.000000,4.000000,4.000000,4.000000,4.000000,4.000000,4.000000,4.000000,4.000000,4.000000,4.000000,4.000000,100.000000,,,,,,,,,,,,,,,,,,,,,,,,,,,,,,,,,,,,,,,,,,,,,,,,,,,,,,,,,,,,,,,,,,,,,,,,,,,,,,,,,,,,,,,,,,,,,,,,,,,,,,,,,,,,,,,,,,,,,,,,,,,,,,,,,
1739355550.567522,1739355550.568714,118.000000,0.000000,4170.256348,4169.102539,4250.128418,3974.615479,4189.102539,4228.077148,4173.717773,4263.205078,4150.256348,4148.205078,4444.487305,4134.487305,4312.051270,4401.538574,4752.000000,0.000000,14.000000,,,,0.000000,4.000000,4.000000,4.000000,4.000000,4.000000,4.000000,4.000000,4.000000,4.000000,4.000000,4.000000,4.000000,4.000000,4.000000,100.000000,,,,,,,,,,,,,,,,,,,,,,,,,,,,,,,,,,,,,,,,,,,,,,,,,,,,,,,,,,,,,,,,,,,,,,,,,,,,,,,,,,,,,,,,,,,,,,,,,,,,,,,,,,,,,,,,,,,,,,,,,,,,,,,,,
1739355550.575330,1739355550.576622,119.000000,0.000000,4192.179688,4189.871582,4272.692383,3997.692383,4194.358887,4239.615234,4188.461426,4266.410156,4164.230957,4171.922852,4466.922852,4160.512695,4327.051270,4423.077148,5349.000000,0.000000,14.000000,,,,0.000000,4.000000,4.000000,4.000000,4.000000,4.000000,4.000000,4.000000,4.000000,4.000000,4.000000,4.000000,4.000000,4.000000,4.000000,100.000000,,,,,,,,,,,,,,,,,,,,,,,,,,,,,,,,,,,,,,,,,,,,,,,,,,,,,,,,,,,,,,,,,,,,,,,,,,,,,,,,,,,,,,,,,,,,,,,,,,,,,,,,,,,,,,,,,,,,,,,,,,,,,,,,,
1739355550.583138,1739355550.584430,120.000000,0.000000,4199.615234,4196.666504,4284.487305,4007.051270,4199.102539,4240.769043,4183.974121,4267.307617,4174.358887,4181.153809,4478.974121,4177.820313,4333.846191,4429.230957,5197.000000,0.000000,14.000000,,,,0.000000,4.000000,4.000000,4.000000,4.000000,4.000000,4.000000,4.000000,4.000000,4.000000,4.000000,4.000000,4.000000,4.000000,4.000000,100.000000,,,,,,,,,,,,,,,,,30.000000,0.000000,0.577872,0.232361,-0.663757,0.414124,0.972775,-0.273959,0.020999,-40.045300,-26.695427,45.030163,,,,,,,,,,,,,,,,,,,,,,,,,,,,,,,,11.872705,3.289325,1.117169,1.864044,2.877136,16.162954,6.488419,1.377696,1.539386,2.755994,3.741517,1.434818,0.943564,1.816455,2.208276,1976.804321,251.323486,19.617083,3.791299,2.934150,4.776734,2.071420,1.324643,1.380203,1.954021,9.222766,1.654394,1.091376,1.293594,1.958119,2.912138,0.983572,1.503540,2.204398,2.830037,0.354120,0.180163,0.145766,0.223403,0.439575,5.532240,1.664436,0.900658,1.540684,2.284541,8.447783,2.182656,0.732810,1.813275,2.605294,65.831734,3.663011,1.607753,1.417071,2.396113,8.738509,1.953021,1.201822,2.226628,3.576435,7.125155,3.352315,0.734463,1.120918,2.169590,5.364262,2.108339,1.495507,1.797574,2.620211
1739355550.590946,1739355550.592138,121.000000,0.000000,4188.333496,4182.307617,4274.230957,3996.794922,4195.769043,4227.563965,4166.410156,4265.128418,4162.436035,4167.948730,4466.410156,4172.563965,4325.128418,4413.077148,6389.000000,0.000000,14.000000,,,,0.000000,4.000000,4.000000,4.000000,4.000000,4.000000,4.000000,4.000000,4.000000,4.000000,4.000000,4.000000,4.000000,4.000000,4.000000,100.000000,,,,,,,,,,,,,,,,,,,,,,,,,,,,,,,,,,,,,,,,,,,,,,,,,,,,,,,,,,,,,,,,,,,,,,,,,,,,,,,,,,,,,,,,,,,,,,,,,,,,,,,,,,,,,,,,,,,,,,,,,,,,,,,,,
1739355550.598754,1739355550.599946,122.000000,0.000000,4201.410156,4195.641113,4284.487305,4012.435791,4202.307617,4242.563965,4181.538574,4271.922852,4168.846191,4181.922852,4474.358887,4185.512695,4336.922852,4419.871582,4752.000000,0.000000,14.000000,,,,0.000000,4.000000,4.000000,4.000000,4.000000,4.000000,4.000000,4.000000,4.000000,4.000000,4.000000,4.000000,4.000000,4.000000,4.000000,100.000000,,,,,,,,,,,,,,,,,,,,,,,,,,,,,,,,,,,,,,,,,,,,,,,,,,,,,,,,,,,,,,,,,,,,,,,,,,,,,,,,,,,,,,,,,,,,,,,,,,,,,,,,,,,,,,,,,,,,,,,,,,,,,,,,,
1739355550.606563,1739355550.607654,123.000000,0.000000,4209.871582,4210.641113,4292.436035,4032.179443,4208.717773,4254.102539,4192.820313,4277.692383,4188.077148,4197.820313,4482.692383,4197.563965,4346.922852,4430.000000,5349.000000,0.000000,14.000000,,,,0.000000,4.000000,4.000000,4.000000,4.000000,4.000000,4.000000,4.000000,4.000000,4.000000,4.000000,4.000000,4.000000,4.000000,4.000000,100.000000,,,,,,,,,,,,,,,,,,,,,,,,,,,,,,,,,,,,,,,,,,,,,,,,,,,,,,,,,,,,,,,,,,,,,,,,,,,,,,,,,,,,,,,,,,,,,,,,,,,,,,,,,,,,,,,,,,,,,,,,,,,,,,,,,
1739355550.614370,1739355550.615462,124.000000,0.000000,4194.743652,4197.948730,4281.794922,4026.153809,4206.794922,4247.179688,4180.897461,4275.897461,4188.461426,4191.282227,4475.000000,4189.102539,4337.563965,4421.794922,5197.000000,0.000000,14.000000,,,,0.000000,4.000000,4.000000,4.000000,4.000000,4.000000,4.000000,4.000000,4.000000,4.000000,4.000000,4.000000,4.000000,4.000000,4.000000,100.000000,,,,,,,,,,,,,,,,,31.000000,0.000000,0.578644,0.230408,-0.664185,0.413452,0.982542,-0.280308,0.030765,-39.990768,-26.759218,45.110481,,,,,,,,,,,,,,,,,,,,,,,,,,,,,,,,,,,,,,,,,,,,,,,,,,,,,,,,,,,,,,,,,,,,,,,,,,,,,,,,,,,,,,,,,,,,,,,,,,,,,
1739355550.622179,1739355550.623170,125.000000,0.000000,4189.358887,4188.333496,4279.871582,4017.179443,4203.205078,4249.102539,4179.358887,4270.769043,4183.589844,4187.563965,4477.051270,4187.563965,4331.922852,4422.051270,6389.000000,0.000000,14.000000,,,,0.000000,4.000000,4.000000,4.000000,4.000000,4.000000,4.000000,4.000000,4.000000,4.000000,4.000000,4.000000,4.000000,4.000000,4.000000,100.000000,,,,,,,,,,,,,,,,,,,,,,,,,,,,,,,,,,,,,,,,,,,,,,,,,,,,,,,,,,,,,,,,,,,,,,,,,,,,,,,,,,,,,,,,,,,,,,,,,,,,,,,,,,,,,,,,,,,,,,,,,,,,,,,,,
1739355550.629987,1739355550.630978,126.000000,0.000000,4171.025879,4170.769043,4262.563965,3999.871826,4184.102539,4236.153809,4166.538574,4261.922852,4164.615234,4163.974121,4457.820313,4164.743652,4311.922852,4405.897461,4752.000000,0.000000,14.000000,,,,0.000000,4.000000,4.000000,4.000000,4.000000,4.000000,4.000000,4.000000,4.000000,4.000000,4.000000,4.000000,4.000000,4.000000,4.000000,100.000000,,,,,,,,,,,,,,,,,,,,,,,,,,,,,,,,,,,,,,,,,,,,,,,,,,,,,,,,,,,,,,,,,,,,,,,,,,,,,,,,,,,,,,,,,,,,,,,,,,,,,,,,,,,,,,,,,,,,,,,,,,,,,,,,,
1739355550.637795,1739355550.638686,127.000000,0.000000,4148.461426,4154.230957,4238.974121,3986.923096,4172.051270,4218.461426,4156.666504,4258.974121,4146.794922,4139.358887,4436.153809,4139.358887,4298.589844,4383.974121,14.000000,0.000000,14.000000,,,,0.000000,4.000000,4.000000,4.000000,4.000000,4.000000,4.000000,4.000000,4.000000,4.000000,4.000000,4.000000,4.000000,4.000000,4.000000,100.000000,,,,,,,,,,,,,,,,,,,,,,,,,,,,,,,,,,,,,,,,,,,,,,,,,,,,,,,,,,,,,,,,,,,,,,,,,,,,,,,,,,,,,,,,,,,,,,,,,,,,,,,,,,,,,,,,,,,,,,,,,,,,,,,,,
1739355550.645603,1739355550.646494,0.000000,0.000000,4169.871582,4172.692383,4257.051270,4012.179443,4188.589844,4242.051270,4187.692383,4271.666504,4170.256348,4167.820313,4462.692383,4167.563965,4323.717773,4409.615234,5040.000000,0.000000,14.000000,,,,0.000000,4.000000,4.000000,4.000000,4.000000,4.000000,4.000000,4.000000,4.000000,4.000000,4.000000,4.000000,4.000000,4.000000,4.000000,100.000000,,,,,,,,,,,,,,,,,0.000000,0.000000,0.578978,0.229980,-0.664307,0.413025,0.983518,-0.296423,0.036137,-39.958359,-26.799963,45.232765,,,,,,,,,,,,,,,,,,,,,,,,,,,,,,,,,,,,,,,,,,,,,,,,,,,,,,,,,,,,,,,,,,,,,,,,,,,,,,,,,,,,,,,,,,,,,,,,,,,,,
1739355550.653411,1739355550.654202,1.000000,0.000000,4195.384766,4193.205078,4278.461426,4039.230713,4207.820313,4270.897461,4213.461426,4278.333496,4192.692383,4197.436035,4483.461426,4194.487305,4339.358887,4434.102539,5547.000000,0.000000,14.000000,,,,0.000000,4.000000,4.000000,4.000000,4.000000,4.000000,4.000000,4.000000,4.000000,4.000000,4.000000,4.000000,4.000000,4.000000,4.000000,100.000000,,,,,,,,,,,,,,,,,,,,,,,,,,,,,,,,,,,,,,,,,,,,,,,,,,,,,,,,,,,,,,,,,,,,,,,,,,,,,,,,,,,,,,,,,,,,,,,,,,,,,,,,,,,,,,,,,,,,,,,,,,,,,,,,,
1739355550.661219,1739355550.662110,2.000000,0.000000,4180.769043,4183.974121,4264.358887,4030.897461,4204.102539,4259.871582,4201.025879,4267.692383,4170.512695,4175.641113,4457.179688,4175.128418,4319.615234,4416.282227,5549.000000,0.000000,14.000000,,,,0.000000,4.000000,4.000000,4.000000,4.000000,4.000000,4.000000,4.000000,4.000000,4.000000,4.000000,4.000000,4.000000,4.000000,4.000000,100.000000,,,,,,,,,,,,,,,,,,,,,,,,,,,,,,,,,,,,,,,,,,,,,,,,,,,,,,,,,,,,,,,,,,,,,,,,,,,,,,,,,,,,,,,,,,,,,,,,,,,,,,,,,,,,,,,,,,,,,,,,,,,,,,,,,
1739355550.669027,1739355550.669918,3.000000,0.000000,4173.077148,4179.743652,4263.077148,4028.718018,4198.974121,4251.794922,4192.307617,4268.717773,4161.282227,4164.743652,4452.051270,4169.358887,4318.717773,4416.794922,5480.000000,0.000000,14.000000,,,,0.000000,4.000000,4.000000,4.000000,4.000000,4.000000,4.000000,4.000000,4.000000,4.000000,4.000000,4.000000,4.000000,4.000000,4.000000,100.000000,,,,,,,,,,,,,,,,,,,,,,,,,,,,,,,,,,,,,,,,,,,,,,,,,,,,,,,,,,,,,,,,,,,,,,,,,,,,,,,,,,,,,,,,,,,,,,,,,,,,,,,,,,,,,,,,,,,,,,,,,,,,,,,,,
1739355550.676835,1739355550.677726,4.000000,0.000000,4190.512695,4191.282227,4281.153809,4044.615479,4204.358887,4261.410156,4196.410156,4278.846191,4180.256348,4184.102539,4476.025879,4192.179688,4340.512695,4439.871582,5462.000000,0.000000,14.000000,,,,0.000000,4.000000,4.000000,4.000000,4.000000,4.000000,4.000000,4.000000,4.000000,4.000000,4.000000,4.000000,4.000000,4.000000,4.000000,100.000000,,,,,,,,,,,,,,,,,1.000000,0.000000,0.579530,0.230469,-0.664490,0.411682,0.974728,-0.264681,0.023929,-39.962524,-26.819967,45.242825,,,,,,,,,,,,,,,,,,,,,,,,,,,,,,,,,,,,,,,,,,,,,,,,,,,,,,,,,,,,,,,,,,,,,,,,,,,,,,,,,,,,,,,,,,,,,,,,,,,,,
1739355550.684643,1739355550.685434,5.000000,0.000000,4187.692383,4185.128418,4276.538574,4043.205078,4196.282227,4250.769043,4183.205078,4271.025879,4175.128418,4181.922852,4467.948730,4188.333496,4336.282227,4427.436035,5439.000000,0.000000,14.000000,,,,0.000000,4.000000,4.000000,4.000000,4.000000,4.000000,4.000000,4.000000,4.000000,4.000000,4.000000,4.000000,4.000000,4.000000,4.000000,100.000000,,,,,,,,,,,,,,,,,,,,,,,,,,,,,,,,,,,,,,,,,,,,,,,,,,,,,,,,,,,,,,,,,,,,,,,,,,,,,,,,,,,,,,,,,,,,,,,,,,,,,,,,,,,,,,,,,,,,,,,,,,,,,,,,,
1739355550.692451,1739355550.693242,6.000000,0.000000,4182.051270,4183.333496,4273.974121,4043.461426,4192.051270,4244.487305,4177.820313,4266.282227,4169.871582,4178.589844,4460.128418,4180.384766,4324.230957,4415.769043,5402.000000,0.000000,14.000000,,,,0.000000,4.000000,4.000000,4.000000,4.000000,4.000000,4.000000,4.000000,4.000000,4.000000,4.000000,4.000000,4.000000,4.000000,4.000000,100.000000,,,,,,,,,,,,,,,,,,,,,,,,,,,,,,,,,,,,,,,,,,,,,,,,,,,,,,,,,,,,,,,,,,,,,,,,,,,,,,,,,,,,,,,,,,,,,,,,,,,,,,,,,,,,,,,,,,,,,,,,,,,,,,,,,
1739355550.700259,1739355550.700950,7.000000,0.000000,4190.384766,4192.179688,4280.384766,4054.743652,4202.692383,4258.077148,4191.410156,4276.025879,4186.666504,4191.282227,4477.692383,4192.179688,4326.025879,4424.743652,2114.000000,0.000000,14.000000,,,,0.000000,4.000000,4.000000,4.000000,4.000000,4.000000,4.000000,4.000000,4.000000,4.000000,4.000000,4.000000,4.000000,4.000000,4.000000,100.000000,,,,,,,,,,,,,,,,,,,,,,,,,,,,,,,,,,,,,,,,,,,,,,,,,,,,,,,,,,,,,,,,,,,,,,,,,,,,,,,,,,,,,,,,,,,,,,,,,,,,,,,,,,,,,,,,,,,,,,,,,,,,,,,,,
1739355550.708068,1739355550.708858,8.000000,0.000000,4183.846191,4179.743652,4267.820313,4047.820557,4202.692383,4255.512695,4187.820313,4271.666504,4184.358887,4190.256348,4476.794922,4184.487305,4326.922852,4417.436035,5198.000000,0.000000,14.000000,,,,0.000000,4.000000,4.000000,4.000000,4.000000,4.000000,4.000000,4.000000,4.000000,4.000000,4.000000,4.000000,4.000000,4.000000,4.000000,100.000000,1.000000,16.666666,1.000000,1.000000,1.000000,0.000000,3.000000,1.000000,1.000000,4.000000,3.000000,3.000000,1.000000,1.000000,3.000000,3.000000,2.000000,0.000000,0.580690,0.232910,-0.663757,0.409851,0.914174,-0.267122,0.015627,-39.899605,-26.854637,45.235207,,,,,,,,,,,,,,,,,,,,,,,,,,,,,,,,8.250803,3.121387,0.865927,1.754286,2.802943,11.377076,5.742298,1.078004,1.432352,2.723225,2.311930,1.536243,0.738405,1.636302,2.140414,1516.075195,195.107132,14.232517,3.022097,2.957814,3.515146,1.697167,1.122436,1.249936,2.003977,7.086043,1.453794,0.972864,1.170971,1.913906,1.819516,1.320162,1.326310,1.990428,2.628936,0.254029,0.198082,0.166047,0.224488,0.435919,4.102476,1.568798,0.817080,1.346053,2.261341,6.230316,1.987176,0.611166,1.693766,2.596180,52.008114,2.936428,1.221950,1.340421,2.395016,6.125541,2.202834,0.872628,2.116492,3.552011,5.424397,2.730628,0.565583,1.087384,2.131696,3.819340,2.174705,1.178082,1.765553,2.534344
1739355550.715876,1739355550.716666,9.000000,0.000000,4174.487305,4169.487305,4256.666504,4038.461426,4187.307617,4241.794922,4171.666504,4261.666504,4168.077148,4182.051270,4458.461426,4167.820313,4325.512695,4413.974121,5552.000000,0.000000,14.000000,,,,0.000000,4.000000,4.000000,4.000000,4.000000,4.000000,4.000000,4.000000,4.000000,4.000000,4.000000,4.000000,4.000000,4.000000,4.000000,100.000000,,,,,,,,,,,,,,,,,,,,,,,,,,,,,,,,,,,,,,,,,,,,,,,,,,,,,,,,,,,,,,,,,,,,,,,,,,,,,,,,,,,,,,,,,,,,,,,,,,,,,,,,,,,,,,,,,,,,,,,,,,,,,,,,,
1739355550.723684,1739355550.724574,10.000000,0.000000,4184.102539,4182.436035,4263.589844,4050.897461,4182.436035,4243.205078,4175.128418,4266.922852,4173.077148,4185.769043,4457.307617,4177.307617,4327.051270,4428.846191,4832.000000,0.000000,14.000000,,,,0.000000,4.000000,4.000000,4.000000,4.000000,4.000000,4.000000,4.000000,4.000000,4.000000,4.000000,4.000000,4.000000,4.000000,4.000000,100.000000,,,,,,,,,,,,,,,,,,,,,,,,,,,,,,,,,,,,,,,,,,,,,,,,,,,,,,,,,,,,,,,,,,,,,,,,,,,,,,,,,,,,,,,,,,,,,,,,,,,,,,,,,,,,,,,,,,,,,,,,,,,,,,,,,
1739355550.731492,1739355550.732382,11.000000,0.000000,4190.769043,4190.384766,4269.743652,4067.179443,4194.102539,4251.794922,4193.461426,4269.230957,4183.333496,4186.153809,4467.820313,4189.487305,4327.692383,4431.666504,5425.000000,0.000000,14.000000,,,,0.000000,4.000000,4.000000,4.000000,4.000000,4.000000,4.000000,4.000000,4.000000,4.000000,4.000000,4.000000,4.000000,4.000000,4.000000,100.000000,,,,,,,,,,,,,,,,,,,,,,,,,,,,,,,,,,,,,,,,,,,,,,,,,,,,,,,,,,,,,,,,,,,,,,,,,,,,,,,,,,,,,,,,,,,,,,,,,,,,,,,,,,,,,,,,,,,,,,,,,,,,,,,,,
1739355550.739300,1739355550.740289,12.000000,0.000000,4186.282227,4188.974121,4274.487305,4075.256348,4205.128418,4258.077148,4201.025879,4265.641113,4182.692383,4187.692383,4472.820313,4187.179688,4327.948730,4424.743652,5278.000000,0.000000,14.000000,,,,0.000000,4.000000,4.000000,4.000000,4.000000,4.000000,4.000000,4.000000,4.000000,4.000000,4.000000,4.000000,4.000000,4.000000,4.000000,100.000000,,,,,,,,,,,,,,,,,3.000000,0.000000,0.583825,0.237366,-0.661377,0.406677,0.955195,-0.215847,0.038579,-39.859642,-26.869173,45.295021,,,,,,,,,,,,,,,,,,,,,,,,,,,,,,,,,,,,,,,,,,,,,,,,,,,,,,,,,,,,,,,,,,,,,,,,,,,,,,,,,,,,,,,,,,,,,,,,,,,,,
1739355550.747108,1739355550.748097,13.000000,0.000000,4188.077148,4193.589844,4279.230957,4080.128174,4208.846191,4264.102539,4202.948730,4266.922852,4186.538574,4201.025879,4477.179688,4190.641113,4333.333496,4429.743652,6491.000000,0.000000,14.000000,,,,0.000000,4.000000,4.000000,4.000000,4.000000,4.000000,4.000000,4.000000,4.000000,4.000000,4.000000,4.000000,4.000000,4.000000,4.000000,100.000000,,,,,,,,,,,,,,,,,,,,,,,,,,,,,,,,,,,,,,,,,,,,,,,,,,,,,,,,,,,,,,,,,,,,,,,,,,,,,,,,,,,,,,,,,,,,,,,,,,,,,,,,,,,,,,,,,,,,,,,,,,,,,,,,,
1739355550.754916,1739355550.756005,14.000000,0.000000,4188.717773,4192.820313,4271.410156,4079.615479,4205.769043,4260.512695,4201.153809,4266.410156,4184.615234,4198.717773,4472.051270,4193.333496,4333.205078,4427.948730,4832.000000,0.000000,14.000000,,,,0.000000,4.000000,4.000000,4.000000,4.000000,4.000000,4.000000,4.000000,4.000000,4.000000,4.000000,4.000000,4.000000,4.000000,4.000000,100.000000,,,,,,,,,,,,,,,,,,,,,,,,,,,,,,,,,,,,,,,,,,,,,,,,,,,,,,,,,,,,,,,,,,,,,,,,,,,,,,,,,,,,,,,,,,,,,,,,,,,,,,,,,,,,,,,,,,,,,,,,,,,,,,,,,
1739355550.762724,1739355550.763913,15.000000,0.000000,4181.282227,4183.846191,4260.000000,4074.871826,4201.794922,4252.436035,4190.256348,4263.461426,4175.256348,4181.794922,4464.358887,4186.794922,4325.384766,4415.769043,5425.000000,0.000000,14.000000,,,,0.000000,4.000000,4.000000,4.000000,4.000000,4.000000,4.000000,4.000000,4.000000,4.000000,4.000000,4.000000,4.000000,4.000000,4.000000,100.000000,,,,,,,,,,,,,,,,,,,,,,,,,,,,,,,,,,,,,,,,,,,,,,,,,,,,,,,,,,,,,,,,,,,,,,,,,,,,,,,,,,,,,,,,,,,,,,,,,,,,,,,,,,,,,,,,,,,,,,,,,,,,,,,,,
1739355550.770532,1739355550.771721,16.000000,0.000000,4167.307617,4170.000000,4251.282227,4060.000000,4188.333496,4240.384766,4174.487305,4260.384766,4162.692383,4167.692383,4454.102539,4176.794922,4310.384766,4403.333496,0.000000,0.000000,14.000000,,,,0.000000,4.000000,4.000000,4.000000,4.000000,4.000000,4.000000,4.000000,4.000000,4.000000,4.000000,4.000000,4.000000,4.000000,4.000000,100.000000,,,,,,,,,,,,,,,,,4.000000,1.000000,0.586409,0.240799,-0.659500,0.403870,0.956660,-0.203638,0.036992,-39.842319,-26.826611,45.295979,,,,,,,,,,,,,,,,,,,,,,,,,,,,,,,,,,,,,,,,,,,,,,,,,,,,,,,,,,,,,,,,,,,,,,,,,,,,,,,,,,,,,,,,,,,,,,,,,,,,,
1739355550.778340,1739355550.779529,17.000000,0.000000,4157.820313,4158.205078,4244.615234,4047.948730,4174.358887,4230.769043,4164.358887,4258.846191,4156.282227,4166.538574,4446.025879,4175.769043,4299.230957,4394.871582,0.000000,0.000000,14.000000,,,,0.000000,4.000000,4.000000,4.000000,4.000000,4.000000,4.000000,4.000000,4.000000,4.000000,4.000000,4.000000,4.000000,4.000000,4.000000,100.000000,,,,,,,,,,,,,,,,,,,,,,,,,,,,,,,,,,,,,,,,,,,,,,,,,,,,,,,,,,,,,,,,,,,,,,,,,,,,,,,,,,,,,,,,,,,,,,,,,,,,,,,,,,,,,,,,,,,,,,,,,,,,,,,,,
1739355550.786148,1739355550.787337,18.000000,0.000000,4164.487305,4161.410156,4245.897461,4054.102539,4178.974121,4235.384766,4166.025879,4261.025879,4163.846191,4173.589844,4451.794922,4188.846191,4303.846191,4396.666504,0.000000,0.000000,14.000000,,,,0.000000,4.000000,4.000000,4.000000,4.000000,4.000000,4.000000,4.000000,4.000000,4.000000,4.000000,4.000000,4.000000,4.000000,4.000000,100.000000,,,,,,,,,,,,,,,,,,,,,,,,,,,,,,,,,,,,,,,,,,,,,,,,,,,,,,,,,,,,,,,,,,,,,,,,,,,,,,,,,,,,,,,,,,,,,,,,,,,,,,,,,,,,,,,,,,,,,,,,,,,,,,,,,
1739355550.793956,1739355550.795345,19.000000,1.000000,4165.036621,4162.087891,4246.053223,4055.677734,4179.422852,4236.648438,4166.428711,4261.181152,4165.229004,4175.622559,4452.628418,4197.802246,4306.053223,4397.820313,0.000000,0.000000,14.000000,,,,0.000000,4.000000,4.000000,4.000000,4.000000,4.000000,4.000000,4.000000,4.000000,4.000000,4.000000,4.000000,4.000000,4.000000,4.000000,100.000000,,,,,,,,,,,,,,,,,,,,,,,,,,,,,,,,,,,,,,,,,,,,,,,,,,,,,,,,,,,,,,,,,,,,,,,,,,,,,,,,,,,,,,,,,,,,,,,,,,,,,,,,,,,,,,,,,,,,,,,,,,,,,,,,,
1739355550.801764,1739355550.803153,20.000000,1.000000,4165.585938,4162.765625,4246.208984,4057.252686,4179.871582,4237.912109,4166.831543,4261.336914,4166.611816,4177.655762,4453.461426,4206.758301,4308.260254,4398.974121,0.000000,0.000000,14.000000,,,,0.000000,4.000000,4.000000,4.000000,4.000000,4.000000,4.000000,4.000000,4.000000,4.000000,4.000000,4.000000,4.000000,4.000000,4.000000,100.000000,,,,,,,,,,,,,,,,,5.000000,1.000000,0.588992,0.244232,-0.657623,0.401062,0.958125,-0.191430,0.035405,-39.824993,-26.784048,45.296936,,,,,,,,,,,,,,,,,,,,,,,,,,,,,,,,,,,,,,,,,,,,,,,,,,,,,,,,,,,,,,,,,,,,,,,,,,,,,,,,,,,,,,,,,,,,,,,,,,,,,
1739355550.809573,1739355550.810961,21.000000,1.000000,4166.135742,4163.443359,4246.364258,4058.827881,4180.320313,4239.175781,4167.234375,4261.492676,4167.994629,4179.688477,4454.294922,4215.714355,4310.466797,4400.128418,0.000000,0.000000,14.000000,,,,0.000000,4.000000,4.000000,4.000000,4.000000,4.000000,4.000000,4.000000,4.000000,4.000000,4.000000,4.000000,4.000000,4.000000,4.000000,100.000000,,,,,,,,,,,,,,,,,,,,,,,,,,,,,,,,,,,,,,,,,,,,,,,,,,,,,,,,,,,,,,,,,,,,,,,,,,,,,,,,,,,,,,,,,,,,,,,,,,,,,,,,,,,,,,,,,,,,,,,,,,,,,,,,,
1739355550.817381,1739355550.818769,22.000000,1.000000,4166.685059,4164.121094,4246.520020,4060.402832,4180.769043,4240.439453,4167.637207,4261.648438,4169.377441,4181.721680,4455.128418,4224.670410,4312.673828,4401.282227,0.000000,0.000000,14.000000,,,,0.000000,4.000000,4.000000,4.000000,4.000000,4.000000,4.000000,4.000000,4.000000,4.000000,4.000000,4.000000,4.000000,4.000000,4.000000,100.000000,,,,,,,,,,,,,,,,,,,,,,,,,,,,,,,,,,,,,,,,,,,,,,,,,,,,,,,,,,,,,,,,,,,,,,,,,,,,,,,,,,,,,,,,,,,,,,,,,,,,,,,,,,,,,,,,,,,,,,,,,,,,,,,,,
1739355550.825189,1739355550.826577,23.000000,1.000000,4167.234375,4164.798340,4246.675781,4061.978027,4181.217773,4241.703125,4168.040527,4261.804199,4170.760254,4183.754395,4455.961426,4233.626465,4314.880859,4402.436035,0.000000,0.000000,14.000000,,,,0.000000,4.000000,4.000000,4.000000,4.000000,4.000000,4.000000,4.000000,4.000000,4.000000,4.000000,4.000000,4.000000,4.000000,4.000000,100.000000,,,,,,,,,,,,,,,,,,,,,,,,,,,,,,,,,,,,,,,,,,,,,,,,,,,,,,,,,,,,,,,,,,,,,,,,,,,,,,,,,,,,,,,,,,,,,,,,,,,,,,,,,,,,,,,,,,,,,,,,,,,,,,,,,
1739355550.832997,1739355550.834385,24.000000,1.000000,4167.783691,4165.476074,4246.831543,4063.553223,4181.666504,4242.966797,4168.443359,4261.959473,4172.143066,4185.787598,4456.794922,4242.582520,4317.087891,4403.589844,0.000000,0.000000,14.000000,,,,0.000000,4.000000,4.000000,4.000000,4.000000,4.000000,4.000000,4.000000,4.000000,4.000000,4.000000,4.000000,4.000000,4.000000,4.000000,100.000000,,,,,,,,,,,,,,,,,6.000000,1.000000,0.591576,0.247665,-0.655746,0.398254,0.959590,-0.179221,0.033818,-39.807671,-26.741486,45.297894,,,,,,,,,,,,,,,,,,,,,,,,,,,,,,,,5.377476,2.784770,0.799612,1.658945,2.671672,6.880149,4.477366,0.871465,1.328755,2.652232,1.501047,1.499280,0.644940,1.463672,2.033218,969.112854,126.847816,8.761256,2.270202,2.881607,2.232512,1.222952,0.956602,1.125478,1.990532,4.838070,1.203112,0.938379,1.060909,1.802859,1.077644,1.672554,1.340153,1.744523,2.363804,0.174506,0.200796,0.190224,0.231652,0.419548,2.828133,1.468395,0.773523,1.225514,2.164175,4.146133,1.742625,0.571403,1.641042,2.516094,34.450653,2.105085,0.921887,1.291824,2.317280,4.844334,2.314606,0.747678,2.048363,3.433312,3.816489,1.995060,0.483885,1.091117,2.019320,3.017381,2.069108,0.953323,1.708098,2.399586
1739355550.840805,1739355550.842193,25.000000,1.000000,4168.333496,4166.153809,4246.987305,4065.128174,4182.115234,4244.230957,4168.846191,4262.115234,4173.525879,4187.820313,4457.628418,4251.538574,4319.294922,4404.743652,0.000000,0.000000,14.000000,,,,0.000000,4.000000,4.000000,4.000000,4.000000,4.000000,4.000000,4.000000,4.000000,4.000000,4.000000,4.000000,4.000000,4.000000,4.000000,100.000000,,,,,,,,,,,,,,,,,,,,,,,,,,,,,,,,,,,,,,,,,,,,,,,,,,,,,,,,,,,,,,,,,,,,,,,,,,,,,,,,,,,,,,,,,,,,,,,,,,,,,,,,,,,,,,,,,,,,,,,,,,,,,,,,,
1739355550.848613,1739355550.850001,26.000000,1.000000,4168.882813,4166.831543,4247.143066,4066.703369,4182.563965,4245.494629,4169.249023,4262.270996,4174.908203,4189.853516,4458.461426,4260.494629,4321.501953,4405.897461,0.000000,0.000000,14.000000,,,,0.000000,4.000000,4.000000,4.000000,4.000000,4.000000,4.000000,4.000000,4.000000,4.000000,4.000000,4.000000,4.000000,4.000000,4.000000,100.000000,,,,,,,,,,,,,,,,,,,,,,,,,,,,,,,,,,,,,,,,,,,,,,,,,,,,,,,,,,,,,,,,,,,,,,,,,,,,,,,,,,,,,,,,,,,,,,,,,,,,,,,,,,,,,,,,,,,,,,,,,,,,,,,,,
1739355550.856421,1739355550.857809,27.000000,1.000000,4169.432129,4167.509277,4247.298340,4068.278320,4183.012695,4246.758301,4169.651855,4262.426758,4176.291016,4191.886230,4459.294922,4269.450684,4323.708984,4407.051270,0.000000,0.000000,14.000000,,,,0.000000,4.000000,4.000000,4.000000,4.000000,4.000000,4.000000,4.000000,4.000000,4.000000,4.000000,4.000000,4.000000,4.000000,4.000000,100.000000,,,,,,,,,,,,,,,,,,,,,,,,,,,,,,,,,,,,,,,,,,,,,,,,,,,,,,,,,,,,,,,,,,,,,,,,,,,,,,,,,,,,,,,,,,,,,,,,,,,,,,,,,,,,,,,,,,,,,,,,,,,,,,,,,
1739355550.864229,1739355550.865617,28.000000,1.000000,4169.981445,4168.187012,4247.454102,4069.853516,4183.461426,4248.021973,4170.055176,4262.582520,4177.673828,4193.919434,4460.128418,4278.406738,4325.915527,4408.205078,0.000000,0.000000,14.000000,,,,0.000000,4.000000,4.000000,4.000000,4.000000,4.000000,4.000000,4.000000,4.000000,4.000000,4.000000,4.000000,4.000000,4.000000,4.000000,100.000000,,,,,,,,,,,,,,,,,7.000000,0.000000,0.594160,0.251099,-0.653870,0.395447,0.961055,-0.167013,0.032230,-39.790344,-26.698923,45.298851,,,,,,,,,,,,,,,,,,,,,,,,,,,,,,,,,,,,,,,,,,,,,,,,,,,,,,,,,,,,,,,,,,,,,,,,,,,,,,,,,,,,,,,,,,,,,,,,,,,,,
1739355550.872037,1739355550.873425,29.000000,1.000000,4170.531250,4168.864258,4247.609863,4071.428467,4183.910156,4249.285645,4170.458008,4262.738281,4179.056641,4195.952148,4460.961426,4287.362793,4328.122559,4409.358887,0.000000,0.000000,14.000000,,,,0.000000,4.000000,4.000000,4.000000,4.000000,4.000000,4.000000,4.000000,4.000000,4.000000,4.000000,4.000000,4.000000,4.000000,4.000000,100.000000,,,,,,,,,,,,,,,,,,,,,,,,,,,,,,,,,,,,,,,,,,,,,,,,,,,,,,,,,,,,,,,,,,,,,,,,,,,,,,,,,,,,,,,,,,,,,,,,,,,,,,,,,,,,,,,,,,,,,,,,,,,,,,,,,
1739355550.879845,1739355550.881233,30.000000,1.000000,4171.080566,4169.541992,4247.765625,4073.003662,4184.358887,4250.549316,4170.860840,4262.893555,4180.439453,4197.985352,4461.794922,4296.318848,4330.329590,4410.512695,0.000000,0.000000,14.000000,,,,0.000000,4.000000,4.000000,4.000000,4.000000,4.000000,4.000000,4.000000,4.000000,4.000000,4.000000,4.000000,4.000000,4.000000,4.000000,100.000000,,,,,,,,,,,,,,,,,,,,,,,,,,,,,,,,,,,,,,,,,,,,,,,,,,,,,,,,,,,,,,,,,,,,,,,,,,,,,,,,,,,,,,,,,,,,,,,,,,,,,,,,,,,,,,,,,,,,,,,,,,,,,,,,,
1739355550.887653,1739355550.889041,31.000000,1.000000,4171.629883,4170.219727,4247.921387,4074.578857,4184.807617,4251.812988,4171.263672,4263.049316,4181.822266,4200.018555,4462.628418,4305.274902,4332.536621,4411.666504,0.000000,0.000000,14.000000,,,,0.000000,4.000000,4.000000,4.000000,4.000000,4.000000,4.000000,4.000000,4.000000,4.000000,4.000000,4.000000,4.000000,4.000000,4.000000,100.000000,,,,,,,,,,,,,,,,,,,,,,,,,,,,,,,,,,,,,,,,,,,,,,,,,,,,,,,,,,,,,,,,,,,,,,,,,,,,,,,,,,,,,,,,,,,,,,,,,,,,,,,,,,,,,,,,,,,,,,,,,,,,,,,,,
1739355550.895461,1739355550.896848,32.000000,0.000000,4172.179688,4170.897461,4248.077148,4076.153809,4185.256348,4253.077148,4171.666504,4263.205078,4183.205078,4202.051270,4463.461426,4314.230957,4334.743652,4412.820313,0.000000,0.000000,14.000000,,,,0.000000,4.000000,4.000000,4.000000,4.000000,4.000000,4.000000,4.000000,4.000000,4.000000,4.000000,4.000000,4.000000,4.000000,4.000000,100.000000,,,,,,,,,,,,,,,,,8.000000,0.000000,0.595671,0.251465,-0.652832,0.394653,0.984984,-0.166036,0.038579,-39.777977,-26.612364,45.235634,,,,,,,,,,,,,,,,,,,,,,,,,,,,,,,,,,,,,,,,,,,,,,,,,,,,,,,,,,,,,,,,,,,,,,,,,,,,,,,,,,,,,,,,,,,,,,,,,,,,,
1739355550.903270,1739355550.904656,33.000000,0.000000,4169.358887,4168.846191,4244.230957,4083.076904,4192.820313,4261.025879,4182.436035,4264.743652,4180.000000,4201.282227,4462.692383,4310.256348,4336.282227,4401.794922,0.000000,0.000000,14.000000,,,,0.000000,4.000000,4.000000,4.000000,4.000000,4.000000,4.000000,4.000000,4.000000,4.000000,4.000000,4.000000,4.000000,4.000000,4.000000,100.000000,,,,,,,,,,,,,,,,,,,,,,,,,,,,,,,,,,,,,,,,,,,,,,,,,,,,,,,,,,,,,,,,,,,,,,,,,,,,,,,,,,,,,,,,,,,,,,,,,,,,,,,,,,,,,,,,,,,,,,,,,,,,,,,,,
1739355550.911078,1739355550.912464,34.000000,0.000000,4173.846191,4172.692383,4248.717773,4096.922852,4204.871582,4273.589844,4197.436035,4267.820313,4177.307617,4201.666504,4465.128418,4317.948730,4335.512695,4408.717773,0.000000,0.000000,14.000000,,,,0.000000,4.000000,4.000000,4.000000,4.000000,4.000000,4.000000,4.000000,4.000000,4.000000,4.000000,4.000000,4.000000,4.000000,4.000000,100.000000,,,,,,,,,,,,,,,,,,,,,,,,,,,,,,,,,,,,,,,,,,,,,,,,,,,,,,,,,,,,,,,,,,,,,,,,,,,,,,,,,,,,,,,,,,,,,,,,,,,,,,,,,,,,,,,,,,,,,,,,,,,,,,,,,
1739355550.918886,1739355550.920272,35.000000,0.000000,4169.871582,4170.128418,4246.666504,4101.410156,4202.948730,4281.538574,4200.384766,4262.563965,4175.000000,4190.897461,4457.948730,4321.666504,4323.717773,4407.307617,0.000000,0.000000,14.000000,,,,0.000000,4.000000,4.000000,4.000000,4.000000,4.000000,4.000000,4.000000,4.000000,4.000000,4.000000,4.000000,4.000000,4.000000,4.000000,100.000000,,,,,,,,,,,,,,,,,,,,,,,,,,,,,,,,,,,,,,,,,,,,,,,,,,,,,,,,,,,,,,,,,,,,,,,,,,,,,,,,,,,,,,,,,,,,,,,,,,,,,,,,,,,,,,,,,,,,,,,,,,,,,,,,,
1739355550.926694,1739355550.928080,36.000000,0.000000,4156.410156,4167.179688,4233.333496,4096.794922,4188.333496,4273.205078,4186.666504,4258.717773,4166.282227,4180.384766,4445.641113,4311.282227,4311.538574,4389.871582,0.000000,0.000000,14.000000,,,,0.000000,4.000000,4.000000,4.000000,4.000000,4.000000,4.000000,4.000000,4.000000,4.000000,4.000000,4.000000,4.000000,4.000000,4.000000,100.000000,,,,,,,,,,,,,,,,,9.000000,0.000000,0.596932,0.252808,-0.651123,0.394714,0.987425,-0.187035,0.033696,-39.883514,-26.384460,45.378735,,,,,,,,,,,,,,,,,,,,,,,,,,,,,,,,,,,,,,,,,,,,,,,,,,,,,,,,,,,,,,,,,,,,,,,,,,,,,,,,,,,,,,,,,,,,,,,,,,,,,
1739355550.934502,1739355550.935888,37.000000,0.000000,4154.102539,4167.692383,4229.102539,4102.179688,4186.153809,4264.487305,4181.410156,4261.538574,4158.974121,4181.922852,4444.358887,4305.512695,4311.153809,4386.794922,0.000000,0.000000,14.000000,,,,0.000000,4.000000,4.000000,4.000000,4.000000,4.000000,4.000000,4.000000,4.000000,4.000000,4.000000,4.000000,4.000000,4.000000,4.000000,100.000000,,,,,,,,,,,,,,,,,,,,,,,,,,,,,,,,,,,,,,,,,,,,,,,,,,,,,,,,,,,,,,,,,,,,,,,,,,,,,,,,,,,,,,,,,,,,,,,,,,,,,,,,,,,,,,,,,,,,,,,,,,,,,,,,,
1739355550.942310,1739355550.943696,38.000000,0.000000,4156.025879,4160.769043,4232.307617,4106.025879,4191.538574,4265.897461,4184.487305,4257.307617,4158.205078,4176.410156,4445.384766,4305.512695,4309.871582,4388.461426,0.000000,0.000000,14.000000,,,,0.000000,4.000000,4.000000,4.000000,4.000000,4.000000,4.000000,4.000000,4.000000,4.000000,4.000000,4.000000,4.000000,4.000000,4.000000,100.000000,,,,,,,,,,,,,,,,,,,,,,,,,,,,,,,,,,,,,,,,,,,,,,,,,,,,,,,,,,,,,,,,,,,,,,,,,,,,,,,,,,,,,,,,,,,,,,,,,,,,,,,,,,,,,,,,,,,,,,,,,,,,,,,,,
1739355550.950118,1739355550.951504,39.000000,0.000000,4154.230957,4159.102539,4230.256348,4101.922852,4187.307617,4265.512695,4175.256348,4251.538574,4157.820313,4169.102539,4442.307617,4304.743652,4304.615234,4383.974121,0.000000,0.000000,14.000000,,,,0.000000,4.000000,4.000000,4.000000,4.000000,4.000000,4.000000,4.000000,4.000000,4.000000,4.000000,4.000000,4.000000,4.000000,4.000000,100.000000,,,,,,,,,,,,,,,,,,,,,,,,,,,,,,,,,,,,,,,,,,,,,,,,,,,,,,,,,,,,,,,,,,,,,,,,,,,,,,,,,,,,,,,,,,,,,,,,,,,,,,,,,,,,,,,,,,,,,,,,,,,,,,,,,
1739355550.957926,1739355550.959312,40.000000,0.000000,4159.871582,4167.307617,4234.358887,4103.205078,4179.358887,4258.333496,4164.871582,4256.538574,4156.922852,4175.769043,4445.384766,4312.307617,4310.128418,4393.461426,0.000000,0.000000,14.000000,,,,0.000000,4.000000,4.000000,4.000000,4.000000,4.000000,4.000000,4.000000,4.000000,4.000000,4.000000,4.000000,4.000000,4.000000,4.000000,100.000000,,,,,,,,,,,,,,,,,10.000000,0.000000,0.597008,0.254517,-0.649719,0.395813,0.951288,-0.238799,0.046881,-39.961830,-26.246014,45.357529,,,,,,,,,,,,,,,,,,,,,,,,,,,,,,,,3.279161,2.336328,0.980063,1.563968,2.488836,3.428212,3.071063,0.845218,1.218861,2.524941,0.984377,1.353447,0.739394,1.320893,1.895210,491.041412,66.335533,4.665335,1.689015,2.704211,1.233027,0.783683,0.896814,1.029178,1.903751,3.041708,0.956671,1.003872,0.985851,1.641938,0.699111,1.968126,1.529739,1.527854,2.087564,0.138859,0.188741,0.214939,0.238092,0.393103,1.899743,1.419932,0.799448,1.178601,2.002727,2.641204,1.561942,0.670237,1.633017,2.372899,18.323818,1.403093,0.806571,1.276489,2.168125,5.692741,2.272913,0.942140,2.008419,3.221804,2.426816,1.346806,0.544328,1.110280,1.837822,2.463202,1.795399,0.904188,1.614213,2.233161
1739355550.965734,1739355550.967120,41.000000,0.000000,4177.563965,4176.282227,4250.769043,4112.948730,4190.897461,4264.743652,4178.205078,4265.128418,4166.666504,4190.512695,4461.025879,4332.563965,4325.769043,4411.282227,0.000000,0.000000,14.000000,,,,0.000000,4.000000,4.000000,4.000000,4.000000,4.000000,4.000000,4.000000,4.000000,4.000000,4.000000,4.000000,4.000000,4.000000,4.000000,100.000000,,,,,,,,,,,,,,,,,,,,,,,,,,,,,,,,,,,,,,,,,,,,,,,,,,,,,,,,,,,,,,,,,,,,,,,,,,,,,,,,,,,,,,,,,,,,,,,,,,,,,,,,,,,,,,,,,,,,,,,,,,,,,,,,,
1739355550.973542,1739355550.974928,42.000000,0.000000,4176.282227,4171.282227,4250.256348,4110.769043,4202.051270,4272.948730,4186.025879,4262.692383,4173.974121,4193.333496,4462.563965,4332.692383,4328.333496,4407.179688,0.000000,0.000000,14.000000,,,,0.000000,4.000000,4.000000,4.000000,4.000000,4.000000,4.000000,4.000000,4.000000,4.000000,4.000000,4.000000,4.000000,4.000000,4.000000,100.000000,,,,,,,,,,,,,,,,,,,,,,,,,,,,,,,,,,,,,,,,,,,,,,,,,,,,,,,,,,,,,,,,,,,,,,,,,,,,,,,,,,,,,,,,,,,,,,,,,,,,,,,,,,,,,,,,,,,,,,,,,,,,,,,,,
1739355550.981350,1739355550.982636,43.000000,0.000000,4157.307617,4157.692383,4233.846191,4096.922852,4190.000000,4265.384766,4172.563965,4252.820313,4167.436035,4187.436035,4447.948730,4316.153809,4326.153809,4391.922852,0.000000,0.000000,14.000000,,,,0.000000,4.000000,4.000000,4.000000,4.000000,4.000000,4.000000,4.000000,4.000000,4.000000,4.000000,4.000000,4.000000,4.000000,4.000000,100.000000,,,,,,,,,,,,,,,,,,,,,,,,,,,,,,,,,,,,,,,,,,,,,,,,,,,,,,,,,,,,,,,,,,,,,,,,,,,,,,,,,,,,,,,,,,,,,,,,,,,,,,,,,,,,,,,,,,,,,,,,,,,,,,,,,
1739355550.989159,1739355550.990444,44.000000,0.000000,4151.025879,4153.333496,4226.666504,4095.384521,4179.871582,4260.000000,4165.256348,4249.230957,4157.948730,4182.563965,4443.205078,4307.051270,4325.641113,4386.794922,0.000000,0.000000,14.000000,,,,0.000000,4.000000,4.000000,4.000000,4.000000,4.000000,4.000000,4.000000,4.000000,4.000000,4.000000,4.000000,4.000000,4.000000,4.000000,100.000000,,,,,,,,,,,,,,,,,11.000000,0.000000,0.597048,0.255371,-0.648376,0.397400,0.972775,-0.282261,0.057624,-39.815647,-26.004745,45.338444,,,,,,,,,,,,,,,,,,,,,,,,,,,,,,,,,,,,,,,,,,,,,,,,,,,,,,,,,,,,,,,,,,,,,,,,,,,,,,,,,,,,,,,,,,,,,,,,,,,,,
1739355550.996966,1739355550.998152,45.000000,0.000000,4152.820313,4154.102539,4221.282227,4101.922852,4183.717773,4262.820313,4170.512695,4249.871582,4148.717773,4175.000000,4443.974121,4301.410156,4314.358887,4382.179688,0.000000,0.000000,14.000000,,,,0.000000,4.000000,4.000000,4.000000,4.000000,4.000000,4.000000,4.000000,4.000000,4.000000,4.000000,4.000000,4.000000,4.000000,4.000000,100.000000,,,,,,,,,,,,,,,,,,,,,,,,,,,,,,,,,,,,,,,,,,,,,,,,,,,,,,,,,,,,,,,,,,,,,,,,,,,,,,,,,,,,,,,,,,,,,,,,,,,,,,,,,,,,,,,,,,,,,,,,,,,,,,,,,
1739355551.004775,1739355551.005960,46.000000,0.000000,4150.000000,4153.589844,4213.717773,4104.615234,4183.461426,4261.153809,4174.871582,4251.410156,4142.948730,4164.871582,4439.871582,4298.205078,4307.563965,4379.487305,0.000000,0.000000,14.000000,,,,0.000000,4.000000,4.000000,4.000000,4.000000,4.000000,4.000000,4.000000,4.000000,4.000000,4.000000,4.000000,4.000000,4.000000,4.000000,100.000000,,,,,,,,,,,,,,,,,,,,,,,,,,,,,,,,,,,,,,,,,,,,,,,,,,,,,,,,,,,,,,,,,,,,,,,,,,,,,,,,,,,,,,,,,,,,,,,,,,,,,,,,,,,,,,,,,,,,,,,,,,,,,,,,,
1739355551.012583,1739355551.013768,47.000000,0.000000,4151.538574,4159.102539,4221.282227,4110.897461,4183.205078,4264.615234,4181.794922,4256.666504,4149.358887,4165.641113,4447.051270,4310.128418,4319.743652,4387.820313,0.000000,0.000000,14.000000,,,,0.000000,4.000000,4.000000,4.000000,4.000000,4.000000,4.000000,4.000000,4.000000,4.000000,4.000000,4.000000,4.000000,4.000000,4.000000,100.000000,,,,,,,,,,,,,,,,,,,,,,,,,,,,,,,,,,,,,,,,,,,,,,,,,,,,,,,,,,,,,,,,,,,,,,,,,,,,,,,,,,,,,,,,,,,,,,,,,,,,,,,,,,,,,,,,,,,,,,,,,,,,,,,,,
1739355551.020391,1739355551.021576,48.000000,0.000000,4160.000000,4166.538574,4232.563965,4118.974121,4192.692383,4273.461426,4188.333496,4261.282227,4159.230957,4175.384766,4462.307617,4323.974121,4327.307617,4393.077148,0.000000,0.000000,14.000000,,,,0.000000,4.000000,4.000000,4.000000,4.000000,4.000000,4.000000,4.000000,4.000000,4.000000,4.000000,4.000000,4.000000,4.000000,4.000000,100.000000,,,,,,,,,,,,,,,,,12.000000,0.000000,0.597025,0.253540,-0.647766,0.399597,1.035771,-0.315468,0.032230,-39.934082,-25.870939,45.321266,,,,,,,,,,,,,,,,,,,,,,,,,,,,,,,,,,,,,,,,,,,,,,,,,,,,,,,,,,,,,,,,,,,,,,,,,,,,,,,,,,,,,,,,,,,,,,,,,,,,,
1739355551.028199,1739355551.029384,49.000000,0.000000,4158.974121,4158.461426,4224.743652,4113.077148,4186.153809,4268.717773,4179.487305,4259.871582,4158.461426,4175.512695,4459.615234,4318.846191,4314.487305,4387.692383,0.000000,0.000000,14.000000,,,,0.000000,4.000000,4.000000,4.000000,4.000000,4.000000,4.000000,4.000000,4.000000,4.000000,4.000000,4.000000,4.000000,4.000000,4.000000,100.000000,,,,,,,,,,,,,,,,,,,,,,,,,,,,,,,,,,,,,,,,,,,,,,,,,,,,,,,,,,,,,,,,,,,,,,,,,,,,,,,,,,,,,,,,,,,,,,,,,,,,,,,,,,,,,,,,,,,,,,,,,,,,,,,,,
1739355551.036007,1739355551.037192,50.000000,0.000000,4147.820313,4147.820313,4212.563965,4098.333496,4168.077148,4256.410156,4166.410156,4259.358887,4155.641113,4165.641113,4447.179688,4305.769043,4305.000000,4382.179688,0.000000,0.000000,14.000000,,,,0.000000,4.000000,4.000000,4.000000,4.000000,4.000000,4.000000,4.000000,4.000000,4.000000,4.000000,4.000000,4.000000,4.000000,4.000000,100.000000,,,,,,,,,,,,,,,,,,,,,,,,,,,,,,,,,,,,,,,,,,,,,,,,,,,,,,,,,,,,,,,,,,,,,,,,,,,,,,,,,,,,,,,,,,,,,,,,,,,,,,,,,,,,,,,,,,,,,,,,,,,,,,,,,
1739355551.043815,1739355551.044900,51.000000,0.000000,4154.358887,4157.436035,4223.333496,4103.461426,4177.436035,4259.358887,4172.179688,4262.948730,4169.358887,4170.641113,4455.512695,4313.333496,4316.410156,4387.820313,0.000000,0.000000,14.000000,,,,0.000000,4.000000,4.000000,4.000000,4.000000,4.000000,4.000000,4.000000,4.000000,4.000000,4.000000,4.000000,4.000000,4.000000,4.000000,100.000000,,,,,,,,,,,,,,,,,,,,,,,,,,,,,,,,,,,,,,,,,,,,,,,,,,,,,,,,,,,,,,,,,,,,,,,,,,,,,,,,,,,,,,,,,,,,,,,,,,,,,,,,,,,,,,,,,,,,,,,,,,,,,,,,,
1739355551.051623,1739355551.052708,52.000000,0.000000,4178.205078,4175.769043,4246.794922,4125.128418,4203.333496,4276.410156,4193.589844,4265.000000,4189.102539,4196.538574,4478.205078,4342.179688,4336.410156,4402.948730,0.000000,0.000000,14.000000,,,,0.000000,4.000000,4.000000,4.000000,4.000000,4.000000,4.000000,4.000000,4.000000,4.000000,4.000000,4.000000,4.000000,4.000000,4.000000,100.000000,,,,,,,,,,,,,,,,,13.000000,0.000000,0.595400,0.250977,-0.649353,0.401062,1.031376,-0.326700,-0.002442,-39.957340,-25.783844,45.422474,,,,,,,,,,,,,,,,,,,,,,,,,,,,,,,,,,,,,,,,,,,,,,,,,,,,,,,,,,,,,,,,,,,,,,,,,,,,,,,,,,,,,,,,,,,,,,,,,,,,,
1739355551.059431,1739355551.060416,53.000000,0.000000,4180.769043,4176.794922,4247.948730,4123.717773,4202.692383,4282.179688,4200.128418,4261.153809,4188.717773,4205.769043,4478.589844,4346.794922,4335.256348,4403.846191,0.000000,0.000000,14.000000,,,,0.000000,4.000000,4.000000,4.000000,4.000000,4.000000,4.000000,4.000000,4.000000,4.000000,4.000000,4.000000,4.000000,4.000000,4.000000,100.000000,,,,,,,,,,,,,,,,,,,,,,,,,,,,,,,,,,,,,,,,,,,,,,,,,,,,,,,,,,,,,,,,,,,,,,,,,,,,,,,,,,,,,,,,,,,,,,,,,,,,,,,,,,,,,,,,,,,,,,,,,,,,,,,,,
1739355551.067239,1739355551.068224,54.000000,0.000000,4165.128418,4166.025879,4236.410156,4105.000000,4188.205078,4274.871582,4192.436035,4255.256348,4178.589844,4193.974121,4464.615234,4324.230957,4320.897461,4392.051270,0.000000,0.000000,14.000000,,,,0.000000,4.000000,4.000000,4.000000,4.000000,4.000000,4.000000,4.000000,4.000000,4.000000,4.000000,4.000000,4.000000,4.000000,4.000000,100.000000,,,,,,,,,,,,,,,,,,,,,,,,,,,,,,,,,,,,,,,,,,,,,,,,,,,,,,,,,,,,,,,,,,,,,,,,,,,,,,,,,,,,,,,,,,,,,,,,,,,,,,,,,,,,,,,,,,,,,,,,,,,,,,,,,
1739355551.075047,1739355551.075932,55.000000,0.000000,4172.436035,4173.846191,4246.282227,4108.974121,4200.769043,4280.641113,4199.230957,4258.205078,4184.230957,4202.948730,4474.871582,4329.102539,4327.179688,4398.846191,0.000000,0.000000,14.000000,,,,0.000000,4.000000,4.000000,4.000000,4.000000,4.000000,4.000000,4.000000,4.000000,4.000000,4.000000,4.000000,4.000000,4.000000,4.000000,100.000000,,,,,,,,,,,,,,,,,,,,,,,,,,,,,,,,,,,,,,,,,,,,,,,,,,,,,,,,,,,,,,,,,,,,,,,,,,,,,,,,,,,,,,,,,,,,,,,,,,,,,,,,,,,,,,,,,,,,,,,,,,,,,,,,,
1739355551.082855,1739355551.083840,56.000000,0.000000,4188.333496,4188.205078,4261.282227,4126.025879,4214.230957,4293.974121,4209.487305,4265.897461,4190.384766,4219.871582,4493.461426,4347.436035,4338.205078,4413.717773,0.000000,0.000000,14.000000,,,,0.000000,4.000000,4.000000,4.000000,4.000000,4.000000,4.000000,4.000000,4.000000,4.000000,4.000000,4.000000,4.000000,4.000000,4.000000,100.000000,,,,,,,,,,,,,,,,,14.000000,0.000000,0.591684,0.249390,-0.653198,0.401306,0.911732,-0.329630,-0.015627,-39.778271,-25.905460,45.330223,,,,,,,,,,,,,,,,,,,,,,,,,,,,,,,,2.114419,1.912715,1.390397,1.438269,2.252250,1.535187,1.920092,1.024834,1.082885,2.322734,0.775235,1.187070,1.031027,1.194544,1.726367,184.763382,26.425133,2.518821,1.300476,2.439201,0.690179,0.481963,0.964370,0.957178,1.741928,2.020941,0.776517,1.142362,0.939698,1.447103,0.702867,2.178352,1.812471,1.362772,1.824464,0.153426,0.166676,0.238556,0.235330,0.358359,1.462029,1.447464,0.890430,1.167250,1.792289,1.930695,1.514465,0.913714,1.617643,2.173133,7.793225,1.001356,0.883515,1.261174,1.956885,6.951886,2.140167,1.444848,1.939675,2.918945,1.642314,0.935279,0.769013,1.104252,1.604069,2.139991,1.449849,1.057540,1.462088,2.039588
1739355551.090664,1739355551.091648,57.000000,0.000000,4184.358887,4181.410156,4256.153809,4126.794922,4205.384766,4294.358887,4206.922852,4265.000000,4186.794922,4208.077148,4487.051270,4336.922852,4332.307617,4407.563965,0.000000,0.000000,14.000000,,,,0.000000,4.000000,4.000000,4.000000,4.000000,4.000000,4.000000,4.000000,4.000000,4.000000,4.000000,4.000000,4.000000,4.000000,4.000000,100.000000,,,,,,,,,,,,,,,,,,,,,,,,,,,,,,,,,,,,,,,,,,,,,,,,,,,,,,,,,,,,,,,,,,,,,,,,,,,,,,,,,,,,,,,,,,,,,,,,,,,,,,,,,,,,,,,,,,,,,,,,,,,,,,,,,
1739355551.098472,1739355551.099556,58.000000,0.000000,4169.230957,4169.615234,4244.358887,4118.205078,4200.384766,4287.948730,4201.922852,4262.307617,4181.538574,4186.153809,4473.717773,4311.282227,4320.512695,4392.820313,0.000000,0.000000,14.000000,,,,0.000000,4.000000,4.000000,4.000000,4.000000,4.000000,4.000000,4.000000,4.000000,4.000000,4.000000,4.000000,4.000000,4.000000,4.000000,100.000000,,,,,,,,,,,,,,,,,,,,,,,,,,,,,,,,,,,,,,,,,,,,,,,,,,,,,,,,,,,,,,,,,,,,,,,,,,,,,,,,,,,,,,,,,,,,,,,,,,,,,,,,,,,,,,,,,,,,,,,,,,,,,,,,,
1739355551.106280,1739355551.107364,59.000000,0.000000,4157.436035,4167.307617,4236.538574,4110.384766,4196.282227,4283.589844,4201.282227,4265.128418,4173.077148,4180.000000,4473.205078,4298.205078,4316.025879,4388.717773,0.000000,0.000000,14.000000,,,,0.000000,4.000000,4.000000,4.000000,4.000000,4.000000,4.000000,4.000000,4.000000,4.000000,4.000000,4.000000,4.000000,4.000000,4.000000,100.000000,,,,,,,,,,,,,,,,,,,,,,,,,,,,,,,,,,,,,,,,,,,,,,,,,,,,,,,,,,,,,,,,,,,,,,,,,,,,,,,,,,,,,,,,,,,,,,,,,,,,,,,,,,,,,,,,,,,,,,,,,,,,,,,,,
1739355551.114088,1739355551.115272,60.000000,0.000000,4160.128418,4168.717773,4234.102539,4112.051270,4184.743652,4280.641113,4201.794922,4266.538574,4173.846191,4186.538574,4476.922852,4301.794922,4318.846191,4393.077148,0.000000,0.000000,14.000000,,,,0.000000,4.000000,4.000000,4.000000,4.000000,4.000000,4.000000,4.000000,4.000000,4.000000,4.000000,4.000000,4.000000,4.000000,4.000000,100.000000,,,,,,,,,,,,,,,,,15.000000,0.000000,0.589791,0.248230,-0.655273,0.401428,0.949335,-0.291539,-0.019045,-39.717113,-25.914913,45.297203,,,,,,,,,,,,,,,,,,,,,,,,,,,,,,,,,,,,,,,,,,,,,,,,,,,,,,,,,,,,,,,,,,,,,,,,,,,,,,,,,,,,,,,,,,,,,,,,,,,,,
1739355551.121896,1739355551.123080,61.000000,0.000000,4168.333496,4166.794922,4239.230957,4119.871582,4180.897461,4273.205078,4195.384766,4263.974121,4186.025879,4191.666504,4477.307617,4307.820313,4321.410156,4398.461426,0.000000,0.000000,14.000000,,,,0.000000,4.000000,4.000000,4.000000,4.000000,4.000000,4.000000,4.000000,4.000000,4.000000,4.000000,4.000000,4.000000,4.000000,4.000000,100.000000,,,,,,,,,,,,,,,,,,,,,,,,,,,,,,,,,,,,,,,,,,,,,,,,,,,,,,,,,,,,,,,,,,,,,,,,,,,,,,,,,,,,,,,,,,,,,,,,,,,,,,,,,,,,,,,,,,,,,,,,,,,,,,,,,
1739355551.129704,1739355551.130988,62.000000,0.000000,4170.897461,4166.922852,4247.692383,4123.974121,4188.205078,4266.538574,4187.820313,4265.512695,4187.563965,4190.641113,4479.487305,4310.384766,4323.461426,4409.615234,0.000000,0.000000,14.000000,,,,0.000000,4.000000,4.000000,4.000000,4.000000,4.000000,4.000000,4.000000,4.000000,4.000000,4.000000,4.000000,4.000000,4.000000,4.000000,100.000000,,,,,,,,,,,,,,,,,,,,,,,,,,,,,,,,,,,,,,,,,,,,,,,,,,,,,,,,,,,,,,,,,,,,,,,,,,,,,,,,,,,,,,,,,,,,,,,,,,,,,,,,,,,,,,,,,,,,,,,,,,,,,,,,,
1739355551.137512,1739355551.138796,63.000000,0.000000,4171.410156,4169.230957,4247.179688,4127.692383,4189.102539,4263.846191,4186.282227,4264.358887,4173.077148,4182.948730,4484.102539,4308.974121,4331.794922,4418.077148,0.000000,0.000000,14.000000,,,,0.000000,4.000000,4.000000,4.000000,4.000000,4.000000,4.000000,4.000000,4.000000,4.000000,4.000000,4.000000,4.000000,4.000000,4.000000,100.000000,,,,,,,,,,,,,,,,,,,,,,,,,,,,,,,,,,,,,,,,,,,,,,,,,,,,,,,,,,,,,,,,,,,,,,,,,,,,,,,,,,,,,,,,,,,,,,,,,,,,,,,,,,,,,,,,,,,,,,,,,,,,,,,,,
1739355551.145320,1739355551.146704,64.000000,0.000000,4158.846191,4160.000000,4227.436035,4119.358887,4169.871582,4244.743652,4167.820313,4252.179688,4152.820313,4165.641113,4471.410156,4289.487305,4329.743652,4400.384766,5061.000000,0.000000,14.000000,,,,0.000000,4.000000,4.000000,4.000000,4.000000,4.000000,4.000000,4.000000,4.000000,4.000000,4.000000,4.000000,4.000000,4.000000,4.000000,100.000000,,,,,,,,,,,,,,,,,16.000000,0.000000,0.586935,0.245117,-0.658813,0.401733,0.914174,-0.326212,-0.028324,-39.695400,-25.923422,45.350815,,,,,,,,,,,,,,,,,,,,,,,,,,,,,,,,,,,,,,,,,,,,,,,,,,,,,,,,,,,,,,,,,,,,,,,,,,,,,,,,,,,,,,,,,,,,,,,,,,,,,
1739355551.153128,1739355551.154512,65.000000,0.000000,4151.666504,4155.256348,4219.358887,4114.230957,4163.974121,4230.769043,4150.897461,4248.846191,4147.563965,4162.948730,4462.307617,4277.179688,4322.563965,4385.128418,5549.000000,0.000000,14.000000,,,,0.000000,4.000000,4.000000,4.000000,4.000000,4.000000,4.000000,4.000000,4.000000,4.000000,4.000000,4.000000,4.000000,4.000000,4.000000,100.000000,,,,,,,,,,,,,,,,,,,,,,,,,,,,,,,,,,,,,,,,,,,,,,,,,,,,,,,,,,,,,,,,,,,,,,,,,,,,,,,,,,,,,,,,,,,,,,,,,,,,,,,,,,,,,,,,,,,,,,,,,,,,,,,,,
1739355551.160936,1739355551.162220,66.000000,0.000000,4173.205078,4176.410156,4242.051270,4140.897461,4187.948730,4249.871582,4172.948730,4260.384766,4165.769043,4184.743652,4485.256348,4302.820313,4337.948730,4405.256348,5562.000000,0.000000,14.000000,,,,0.000000,4.000000,4.000000,4.000000,4.000000,4.000000,4.000000,4.000000,4.000000,4.000000,4.000000,4.000000,4.000000,4.000000,4.000000,100.000000,,,,,,,,,,,,,,,,,,,,,,,,,,,,,,,,,,,,,,,,,,,,,,,,,,,,,,,,,,,,,,,,,,,,,,,,,,,,,,,,,,,,,,,,,,,,,,,,,,,,,,,,,,,,,,,,,,,,,,,,,,,,,,,,,
1739355551.168744,1739355551.170028,67.000000,0.000000,4185.641113,4196.410156,4254.358887,4161.282227,4199.230957,4261.538574,4189.358887,4263.333496,4173.333496,4191.282227,4494.615234,4319.615234,4353.461426,4418.461426,5504.000000,0.000000,14.000000,,,,0.000000,4.000000,4.000000,4.000000,4.000000,4.000000,4.000000,4.000000,4.000000,4.000000,4.000000,4.000000,4.000000,4.000000,4.000000,100.000000,,,,,,,,,,,,,,,,,,,,,,,,,,,,,,,,,,,,,,,,,,,,,,,,,,,,,,,,,,,,,,,,,,,,,,,,,,,,,,,,,,,,,,,,,,,,,,,,,,,,,,,,,,,,,,,,,,,,,,,,,,,,,,,,,
1739355551.176552,1739355551.177736,68.000000,0.000000,4167.051270,4181.538574,4243.333496,4143.846191,4185.000000,4246.666504,4177.563965,4259.615234,4165.128418,4179.487305,4473.461426,4305.128418,4340.384766,4401.922852,5472.000000,0.000000,14.000000,,,,0.000000,4.000000,4.000000,4.000000,4.000000,4.000000,4.000000,4.000000,4.000000,4.000000,4.000000,4.000000,4.000000,4.000000,4.000000,100.000000,,,,,,,,,,,,,,,,,17.000000,0.000000,0.584240,0.242737,-0.661377,0.402893,0.970333,-0.251496,-0.029300,-39.792526,-25.964415,45.199066,,,,,,,,,,,,,,,,,,,,,,,,,,,,,,,,,,,,,,,,,,,,,,,,,,,,,,,,,,,,,,,,,,,,,,,,,,,,,,,,,,,,,,,,,,,,,,,,,,,,,
1739355551.184361,1739355551.185544,69.000000,0.000000,4163.077148,4168.333496,4244.358887,4136.025879,4183.974121,4245.641113,4181.922852,4261.794922,4172.179688,4180.384766,4470.769043,4305.641113,4334.743652,4395.897461,5445.000000,0.000000,14.000000,,,,0.000000,4.000000,4.000000,4.000000,4.000000,4.000000,4.000000,4.000000,4.000000,4.000000,4.000000,4.000000,4.000000,4.000000,4.000000,100.000000,,,,,,,,,,,,,,,,,,,,,,,,,,,,,,,,,,,,,,,,,,,,,,,,,,,,,,,,,,,,,,,,,,,,,,,,,,,,,,,,,,,,,,,,,,,,,,,,,,,,,,,,,,,,,,,,,,,,,,,,,,,,,,,,,
1739355551.192169,1739355551.193252,70.000000,0.000000,4172.820313,4184.102539,4245.897461,4146.794922,4190.128418,4247.820313,4191.282227,4259.102539,4173.205078,4174.615234,4476.538574,4309.230957,4343.589844,4396.922852,5419.000000,0.000000,14.000000,,,,0.000000,4.000000,4.000000,4.000000,4.000000,4.000000,4.000000,4.000000,4.000000,4.000000,4.000000,4.000000,4.000000,4.000000,4.000000,100.000000,,,,,,,,,,,,,,,,,,,,,,,,,,,,,,,,,,,,,,,,,,,,,,,,,,,,,,,,,,,,,,,,,,,,,,,,,,,,,,,,,,,,,,,,,,,,,,,,,,,,,,,,,,,,,,,,,,,,,,,,,,,,,,,,,
1739355551.199977,1739355551.201060,71.000000,0.000000,4184.358887,4199.871582,4243.717773,4149.743652,4184.358887,4241.794922,4189.102539,4258.077148,4168.205078,4173.077148,4475.897461,4309.615234,4355.128418,4401.538574,2127.000000,0.000000,14.000000,,,,0.000000,4.000000,4.000000,4.000000,4.000000,4.000000,4.000000,4.000000,4.000000,4.000000,4.000000,4.000000,4.000000,4.000000,4.000000,100.000000,,,,,,,,,,,,,,,,,,,,,,,,,,,,,,,,,,,,,,,,,,,,,,,,,,,,,,,,,,,,,,,,,,,,,,,,,,,,,,,,,,,,,,,,,,,,,,,,,,,,,,,,,,,,,,,,,,,,,,,,,,,,,,,,,
1739355551.207785,1739355551.208768,72.000000,0.000000,4218.077148,4209.230957,4259.102539,4157.820313,4187.051270,4243.077148,4192.436035,4262.307617,4182.692383,4197.436035,4495.384766,4338.846191,4379.743652,4436.538574,5223.000000,0.000000,14.000000,,,,0.000000,4.000000,4.000000,4.000000,4.000000,4.000000,4.000000,4.000000,4.000000,4.000000,4.000000,4.000000,4.000000,4.000000,4.000000,100.000000,0.949219,16.666666,1.000000,3.000000,1.000000,0.000000,3.000000,1.000000,1.000000,4.000000,4.000000,3.000000,1.000000,1.000000,4.000000,3.000000,18.000000,0.000000,0.581115,0.240051,-0.663391,0.405701,0.957148,-0.211940,-0.012697,-39.763275,-26.101305,45.262493,,,,,,,,,,,,,,,,,,,,,,,,,,,,,,,,1.661878,1.571690,1.908211,1.264310,1.954232,0.935581,1.181217,1.357901,0.919217,2.035637,0.743550,1.057604,1.450819,1.063021,1.516468,44.817993,7.584795,1.988145,1.045332,2.102242,0.585485,0.331441,1.133888,0.897463,1.512700,1.785290,0.677630,1.299162,0.905297,1.226936,1.018008,2.299841,2.069996,1.244933,1.564071,0.211581,0.141420,0.260407,0.219693,0.315824,1.391419,1.519055,1.022366,1.144342,1.541916,1.864839,1.582943,1.255507,1.547159,1.916504,2.713987,0.897680,1.080779,1.209607,1.693892,8.900488,1.976883,2.125862,1.797283,2.525388,1.372284,0.771984,1.127968,1.041894,1.336877,1.959043,1.109318,1.362085,1.247730,1.808340
1739355551.215593,1739355551.216576,73.000000,0.000000,4263.077148,4234.230957,4278.205078,4177.179688,4198.974121,4239.871582,4192.948730,4255.256348,4187.436035,4200.384766,4517.563965,4368.717773,4405.256348,4484.102539,5569.000000,0.000000,14.000000,,,,0.000000,4.000000,4.000000,4.000000,4.000000,4.000000,4.000000,4.000000,4.000000,4.000000,4.000000,4.000000,4.000000,4.000000,4.000000,100.000000,,,,,,,,,,,,,,,,,,,,,,,,,,,,,,,,,,,,,,,,,,,,,,,,,,,,,,,,,,,,,,,,,,,,,,,,,,,,,,,,,,,,,,,,,,,,,,,,,,,,,,,,,,,,,,,,,,,,,,,,,,,,,,,,,
1739355551.223401,1739355551.224284,74.000000,0.000000,4308.717773,4270.000000,4291.794922,4197.563965,4202.948730,4232.307617,4184.871582,4250.128418,4182.563965,4193.077148,4528.974121,4387.436035,4430.769043,4525.641113,4832.000000,0.000000,14.000000,,,,0.000000,4.000000,4.000000,4.000000,4.000000,4.000000,4.000000,4.000000,4.000000,4.000000,4.000000,4.000000,4.000000,4.000000,4.000000,100.000000,,,,,,,,,,,,,,,,,,,,,,,,,,,,,,,,,,,,,,,,,,,,,,,,,,,,,,,,,,,,,,,,,,,,,,,,,,,,,,,,,,,,,,,,,,,,,,,,,,,,,,,,,,,,,,,,,,,,,,,,,,,,,,,,,
1739355551.231209,1739355551.232192,75.000000,0.000000,4342.820313,4279.871582,4298.205078,4204.487305,4193.974121,4225.641113,4173.461426,4251.666504,4188.974121,4202.436035,4538.205078,4404.743652,4455.128418,4553.717773,5430.000000,0.000000,14.000000,,,,0.000000,4.000000,4.000000,4.000000,4.000000,4.000000,4.000000,4.000000,4.000000,4.000000,4.000000,4.000000,4.000000,4.000000,4.000000,100.000000,,,,,,,,,,,,,,,,,,,,,,,,,,,,,,,,,,,,,,,,,,,,,,,,,,,,,,,,,,,,,,,,,,,,,,,,,,,,,,,,,,,,,,,,,,,,,,,,,,,,,,,,,,,,,,,,,,,,,,,,,,,,,,,,,
1739355551.239017,1739355551.240000,76.000000,0.000000,4361.922852,4284.871582,4302.692383,4210.128418,4191.282227,4221.153809,4169.487305,4249.743652,4187.563965,4201.922852,4545.384766,4416.282227,4469.743652,4567.692383,5283.000000,0.000000,14.000000,,,,0.000000,4.000000,4.000000,4.000000,4.000000,4.000000,4.000000,4.000000,4.000000,4.000000,4.000000,4.000000,4.000000,4.000000,4.000000,100.000000,,,,,,,,,,,,,,,,,19.000000,0.000000,0.577026,0.235901,-0.665894,0.409851,0.958125,-0.227567,-0.008302,-39.653614,-26.274509,45.402912,,,,,,,,,,,,,,,,,,,,,,,,,,,,,,,,,,,,,,,,,,,,,,,,,,,,,,,,,,,,,,,,,,,,,,,,,,,,,,,,,,,,,,,,,,,,,,,,,,,,,
1739355551.246825,1739355551.247808,77.000000,0.000000,4384.615234,4308.717773,4319.487305,4227.563965,4204.102539,4226.025879,4183.077148,4256.410156,4183.333496,4204.102539,4558.077148,4435.256348,4483.974121,4586.538574,6472.000000,0.000000,14.000000,,,,0.000000,4.000000,4.000000,4.000000,4.000000,4.000000,4.000000,4.000000,4.000000,4.000000,4.000000,4.000000,4.000000,4.000000,4.000000,100.000000,,,,,,,,,,,,,,,,,,,,,,,,,,,,,,,,,,,,,,,,,,,,,,,,,,,,,,,,,,,,,,,,,,,,,,,,,,,,,,,,,,,,,,,,,,,,,,,,,,,,,,,,,,,,,,,,,,,,,,,,,,,,,,,,,
1739355551.254633,1739355551.255516,78.000000,0.000000,4399.358887,4314.871582,4331.666504,4228.333496,4208.077148,4230.769043,4188.717773,4261.794922,4185.897461,4211.025879,4566.922852,4453.333496,4488.974121,4598.205078,4832.000000,0.000000,14.000000,,,,0.000000,4.000000,4.000000,4.000000,4.000000,4.000000,4.000000,4.000000,4.000000,4.000000,4.000000,4.000000,4.000000,4.000000,4.000000,100.000000,,,,,,,,,,,,,,,,,,,,,,,,,,,,,,,,,,,,,,,,,,,,,,,,,,,,,,,,,,,,,,,,,,,,,,,,,,,,,,,,,,,,,,,,,,,,,,,,,,,,,,,,,,,,,,,,,,,,,,,,,,,,,,,,,
1739355551.262441,1739355551.263324,79.000000,0.000000,4377.948730,4287.436035,4313.333496,4203.846191,4197.948730,4222.948730,4171.410156,4252.563965,4182.436035,4204.358887,4555.897461,4445.256348,4478.589844,4576.666504,5430.000000,0.000000,14.000000,,,,0.000000,4.000000,4.000000,4.000000,4.000000,4.000000,4.000000,4.000000,4.000000,4.000000,4.000000,4.000000,4.000000,4.000000,4.000000,100.000000,,,,,,,,,,,,,,,,,,,,,,,,,,,,,,,,,,,,,,,,,,,,,,,,,,,,,,,,,,,,,,,,,,,,,,,,,,,,,,,,,,,,,,,,,,,,,,,,,,,,,,,,,,,,,,,,,,,,,,,,,,,,,,,,,
1739355551.270249,1739355551.271032,80.000000,0.000000,4347.948730,4266.153809,4296.025879,4190.641113,4193.205078,4215.769043,4169.615234,4252.692383,4187.692383,4206.922852,4552.179688,4433.717773,4473.846191,4554.230957,5283.000000,0.000000,14.000000,,,,0.000000,4.000000,4.000000,4.000000,4.000000,4.000000,4.000000,4.000000,4.000000,4.000000,4.000000,4.000000,4.000000,4.000000,4.000000,100.000000,,,,,,,,,,,,,,,,,20.000000,0.000000,0.571947,0.230225,-0.669495,0.414307,0.950311,-0.222683,0.004883,-39.704918,-26.313725,45.245953,,,,,,,,,,,,,,,,,,,,,,,,,,,,,,,,,,,,,,,,,,,,,,,,,,,,,,,,,,,,,,,,,,,,,,,,,,,,,,,,,,,,,,,,,,,,,,,,,,,,,
1739355551.278057,1739355551.278840,81.000000,0.000000,4350.384766,4278.333496,4306.282227,4202.948730,4203.077148,4224.487305,4190.897461,4266.282227,4202.820313,4219.230957,4568.717773,4447.051270,4478.974121,4560.641113,6472.000000,0.000000,14.000000,,,,0.000000,4.000000,4.000000,4.000000,4.000000,4.000000,4.000000,4.000000,4.000000,4.000000,4.000000,4.000000,4.000000,4.000000,4.000000,100.000000,,,,,,,,,,,,,,,,,,,,,,,,,,,,,,,,,,,,,,,,,,,,,,,,,,,,,,,,,,,,,,,,,,,,,,,,,,,,,,,,,,,,,,,,,,,,,,,,,,,,,,,,,,,,,,,,,,,,,,,,,,,,,,,,,
1739355551.285866,1739355551.286548,82.000000,0.000000,4362.948730,4288.333496,4319.615234,4212.307617,4218.974121,4243.974121,4207.692383,4267.563965,4204.230957,4226.538574,4574.487305,4463.333496,4482.179688,4563.717773,4832.000000,0.000000,14.000000,,,,0.000000,4.000000,4.000000,4.000000,4.000000,4.000000,4.000000,4.000000,4.000000,4.000000,4.000000,4.000000,4.000000,4.000000,4.000000,100.000000,,,,,,,,,,,,,,,,,,,,,,,,,,,,,,,,,,,,,,,,,,,,,,,,,,,,,,,,,,,,,,,,,,,,,,,,,,,,,,,,,,,,,,,,,,,,,,,,,,,,,,,,,,,,,,,,,,,,,,,,,,,,,,,,,
1739355551.293674,1739355551.294456,83.000000,0.000000,4348.717773,4267.563965,4318.589844,4206.153809,4215.641113,4249.102539,4209.230957,4261.282227,4201.025879,4236.282227,4560.769043,4462.179688,4477.436035,4545.897461,5430.000000,0.000000,14.000000,,,,0.000000,4.000000,4.000000,4.000000,4.000000,4.000000,4.000000,4.000000,4.000000,4.000000,4.000000,4.000000,4.000000,4.000000,4.000000,100.000000,,,,,,,,,,,,,,,,,,,,,,,,,,,,,,,,,,,,,,,,,,,,,,,,,,,,,,,,,,,,,,,,,,,,,,,,,,,,,,,,,,,,,,,,,,,,,,,,,,,,,,,,,,,,,,,,,,,,,,,,,,,,,,,,,
1739355551.301482,1739355551.302264,84.000000,0.000000,4311.153809,4237.436035,4300.384766,4192.051270,4201.538574,4228.333496,4192.820313,4259.871582,4197.692383,4219.102539,4541.666504,4447.436035,4445.897461,4515.256348,5283.000000,0.000000,14.000000,,,,0.000000,4.000000,4.000000,4.000000,4.000000,4.000000,4.000000,4.000000,4.000000,4.000000,4.000000,4.000000,4.000000,4.000000,4.000000,100.000000,,,,,,,,,,,,,,,,,21.000000,0.000000,0.566408,0.222412,-0.674133,0.418640,0.963497,-0.272006,-0.015627,-39.667759,-26.565685,45.188026,,,,,,,,,,,,,,,,,,,,,,,,,,,,,,,,,,,,,,,,,,,,,,,,,,,,,,,,,,,,,,,,,,,,,,,,,,,,,,,,,,,,,,,,,,,,,,,,,,,,,
1739355551.309290,1739355551.310171,85.000000,0.000000,4292.436035,4234.871582,4296.282227,4195.128418,4213.205078,4230.256348,4192.307617,4264.743652,4202.948730,4203.717773,4540.384766,4446.538574,4417.948730,4492.948730,6472.000000,0.000000,14.000000,,,,0.000000,4.000000,4.000000,4.000000,4.000000,4.000000,4.000000,4.000000,4.000000,4.000000,4.000000,4.000000,4.000000,4.000000,4.000000,100.000000,,,,,,,,,,,,,,,,,,,,,,,,,,,,,,,,,,,,,,,,,,,,,,,,,,,,,,,,,,,,,,,,,,,,,,,,,,,,,,,,,,,,,,,,,,,,,,,,,,,,,,,,,,,,,,,,,,,,,,,,,,,,,,,,,
1739355551.317098,1739355551.317979,86.000000,0.000000,4281.153809,4228.461426,4303.461426,4204.487305,4213.589844,4251.538574,4213.974121,4270.641113,4213.077148,4223.077148,4543.974121,4452.051270,4416.666504,4478.205078,4832.000000,0.000000,14.000000,,,,0.000000,4.000000,4.000000,4.000000,4.000000,4.000000,4.000000,4.000000,4.000000,4.000000,4.000000,4.000000,4.000000,4.000000,4.000000,100.000000,,,,,,,,,,,,,,,,,,,,,,,,,,,,,,,,,,,,,,,,,,,,,,,,,,,,,,,,,,,,,,,,,,,,,,,,,,,,,,,,,,,,,,,,,,,,,,,,,,,,,,,,,,,,,,,,,,,,,,,,,,,,,,,,,
1739355551.324906,1739355551.325887,87.000000,0.000000,4237.820313,4190.641113,4285.000000,4176.410156,4191.922852,4238.333496,4217.948730,4269.230957,4200.000000,4201.153809,4525.512695,4434.871582,4390.897461,4448.717773,5430.000000,0.000000,14.000000,,,,0.000000,4.000000,4.000000,4.000000,4.000000,4.000000,4.000000,4.000000,4.000000,4.000000,4.000000,4.000000,4.000000,4.000000,4.000000,100.000000,,,,,,,,,,,,,,,,,,,,,,,,,,,,,,,,,,,,,,,,,,,,,,,,,,,,,,,,,,,,,,,,,,,,,,,,,,,,,,,,,,,,,,,,,,,,,,,,,,,,,,,,,,,,,,,,,,,,,,,,,,,,,,,,,
1739355551.332714,1739355551.333695,88.000000,0.000000,4201.153809,4156.794922,4267.307617,4142.563965,4184.487305,4230.000000,4215.256348,4263.974121,4189.487305,4172.692383,4511.922852,4421.794922,4360.384766,4420.769043,5283.000000,0.000000,14.000000,,,,0.000000,4.000000,4.000000,4.000000,4.000000,4.000000,4.000000,4.000000,4.000000,4.000000,4.000000,4.000000,4.000000,4.000000,4.000000,100.000000,,,,,,,,,,,,,,,,,22.000000,0.000000,0.563171,0.217957,-0.677002,0.420715,0.969845,-0.331583,-0.029300,-39.650986,-26.775784,45.202557,,,,,,,,,,,,,,,,,,,,,,,,,,,,,,,,1.576453,1.305768,2.368122,1.053034,1.605164,1.004447,0.795274,1.741792,0.747666,1.679705,0.879182,0.994758,1.881032,0.914495,1.266409,7.783551,2.037503,2.233093,0.851533,1.719622,0.734086,0.286524,1.347948,0.837812,1.241583,1.900065,0.639229,1.407613,0.863743,0.992430,1.487140,2.328110,2.188014,1.150333,1.290507,0.285005,0.119584,0.279715,0.193310,0.267531,1.565045,1.584444,1.165439,1.073931,1.265000,2.123995,1.717110,1.620218,1.400202,1.610749,1.502425,0.972058,1.299135,1.101068,1.399738,9.752295,1.824861,2.782295,1.576755,2.065998,1.571444,0.768333,1.548624,0.917560,1.061034,1.971442,0.820620,1.718319,0.993903,1.534398
1739355551.340522,1739355551.341603,89.000000,0.000000,4188.333496,4140.769043,4268.846191,4145.641113,4180.000000,4250.256348,4223.077148,4265.128418,4200.000000,4197.692383,4515.000000,4423.077148,4365.897461,4411.025879,6472.000000,0.000000,14.000000,,,,0.000000,4.000000,4.000000,4.000000,4.000000,4.000000,4.000000,4.000000,4.000000,4.000000,4.000000,4.000000,4.000000,4.000000,4.000000,100.000000,,,,,,,,,,,,,,,,,,,,,,,,,,,,,,,,,,,,,,,,,,,,,,,,,,,,,,,,,,,,,,,,,,,,,,,,,,,,,,,,,,,,,,,,,,,,,,,,,,,,,,,,,,,,,,,,,,,,,,,,,,,,,,,,,
1739355551.348330,1739355551.349411,90.000000,0.000000,4170.512695,4146.153809,4261.025879,4180.256348,4198.589844,4252.948730,4213.589844,4268.205078,4198.846191,4204.615234,4502.948730,4413.205078,4366.922852,4397.948730,4832.000000,0.000000,14.000000,,,,0.000000,4.000000,4.000000,4.000000,4.000000,4.000000,4.000000,4.000000,4.000000,4.000000,4.000000,4.000000,4.000000,4.000000,4.000000,100.000000,,,,,,,,,,,,,,,,,,,,,,,,,,,,,,,,,,,,,,,,,,,,,,,,,,,,,,,,,,,,,,,,,,,,,,,,,,,,,,,,,,,,,,,,,,,,,,,,,,,,,,,,,,,,,,,,,,,,,,,,,,,,,,,,,
1739355551.356138,1739355551.357119,91.000000,0.000000,4158.589844,4154.615234,4254.743652,4211.025879,4228.589844,4247.051270,4214.102539,4271.153809,4199.743652,4196.666504,4486.794922,4405.641113,4362.563965,4383.205078,5430.000000,0.000000,14.000000,,,,0.000000,4.000000,4.000000,4.000000,4.000000,4.000000,4.000000,4.000000,4.000000,4.000000,4.000000,4.000000,4.000000,4.000000,4.000000,100.000000,,,,,,,,,,,,,,,,,,,,,,,,,,,,,,,,,,,,,,,,,,,,,,,,,,,,,,,,,,,,,,,,,,,,,,,,,,,,,,,,,,,,,,,,,,,,,,,,,,,,,,,,,,,,,,,,,,,,,,,,,,,,,,,,,
1739355551.363947,1739355551.364927,92.000000,0.000000,4185.000000,4166.025879,4285.641113,4279.230957,4230.256348,4277.563965,4260.769043,4282.820313,4240.128418,4235.256348,4520.641113,4439.615234,4400.128418,4406.538574,5283.000000,0.000000,14.000000,,,,0.000000,4.000000,4.000000,4.000000,4.000000,4.000000,4.000000,4.000000,4.000000,4.000000,4.000000,4.000000,4.000000,4.000000,4.000000,100.000000,,,,,,,,,,,,,,,,,23.000000,0.000000,0.556430,0.207947,-0.683105,0.424866,0.924918,-0.314492,-0.027835,-39.552551,-27.164871,45.048965,,,,,,,,,,,,,,,,,,,,,,,,,,,,,,,,,,,,,,,,,,,,,,,,,,,,,,,,,,,,,,,,,,,,,,,,,,,,,,,,,,,,,,,,,,,,,,,,,,,,,
1739355551.371755,1739355551.372635,93.000000,0.000000,4187.179688,4178.974121,4283.974121,4456.282227,4222.307617,4295.128418,4253.846191,4280.256348,4253.333496,4242.563965,4544.102539,4441.794922,4414.230957,4405.384766,6472.000000,0.000000,14.000000,,,,0.000000,4.000000,4.000000,4.000000,4.000000,4.000000,4.000000,4.000000,4.000000,4.000000,4.000000,4.000000,4.000000,4.000000,4.000000,100.000000,,,,,,,,,,,,,,,,,,,,,,,,,,,,,,,,,,,,,,,,,,,,,,,,,,,,,,,,,,,,,,,,,,,,,,,,,,,,,,,,,,,,,,,,,,,,,,,,,,,,,,,,,,,,,,,,,,,,,,,,,,,,,,,,,
1739355551.379563,1739355551.380443,94.000000,0.000000,4166.794922,4204.871582,4249.871582,4755.000000,4247.179688,4284.102539,4199.487305,4265.000000,4228.846191,4216.025879,4525.769043,4399.487305,4385.641113,4367.948730,4832.000000,0.000000,14.000000,,,,0.000000,4.000000,4.000000,4.000000,4.000000,4.000000,4.000000,4.000000,4.000000,4.000000,4.000000,4.000000,4.000000,4.000000,4.000000,100.000000,,,,,,,,,,,,,,,,,,,,,,,,,,,,,,,,,,,,,,,,,,,,,,,,,,,,,,,,,,,,,,,,,,,,,,,,,,,,,,,,,,,,,,,,,,,,,,,,,,,,,,,,,,,,,,,,,,,,,,,,,,,,,,,,,
1739355551.387371,1739355551.388151,95.000000,0.000000,4216.282227,4265.128418,4283.717773,5117.692383,4281.794922,4307.948730,4230.128418,4275.000000,4257.563965,4266.922852,4564.487305,4432.820313,4413.846191,4397.436035,5430.000000,0.000000,14.000000,,,,0.000000,4.000000,4.000000,4.000000,4.000000,4.000000,4.000000,4.000000,4.000000,4.000000,4.000000,4.000000,4.000000,4.000000,4.000000,100.000000,,,,,,,,,,,,,,,,,,,,,,,,,,,,,,,,,,,,,,,,,,,,,,,,,,,,,,,,,,,,,,,,,,,,,,,,,,,,,,,,,,,,,,,,,,,,,,,,,,,,,,,,,,,,,,,,,,,,,,,,,,,,,,,,,
1739355551.395179,1739355551.395959,96.000000,0.000000,4272.692383,4311.666504,4332.307617,5428.589844,4289.615234,4342.436035,4290.000000,4293.846191,4300.256348,4314.102539,4634.743652,4494.871582,4457.820313,4449.487305,5283.000000,0.000000,14.000000,,,,0.000000,4.000000,4.000000,4.000000,4.000000,4.000000,4.000000,4.000000,4.000000,4.000000,4.000000,4.000000,4.000000,4.000000,4.000000,100.000000,,,,,,,,,,,,,,,,,24.000000,0.000000,0.550622,0.200378,-0.688416,0.427490,0.874618,-0.332560,-0.043951,-39.513966,-27.565052,45.044071,,,,,,,,,,,,,,,,,,,,,,,,,,,,,,,,,,,,,,,,,,,,,,,,,,,,,,,,,,,,,,,,,,,,,,,,,,,,,,,,,,,,,,,,,,,,,,,,,,,,,
1739355551.402987,1739355551.403667,97.000000,0.000000,4263.077148,4315.897461,4325.256348,5643.589844,4289.102539,4352.948730,4286.153809,4291.794922,4300.897461,4295.641113,4652.051270,4483.205078,4441.922852,4437.051270,6472.000000,0.000000,14.000000,,,,0.000000,4.000000,4.000000,4.000000,4.000000,4.000000,4.000000,4.000000,4.000000,4.000000,4.000000,4.000000,4.000000,4.000000,4.000000,100.000000,,,,,,,,,,,,,,,,,,,,,,,,,,,,,,,,,,,,,,,,,,,,,,,,,,,,,,,,,,,,,,,,,,,,,,,,,,,,,,,,,,,,,,,,,,,,,,,,,,,,,,,,,,,,,,,,,,,,,,,,,,,,,,,,,
1739355551.410795,1739355551.411475,98.000000,0.000000,4276.922852,4337.948730,4336.922852,5815.512695,4304.743652,4370.769043,4294.358887,4294.615234,4316.666504,4313.205078,4680.512695,4490.769043,4452.307617,4443.077148,4832.000000,0.000000,14.000000,,,,0.000000,4.000000,4.000000,4.000000,4.000000,4.000000,4.000000,4.000000,4.000000,4.000000,4.000000,4.000000,4.000000,4.000000,4.000000,100.000000,,,,,,,,,,,,,,,,,,,,,,,,,,,,,,,,,,,,,,,,,,,,,,,,,,,,,,,,,,,,,,,,,,,,,,,,,,,,,,,,,,,,,,,,,,,,,,,,,,,,,,,,,,,,,,,,,,,,,,,,,,,,,,,,,
1739355551.418603,1739355551.419183,99.000000,0.000000,4312.692383,4368.589844,4363.461426,5935.384766,4318.717773,4384.487305,4325.128418,4304.358887,4333.461426,4339.871582,4728.589844,4532.436035,4482.051270,4473.333496,5430.000000,0.000000,14.000000,,,,0.000000,4.000000,4.000000,4.000000,4.000000,4.000000,4.000000,4.000000,4.000000,4.000000,4.000000,4.000000,4.000000,4.000000,4.000000,100.000000,,,,,,,,,,,,,,,,,,,,,,,,,,,,,,,,,,,,,,,,,,,,,,,,,,,,,,,,,,,,,,,,,,,,,,,,,,,,,,,,,,,,,,,,,,,,,,,,,,,,,,,,,,,,,,,,,,,,,,,,,,,,,,,,,
1739355551.426411,1739355551.427091,100.000000,0.000000,4283.461426,4336.153809,4333.717773,5972.051270,4296.922852,4372.692383,4314.102539,4296.153809,4306.282227,4307.179688,4718.333496,4501.922852,4447.563965,4437.179688,5283.000000,0.000000,14.000000,,,,0.000000,4.000000,4.000000,4.000000,4.000000,4.000000,4.000000,4.000000,4.000000,4.000000,4.000000,4.000000,4.000000,4.000000,4.000000,100.000000,,,,,,,,,,,,,,,,,25.000000,0.000000,0.545806,0.195190,-0.692627,0.429260,0.836040,-0.285191,-0.050787,-39.379234,-28.008547,44.956329,,,,,,,,,,,,,,,,,,,,,,,,,,,,,,,,,,,,,,,,,,,,,,,,,,,,,,,,,,,,,,,,,,,,,,,,,,,,,,,,,,,,,,,,,,,,,,,,,,,,,
1739355551.434219,1739355551.434899,101.000000,0.000000,4276.282227,4320.384766,4322.820313,6000.384766,4292.436035,4377.051270,4311.025879,4297.307617,4317.563965,4313.077148,4719.743652,4488.333496,4437.563965,4420.256348,6472.000000,0.000000,14.000000,,,,0.000000,4.000000,4.000000,4.000000,4.000000,4.000000,4.000000,4.000000,4.000000,4.000000,4.000000,4.000000,4.000000,4.000000,4.000000,100.000000,,,,,,,,,,,,,,,,,,,,,,,,,,,,,,,,,,,,,,,,,,,,,,,,,,,,,,,,,,,,,,,,,,,,,,,,,,,,,,,,,,,,,,,,,,,,,,,,,,,,,,,,,,,,,,,,,,,,,,,,,,,,,,,,,
1739355551.442027,1739355551.442807,102.000000,0.000000,4322.563965,4359.615234,4354.487305,6044.743652,4315.897461,4387.179688,4322.692383,4304.230957,4347.051270,4358.846191,4758.589844,4534.871582,4477.307617,4457.948730,4832.000000,0.000000,14.000000,,,,0.000000,4.000000,4.000000,4.000000,4.000000,4.000000,4.000000,4.000000,4.000000,4.000000,4.000000,4.000000,4.000000,4.000000,4.000000,100.000000,,,,,,,,,,,,,,,,,,,,,,,,,,,,,,,,,,,,,,,,,,,,,,,,,,,,,,,,,,,,,,,,,,,,,,,,,,,,,,,,,,,,,,,,,,,,,,,,,,,,,,,,,,,,,,,,,,,,,,,,,,,,,,,,,
1739355551.449835,1739355551.450615,103.000000,0.000000,4323.333496,4363.333496,4351.410156,6028.589844,4306.922852,4367.563965,4311.025879,4297.692383,4316.538574,4345.897461,4757.051270,4531.922852,4472.436035,4458.461426,5430.000000,0.000000,14.000000,,,,0.000000,4.000000,4.000000,4.000000,4.000000,4.000000,4.000000,4.000000,4.000000,4.000000,4.000000,4.000000,4.000000,4.000000,4.000000,100.000000,,,,,,,,,,,,,,,,,,,,,,,,,,,,,,,,,,,,,,,,,,,,,,,,,,,,,,,,,,,,,,,,,,,,,,,,,,,,,,,,,,,,,,,,,,,,,,,,,,,,,,,,,,,,,,,,,,,,,,,,,,,,,,,,,
1739355551.457643,1739355551.458523,104.000000,0.000000,4322.820313,4363.077148,4353.589844,5989.487305,4312.692383,4369.102539,4321.794922,4301.538574,4316.025879,4346.794922,4762.051270,4528.077148,4465.512695,4455.641113,5283.000000,0.000000,14.000000,,,,0.000000,4.000000,4.000000,4.000000,4.000000,4.000000,4.000000,4.000000,4.000000,4.000000,4.000000,4.000000,4.000000,4.000000,4.000000,100.000000,,,,,,,,,,,,,,,,,26.000000,0.000000,0.545075,0.196289,-0.693420,0.428406,0.878037,-0.327677,-0.021487,-39.224644,-28.441025,44.827362,,,,,,,,,,,,,,,,,,,,,,,,,,,,,,,,2.407449,1.134901,2.676199,0.844917,1.254038,1.564800,0.601780,2.075200,0.601739,1.308711,1.183130,0.995268,2.201524,0.766292,1.009659,4.609710,1.114489,2.579878,0.700596,1.343830,0.979830,0.306421,1.531851,0.774729,0.976371,2.185371,0.665279,1.422583,0.809416,0.771603,2.001838,2.290254,2.117142,1.060445,1.020567,0.357037,0.105449,0.297147,0.163733,0.220269,1.867968,1.598326,1.294605,0.959211,0.996164,2.484048,1.859010,1.923824,1.210614,1.296709,1.664384,1.062404,1.459696,0.951139,1.118179,9.778259,1.710135,3.236908,1.330400,1.611759,2.276461,0.832045,1.949031,0.757298,0.816460,2.695394,0.694355,2.056568,0.759399,1.246107
1739355551.465452,1739355551.466331,105.000000,0.000000,4335.769043,4374.615234,4369.358887,5933.205078,4327.179688,4379.102539,4333.461426,4305.384766,4345.128418,4374.230957,4777.307617,4547.820313,4471.794922,4463.717773,6472.000000,0.000000,14.000000,,,,0.000000,4.000000,4.000000,4.000000,4.000000,4.000000,4.000000,4.000000,4.000000,4.000000,4.000000,4.000000,4.000000,4.000000,4.000000,100.000000,,,,,,,,,,,,,,,,,,,,,,,,,,,,,,,,,,,,,,,,,,,,,,,,,,,,,,,,,,,,,,,,,,,,,,,,,,,,,,,,,,,,,,,,,,,,,,,,,,,,,,,,,,,,,,,,,,,,,,,,,,,,,,,,,
1739355551.473260,1739355551.474139,106.000000,0.000000,4295.769043,4334.358887,4338.205078,5799.487305,4295.641113,4345.769043,4299.230957,4291.794922,4308.846191,4336.025879,4734.743652,4508.846191,4425.769043,4428.717773,4832.000000,0.000000,14.000000,,,,0.000000,4.000000,4.000000,4.000000,4.000000,4.000000,4.000000,4.000000,4.000000,4.000000,4.000000,4.000000,4.000000,4.000000,4.000000,100.000000,,,,,,,,,,,,,,,,,,,,,,,,,,,,,,,,,,,,,,,,,,,,,,,,,,,,,,,,,,,,,,,,,,,,,,,,,,,,,,,,,,,,,,,,,,,,,,,,,,,,,,,,,,,,,,,,,,,,,,,,,,,,,,,,,
1739355551.481068,1739355551.481847,107.000000,0.000000,4266.025879,4292.692383,4313.333496,5645.000000,4279.230957,4324.615234,4288.846191,4291.282227,4282.436035,4307.307617,4698.077148,4477.436035,4393.589844,4408.461426,5430.000000,0.000000,14.000000,,,,0.000000,4.000000,4.000000,4.000000,4.000000,4.000000,4.000000,4.000000,4.000000,4.000000,4.000000,4.000000,4.000000,4.000000,4.000000,100.000000,,,,,,,,,,,,,,,,,,,,,,,,,,,,,,,,,,,,,,,,,,,,,,,,,,,,,,,,,,,,,,,,,,,,,,,,,,,,,,,,,,,,,,,,,,,,,,,,,,,,,,,,,,,,,,,,,,,,,,,,,,,,,,,,,
1739355551.488876,1739355551.489755,108.000000,0.000000,4275.641113,4285.641113,4317.820313,5495.256348,4292.948730,4327.948730,4304.102539,4301.025879,4307.051270,4327.179688,4693.077148,4491.025879,4403.077148,4416.794922,5283.000000,0.000000,14.000000,,,,0.000000,4.000000,4.000000,4.000000,4.000000,4.000000,4.000000,4.000000,4.000000,4.000000,4.000000,4.000000,4.000000,4.000000,4.000000,100.000000,,,,,,,,,,,,,,,,,27.000000,0.000000,0.544535,0.197449,-0.693176,0.428955,0.974728,-0.404346,-0.014650,-39.302181,-28.880255,44.627960,,,,,,,,,,,,,,,,,,,,,,,,,,,,,,,,,,,,,,,,,,,,,,,,,,,,,,,,,,,,,,,,,,,,,,,,,,,,,,,,,,,,,,,,,,,,,,,,,,,,,
1739355551.496684,1739355551.497563,109.000000,0.000000,4253.589844,4252.436035,4292.820313,5292.307617,4270.512695,4294.615234,4271.666504,4292.307617,4286.153809,4301.538574,4654.358887,4467.563965,4381.282227,4387.051270,6472.000000,0.000000,14.000000,,,,0.000000,4.000000,4.000000,4.000000,4.000000,4.000000,4.000000,4.000000,4.000000,4.000000,4.000000,4.000000,4.000000,4.000000,4.000000,100.000000,,,,,,,,,,,,,,,,,,,,,,,,,,,,,,,,,,,,,,,,,,,,,,,,,,,,,,,,,,,,,,,,,,,,,,,,,,,,,,,,,,,,,,,,,,,,,,,,,,,,,,,,,,,,,,,,,,,,,,,,,,,,,,,,,
1739355551.504492,1739355551.505471,110.000000,0.000000,4238.846191,4224.743652,4273.846191,5085.769043,4254.487305,4264.358887,4248.589844,4288.717773,4259.743652,4273.333496,4620.897461,4449.615234,4360.256348,4371.538574,4832.000000,0.000000,14.000000,,,,0.000000,4.000000,4.000000,4.000000,4.000000,4.000000,4.000000,4.000000,4.000000,4.000000,4.000000,4.000000,4.000000,4.000000,4.000000,100.000000,,,,,,,,,,,,,,,,,,,,,,,,,,,,,,,,,,,,,,,,,,,,,,,,,,,,,,,,,,,,,,,,,,,,,,,,,,,,,,,,,,,,,,,,,,,,,,,,,,,,,,,,,,,,,,,,,,,,,,,,,,,,,,,,,
1739355551.512300,1739355551.513279,111.000000,0.000000,4264.230957,4236.410156,4286.666504,4928.974121,4276.666504,4271.025879,4272.051270,4297.692383,4278.589844,4287.436035,4618.333496,4471.538574,4365.769043,4395.256348,5430.000000,0.000000,14.000000,,,,0.000000,4.000000,4.000000,4.000000,4.000000,4.000000,4.000000,4.000000,4.000000,4.000000,4.000000,4.000000,4.000000,4.000000,4.000000,100.000000,,,,,,,,,,,,,,,,,,,,,,,,,,,,,,,,,,,,,,,,,,,,,,,,,,,,,,,,,,,,,,,,,,,,,,,,,,,,,,,,,,,,,,,,,,,,,,,,,,,,,,,,,,,,,,,,,,,,,,,,,,,,,,,,,
1739355551.520108,1739355551.521186,112.000000,0.000000,4265.128418,4231.025879,4284.487305,4784.743652,4273.461426,4258.077148,4268.333496,4295.641113,4275.769043,4279.615234,4602.436035,4469.871582,4365.000000,4394.487305,5283.000000,0.000000,14.000000,,,,0.000000,4.000000,4.000000,4.000000,4.000000,4.000000,4.000000,4.000000,4.000000,4.000000,4.000000,4.000000,4.000000,4.000000,4.000000,100.000000,,,,,,,,,,,,,,,,,28.000000,0.000000,0.542303,0.195862,-0.694580,0.430237,0.948358,-0.424368,-0.056648,-39.105297,-29.192230,44.498497,,,,,,,,,,,,,,,,,,,,,,,,,,,,,,,,,,,,,,,,,,,,,,,,,,,,,,,,,,,,,,,,,,,,,,,,,,,,,,,,,,,,,,,,,,,,,,,,,,,,,
1739355551.527916,1739355551.528994,113.000000,0.000000,4247.820313,4211.922852,4270.384766,4653.846191,4253.717773,4230.512695,4243.846191,4293.589844,4257.307617,4254.871582,4584.102539,4453.077148,4361.666504,4377.051270,6472.000000,0.000000,14.000000,,,,0.000000,4.000000,4.000000,4.000000,4.000000,4.000000,4.000000,4.000000,4.000000,4.000000,4.000000,4.000000,4.000000,4.000000,4.000000,100.000000,,,,,,,,,,,,,,,,,,,,,,,,,,,,,,,,,,,,,,,,,,,,,,,,,,,,,,,,,,,,,,,,,,,,,,,,,,,,,,,,,,,,,,,,,,,,,,,,,,,,,,,,,,,,,,,,,,,,,,,,,,,,,,,,,
1739355551.535724,1739355551.536802,114.000000,0.000000,4246.025879,4210.000000,4266.666504,4555.512695,4257.179688,4231.153809,4248.077148,4292.179688,4258.205078,4252.051270,4574.615234,4448.846191,4355.384766,4375.897461,4832.000000,0.000000,14.000000,,,,0.000000,4.000000,4.000000,4.000000,4.000000,4.000000,4.000000,4.000000,4.000000,4.000000,4.000000,4.000000,4.000000,4.000000,4.000000,100.000000,,,,,,,,,,,,,,,,,,,,,,,,,,,,,,,,,,,,,,,,,,,,,,,,,,,,,,,,,,,,,,,,,,,,,,,,,,,,,,,,,,,,,,,,,,,,,,,,,,,,,,,,,,,,,,,,,,,,,,,,,,,,,,,,,
1739355551.543532,1739355551.544710,115.000000,0.000000,4247.563965,4210.641113,4264.102539,4479.358887,4264.230957,4234.615234,4256.410156,4286.153809,4257.436035,4254.102539,4558.974121,4436.922852,4347.179688,4380.641113,5430.000000,0.000000,14.000000,,,,0.000000,4.000000,4.000000,4.000000,4.000000,4.000000,4.000000,4.000000,4.000000,4.000000,4.000000,4.000000,4.000000,4.000000,4.000000,100.000000,,,,,,,,,,,,,,,,,,,,,,,,,,,,,,,,,,,,,,,,,,,,,,,,,,,,,,,,,,,,,,,,,,,,,,,,,,,,,,,,,,,,,,,,,,,,,,,,,,,,,,,,,,,,,,,,,,,,,,,,,,,,,,,,,
1739355551.551340,1739355551.552518,116.000000,0.000000,4246.282227,4203.333496,4263.333496,4415.512695,4257.692383,4220.128418,4248.974121,4286.666504,4251.410156,4249.743652,4548.205078,4427.051270,4352.436035,4389.358887,5283.000000,0.000000,14.000000,,,,0.000000,4.000000,4.000000,4.000000,4.000000,4.000000,4.000000,4.000000,4.000000,4.000000,4.000000,4.000000,4.000000,4.000000,4.000000,100.000000,,,,,,,,,,,,,,,,,29.000000,0.000000,0.541276,0.195435,-0.695313,0.430542,0.966427,-0.435112,-0.020022,-38.844765,-29.589674,44.415314,,,,,,,,,,,,,,,,,,,,,,,,,,,,,,,,,,,,,,,,,,,,,,,,,,,,,,,,,,,,,,,,,,,,,,,,,,,,,,,,,,,,,,,,,,,,,,,,,,,,,
1739355551.559148,1739355551.560426,117.000000,0.000000,4243.077148,4197.692383,4267.307617,4358.077148,4252.436035,4213.461426,4246.282227,4289.358887,4256.025879,4250.128418,4544.615234,4428.589844,4353.717773,4397.563965,6472.000000,0.000000,14.000000,,,,0.000000,4.000000,4.000000,4.000000,4.000000,4.000000,4.000000,4.000000,4.000000,4.000000,4.000000,4.000000,4.000000,4.000000,4.000000,100.000000,,,,,,,,,,,,,,,,,,,,,,,,,,,,,,,,,,,,,,,,,,,,,,,,,,,,,,,,,,,,,,,,,,,,,,,,,,,,,,,,,,,,,,,,,,,,,,,,,,,,,,,,,,,,,,,,,,,,,,,,,,,,,,,,,
1739355551.566957,1739355551.568234,118.000000,0.000000,4229.487305,4191.025879,4261.410156,4298.461426,4251.025879,4214.230957,4245.641113,4284.871582,4252.563965,4242.948730,4529.358887,4415.128418,4335.000000,4386.794922,4832.000000,0.000000,14.000000,,,,0.000000,4.000000,4.000000,4.000000,4.000000,4.000000,4.000000,4.000000,4.000000,4.000000,4.000000,4.000000,4.000000,4.000000,4.000000,100.000000,,,,,,,,,,,,,,,,,,,,,,,,,,,,,,,,,,,,,,,,,,,,,,,,,,,,,,,,,,,,,,,,,,,,,,,,,,,,,,,,,,,,,,,,,,,,,,,,,,,,,,,,,,,,,,,,,,,,,,,,,,,,,,,,,
1739355551.574765,1739355551.576042,119.000000,0.000000,4193.589844,4157.948730,4233.717773,4223.589844,4226.794922,4190.641113,4223.333496,4274.230957,4227.307617,4210.128418,4493.717773,4376.153809,4307.051270,4357.051270,5430.000000,0.000000,14.000000,,,,0.000000,4.000000,4.000000,4.000000,4.000000,4.000000,4.000000,4.000000,4.000000,4.000000,4.000000,4.000000,4.000000,4.000000,4.000000,100.000000,,,,,,,,,,,,,,,,,,,,,,,,,,,,,,,,,,,,,,,,,,,,,,,,,,,,,,,,,,,,,,,,,,,,,,,,,,,,,,,,,,,,,,,,,,,,,,,,,,,,,,,,,,,,,,,,,,,,,,,,,,,,,,,,,
1739355551.582573,1739355551.583750,120.000000,0.000000,4157.692383,4120.256348,4205.128418,4148.589844,4190.256348,4156.410156,4193.974121,4263.974121,4196.538574,4168.077148,4454.102539,4338.589844,4280.384766,4332.948730,5283.000000,0.000000,14.000000,,,,0.000000,4.000000,4.000000,4.000000,4.000000,4.000000,4.000000,4.000000,4.000000,4.000000,4.000000,4.000000,4.000000,4.000000,4.000000,100.000000,,,,,,,,,,,,,,,,,30.000000,0.000000,0.538222,0.193115,-0.697571,0.431763,1.016726,-0.452204,-0.042974,-38.743622,-29.830706,44.390450,,,,,,,,,,,,,,,,,,,,,,,,,,,,,,,,7.414084,1.146097,2.881098,0.703250,0.967808,4.261334,0.514308,2.319829,0.516441,0.992821,2.029466,1.035580,2.339032,0.665088,0.799700,29.564972,3.134184,3.451432,0.677900,1.040548,1.367455,0.394243,1.626443,0.716735,0.767265,2.562623,0.795249,1.338778,0.751524,0.600807,2.550339,2.271451,1.904041,0.984953,0.806358,0.419530,0.100404,0.313476,0.140801,0.183618,2.358368,1.549375,1.386089,0.829252,0.777033,3.069897,1.967858,2.096569,1.033087,1.032429,3.044630,1.068289,1.532748,0.807818,0.898579,10.061832,1.636355,3.391144,1.144941,1.249337,4.575421,0.930954,2.270576,0.606081,0.642499,6.275373,0.886796,2.365063,0.626227,0.993016
1739355551.590381,1739355551.591558,121.000000,0.000000,4161.794922,4124.358887,4211.282227,4113.717773,4185.897461,4156.922852,4196.666504,4266.282227,4189.487305,4162.436035,4451.153809,4338.077148,4278.205078,4342.820313,6472.000000,0.000000,14.000000,,,,0.000000,4.000000,4.000000,4.000000,4.000000,4.000000,4.000000,4.000000,4.000000,4.000000,4.000000,4.000000,4.000000,4.000000,4.000000,100.000000,,,,,,,,,,,,,,,,,,,,,,,,,,,,,,,,,,,,,,,,,,,,,,,,,,,,,,,,,,,,,,,,,,,,,,,,,,,,,,,,,,,,,,,,,,,,,,,,,,,,,,,,,,,,,,,,,,,,,,,,,,,,,,,,,
1739355551.598189,1739355551.599266,122.000000,0.000000,4188.974121,4148.077148,4236.410156,4105.256348,4204.358887,4172.820313,4215.512695,4276.922852,4212.307617,4189.615234,4479.487305,4363.077148,4303.205078,4374.230957,4832.000000,0.000000,14.000000,,,,0.000000,4.000000,4.000000,4.000000,4.000000,4.000000,4.000000,4.000000,4.000000,4.000000,4.000000,4.000000,4.000000,4.000000,4.000000,100.000000,,,,,,,,,,,,,,,,,,,,,,,,,,,,,,,,,,,,,,,,,,,,,,,,,,,,,,,,,,,,,,,,,,,,,,,,,,,,,,,,,,,,,,,,,,,,,,,,,,,,,,,,,,,,,,,,,,,,,,,,,,,,,,,,,
1739355551.605997,1739355551.607074,123.000000,0.000000,4187.307617,4141.410156,4235.897461,4070.897461,4200.384766,4163.717773,4208.461426,4272.820313,4218.333496,4193.205078,4477.307617,4361.538574,4306.794922,4383.974121,5430.000000,0.000000,14.000000,,,,0.000000,4.000000,4.000000,4.000000,4.000000,4.000000,4.000000,4.000000,4.000000,4.000000,4.000000,4.000000,4.000000,4.000000,4.000000,100.000000,,,,,,,,,,,,,,,,,,,,,,,,,,,,,,,,,,,,,,,,,,,,,,,,,,,,,,,,,,,,,,,,,,,,,,,,,,,,,,,,,,,,,,,,,,,,,,,,,,,,,,,,,,,,,,,,,,,,,,,,,,,,,,,,,
1739355551.613805,1739355551.614782,124.000000,0.000000,4158.846191,4115.769043,4213.205078,4019.102539,4179.871582,4141.794922,4184.871582,4260.641113,4190.256348,4165.897461,4442.179688,4327.179688,4274.871582,4359.102539,5283.000000,0.000000,14.000000,,,,0.000000,4.000000,4.000000,4.000000,4.000000,4.000000,4.000000,4.000000,4.000000,4.000000,4.000000,4.000000,4.000000,4.000000,4.000000,100.000000,,,,,,,,,,,,,,,,,31.000000,0.000000,0.533099,0.187622,-0.701477,0.434204,0.855573,-0.426322,-0.058113,-38.735928,-30.264303,44.234737,,,,,,,,,,,,,,,,,,,,,,,,,,,,,,,,,,,,,,,,,,,,,,,,,,,,,,,,,,,,,,,,,,,,,,,,,,,,,,,,,,,,,,,,,,,,,,,,,,,,,
1739355551.621613,1739355551.622590,125.000000,0.000000,4149.230957,4112.436035,4203.846191,3995.256348,4173.461426,4133.205078,4174.743652,4262.307617,4173.333496,4146.282227,4429.358887,4309.230957,4258.846191,4343.846191,6472.000000,0.000000,14.000000,,,,0.000000,4.000000,4.000000,4.000000,4.000000,4.000000,4.000000,4.000000,4.000000,4.000000,4.000000,4.000000,4.000000,4.000000,4.000000,100.000000,,,,,,,,,,,,,,,,,,,,,,,,,,,,,,,,,,,,,,,,,,,,,,,,,,,,,,,,,,,,,,,,,,,,,,,,,,,,,,,,,,,,,,,,,,,,,,,,,,,,,,,,,,,,,,,,,,,,,,,,,,,,,,,,,
1739355551.629421,1739355551.630298,126.000000,0.000000,4176.282227,4134.743652,4224.615234,4004.102539,4186.666504,4145.384766,4187.307617,4264.230957,4187.692383,4156.794922,4452.051270,4331.666504,4289.102539,4373.077148,4832.000000,0.000000,14.000000,,,,0.000000,4.000000,4.000000,4.000000,4.000000,4.000000,4.000000,4.000000,4.000000,4.000000,4.000000,4.000000,4.000000,4.000000,4.000000,100.000000,,,,,,,,,,,,,,,,,,,,,,,,,,,,,,,,,,,,,,,,,,,,,,,,,,,,,,,,,,,,,,,,,,,,,,,,,,,,,,,,,,,,,,,,,,,,,,,,,,,,,,,,,,,,,,,,,,,,,,,,,,,,,,,,,
1739355551.637229,1739355551.638106,127.000000,0.000000,4203.461426,4156.794922,4249.487305,4013.589844,4204.358887,4160.897461,4206.282227,4262.563965,4203.846191,4174.230957,4469.871582,4355.128418,4315.897461,4399.615234,14.000000,0.000000,14.000000,,,,0.000000,4.000000,4.000000,4.000000,4.000000,4.000000,4.000000,4.000000,4.000000,4.000000,4.000000,4.000000,4.000000,4.000000,4.000000,100.000000,,,,,,,,,,,,,,,,,,,,,,,,,,,,,,,,,,,,,,,,,,,,,,,,,,,,,,,,,,,,,,,,,,,,,,,,,,,,,,,,,,,,,,,,,,,,,,,,,,,,,,,,,,,,,,,,,,,,,,,,,,,,,,,,,
1739355551.645038,1739355551.645814,0.000000,0.000000,4194.743652,4158.333496,4249.230957,4001.794922,4204.615234,4159.358887,4211.922852,4265.000000,4196.538574,4167.692383,4465.384766,4347.820313,4303.717773,4386.282227,5125.000000,0.000000,14.000000,,,,0.000000,4.000000,4.000000,4.000000,4.000000,4.000000,4.000000,4.000000,4.000000,4.000000,4.000000,4.000000,4.000000,4.000000,4.000000,100.000000,,,,,,,,,,,,,,,,,0.000000,0.000000,0.528855,0.182617,-0.705017,0.435791,0.864852,-0.459529,-0.075204,-38.778999,-30.521206,44.011265,,,,,,,,,,,,,,,,,,,,,,,,,,,,,,,,,,,,,,,,,,,,,,,,,,,,,,,,,,,,,,,,,,,,,,,,,,,,,,,,,,,,,,,,,,,,,,,,,,,,,
1739355551.652846,1739355551.653622,1.000000,0.000000,4172.820313,4151.922852,4238.589844,3982.564209,4198.589844,4156.666504,4209.487305,4263.205078,4185.512695,4163.589844,4454.615234,4328.077148,4293.077148,4371.922852,5647.000000,0.000000,14.000000,,,,0.000000,4.000000,4.000000,4.000000,4.000000,4.000000,4.000000,4.000000,4.000000,4.000000,4.000000,4.000000,4.000000,4.000000,4.000000,100.000000,,,,,,,,,,,,,,,,,,,,,,,,,,,,,,,,,,,,,,,,,,,,,,,,,,,,,,,,,,,,,,,,,,,,,,,,,,,,,,,,,,,,,,,,,,,,,,,,,,,,,,,,,,,,,,,,,,,,,,,,,,,,,,,,,
1739355551.660654,1739355551.661330,2.000000,0.000000,4166.025879,4150.641113,4236.538574,3972.179443,4199.487305,4155.256348,4203.974121,4259.230957,4186.794922,4175.641113,4443.589844,4312.051270,4295.128418,4377.436035,5631.000000,0.000000,14.000000,,,,0.000000,4.000000,4.000000,4.000000,4.000000,4.000000,4.000000,4.000000,4.000000,4.000000,4.000000,4.000000,4.000000,4.000000,4.000000,100.000000,,,,,,,,,,,,,,,,,,,,,,,,,,,,,,,,,,,,,,,,,,,,,,,,,,,,,,,,,,,,,,,,,,,,,,,,,,,,,,,,,,,,,,,,,,,,,,,,,,,,,,,,,,,,,,,,,,,,,,,,,,,,,,,,,
1739355551.668462,1739355551.669238,3.000000,0.000000,4178.461426,4156.153809,4250.769043,3972.564209,4194.230957,4153.974121,4211.410156,4270.128418,4197.563965,4166.538574,4456.666504,4320.128418,4293.717773,4393.077148,5586.000000,0.000000,14.000000,,,,0.000000,4.000000,4.000000,4.000000,4.000000,4.000000,4.000000,4.000000,4.000000,4.000000,4.000000,4.000000,4.000000,4.000000,4.000000,100.000000,,,,,,,,,,,,,,,,,,,,,,,,,,,,,,,,,,,,,,,,,,,,,,,,,,,,,,,,,,,,,,,,,,,,,,,,,,,,,,,,,,,,,,,,,,,,,,,,,,,,,,,,,,,,,,,,,,,,,,,,,,,,,,,,,
1739355551.676270,1739355551.677046,4.000000,0.000000,4203.205078,4178.077148,4272.563965,3978.846191,4206.794922,4175.769043,4233.077148,4282.948730,4217.436035,4167.692383,4489.871582,4345.128418,4309.615234,4418.205078,5517.000000,0.000000,14.000000,,,,0.000000,4.000000,4.000000,4.000000,4.000000,4.000000,4.000000,4.000000,4.000000,4.000000,4.000000,4.000000,4.000000,4.000000,4.000000,100.000000,,,,,,,,,,,,,,,,,1.000000,0.000000,0.526337,0.178772,-0.707581,0.436279,0.912709,-0.436577,-0.075693,-38.767769,-30.752419,43.893471,,,,,,,,,,,,,,,,,,,,,,,,,,,,,,,,,,,,,,,,,,,,,,,,,,,,,,,,,,,,,,,,,,,,,,,,,,,,,,,,,,,,,,,,,,,,,,,,,,,,,
1739355551.684078,1739355551.684954,5.000000,0.000000,4217.692383,4190.384766,4281.794922,3989.487061,4226.538574,4190.384766,4252.436035,4278.333496,4231.922852,4201.794922,4501.025879,4345.769043,4329.358887,4431.410156,5511.000000,0.000000,14.000000,,,,0.000000,4.000000,4.000000,4.000000,4.000000,4.000000,4.000000,4.000000,4.000000,4.000000,4.000000,4.000000,4.000000,4.000000,4.000000,100.000000,,,,,,,,,,,,,,,,,,,,,,,,,,,,,,,,,,,,,,,,,,,,,,,,,,,,,,,,,,,,,,,,,,,,,,,,,,,,,,,,,,,,,,,,,,,,,,,,,,,,,,,,,,,,,,,,,,,,,,,,,,,,,,,,,
