Timestamp,OriginalTimestamp,EEG.Counter,EEG.Interpolated,EEG.AF3,EEG.F7,EEG.F3,EEG.FC5,EEG.T7,EEG.P7,EEG.O1,EEG.O2,EEG.P8,EEG.T8,EEG.FC6,EEG.F4,EEG.F8,EEG.AF4,EEG.RawCq,EEG.Battery,EEG.BatteryPercent,MarkerIndex,MarkerType,MarkerValueInt,EEG.MarkerHardware,CQ.AF3,CQ.F7,CQ.F3,CQ.FC5,CQ.T7,CQ.P7,CQ.O1,CQ.O2,CQ.P8,CQ.T8,CQ.FC6,CQ.F4,CQ.F8,CQ.AF4,CQ.Overall,EQ.SampleRateQuality,EQ.OVERALL,EQ.AF3,EQ.F7,EQ.F3,EQ.FC5,EQ.T7,EQ.P7,EQ.O1,EQ.O2,EQ.P8,EQ.T8,EQ.FC6,EQ.F4,EQ.F8,EQ.AF4,MOT.CounterMems,MOT.InterpolatedMems,MOT.Q0,MOT.Q1,MOT.Q2,MOT.Q3,MOT.AccX,MOT.AccY,MOT.AccZ,MOT.MagX,MOT.MagY,MOT.MagZ,PM.Attention.IsActive,PM.Attention.Scaled,PM.Attention.Raw,PM.Attention.Min,PM.Attention.Max,PM.Engagement.IsActive,PM.Engagement.Scaled,PM.Engagement.Raw,PM.Engagement.Min,PM.Engagement.Max,PM.Excitement.IsActive,PM.Excitement.Scaled,PM.Excitement.Raw,PM.Excitement.Min,PM.Excitement.Max,PM.LongTermExcitement,PM.Stress.IsActive,PM.Stress.Scaled,PM.Stress.Raw,PM.Stress.Min,PM.Stress.Max,PM.Relaxation.IsActive,PM.Relaxation.Scaled,PM.Relaxation.Raw,PM.Relaxation.Min,PM.Relaxation.Max,PM.Interest.IsActive,PM.Interest.Scaled,PM.Interest.Raw,PM.Interest.Min,PM.Interest.Max,POW.AF3.Theta,POW.AF3.Alpha,POW.AF3.BetaL,POW.AF3.BetaH,POW.AF3.Gamma,POW.F7.Theta,POW.F7.Alpha,POW.F7.BetaL,POW.F7.BetaH,POW.F7.Gamma,POW.F3.Theta,POW.F3.Alpha,POW.F3.BetaL,POW.F3.BetaH,POW.F3.Gamma,POW.FC5.Theta,POW.FC5.Alpha,POW.FC5.BetaL,POW.FC5.BetaH,POW.FC5.Gamma,POW.T7.Theta,POW.T7.Alpha,POW.T7.BetaL,POW.T7.BetaH,POW.T7.Gamma,POW.P7.Theta,POW.P7.Alpha,POW.P7.BetaL,POW.P7.BetaH,POW.P7.Gamma,POW.O1.Theta,POW.O1.Alpha,POW.O1.BetaL,POW.O1.BetaH,POW.O1.Gamma,POW.O2.Theta,POW.O2.Alpha,POW.O2.BetaL,POW.O2.BetaH,POW.O2.Gamma,POW.P8.Theta,POW.P8.Alpha,POW.P8.BetaL,POW.P8.BetaH,POW.P8.Gamma,POW.T8.Theta,POW.T8.Alpha,POW.T8.BetaL,POW.T8.BetaH,POW.T8.Gamma,POW.FC6.Theta,POW.FC6.Alpha,POW.FC6.BetaL,POW.FC6.BetaH,POW.FC6.Gamma,POW.F4.Theta,POW.F4.Alpha,POW.F4.BetaL,POW.F4.BetaH,POW.F4.Gamma,POW.F8.Theta,POW.F8.Alpha,POW.F8.BetaL,POW.F8.BetaH,POW.F8.Gamma,POW.AF4.Theta,POW.AF4.Alpha,POW.AF4.BetaL,POW.AF4.BetaH,POW.AF4.Gamma
1739354760.217646,1739354760.218595,16.000000,0.000000,4453.974121,4446.922852,4379.743652,4396.666504,4275.769043,4249.102539,4254.230957,4280.128418,4235.000000,4225.641113,4565.641113,4502.948730,4439.358887,4625.769043,0.000000,1.000000,16.000000,,,,0.000000,4.000000,4.000000,4.000000,4.000000,4.000000,4.000000,4.000000,4.000000,4.000000,4.000000,4.000000,4.000000,4.000000,4.000000,100.000000,,,,,,,,,,,,,,,,,4.000000,0.000000,0.462074,0.387024,-0.544861,0.582947,0.967892,-0.285679,0.106947,-37.601074,-30.116955,45.595493,,,,,,,,,,,,,,,,,,,,,,,,,,,,,,,,,,,,,,,,,,,,,,,,,,,,,,,,,,,,,,,,,,,,,,,,,,,,,,,,,,,,,,,,,,,,,,,,,,,,,
1739354760.225454,1739354760.226503,17.000000,0.000000,4465.769043,4451.666504,4389.358887,4405.128418,4282.307617,4255.000000,4266.153809,4280.256348,4243.077148,4239.358887,4580.000000,4518.846191,4452.820313,4643.077148,0.000000,1.000000,16.000000,,,,0.000000,4.000000,4.000000,4.000000,4.000000,4.000000,4.000000,4.000000,4.000000,4.000000,4.000000,4.000000,4.000000,4.000000,4.000000,100.000000,,,,,,,,,,,,,,,,,,,,,,,,,,,,,,,,,,,,,,,,,,,,,,,,,,,,,,,,,,,,,,,,,,,,,,,,,,,,,,,,,,,,,,,,,,,,,,,,,,,,,,,,,,,,,,,,,,,,,,,,,,,,,,,,,
1739354760.233263,1739354760.234311,18.000000,0.000000,4456.025879,4440.769043,4389.358887,4396.153809,4280.000000,4251.153809,4265.897461,4283.077148,4250.897461,4247.307617,4581.153809,4518.974121,4453.589844,4640.641113,0.000000,1.000000,16.000000,,,,0.000000,4.000000,4.000000,4.000000,4.000000,4.000000,4.000000,4.000000,4.000000,4.000000,4.000000,4.000000,4.000000,4.000000,4.000000,100.000000,,,,,,,,,,,,,,,,,,,,,,,,,,,,,,,,,,,,,,,,,,,,,,,,,,,,,,,,,,,,,,,,,,,,,,,,,,,,,,,,,,,,,,,,,,,,,,,,,,,,,,,,,,,,,,,,,,,,,,,,,,,,,,,,,
1739354760.241071,1739354760.242119,19.000000,0.000000,4434.358887,4419.615234,4378.717773,4384.487305,4271.922852,4249.102539,4264.487305,4281.666504,4247.179688,4245.128418,4570.000000,4503.077148,4442.436035,4621.153809,0.000000,1.000000,16.000000,,,,0.000000,4.000000,4.000000,4.000000,4.000000,4.000000,4.000000,4.000000,4.000000,4.000000,4.000000,4.000000,4.000000,4.000000,4.000000,100.000000,,,,,,,,,,,,,,,,,,,,,,,,,,,,,,,,,,,,,,,,,,,,,,,,,,,,,,,,,,,,,,,,,,,,,,,,,,,,,,,,,,,,,,,,,,,,,,,,,,,,,,,,,,,,,,,,,,,,,,,,,,,,,,,,,
1739354760.248879,1739354760.249927,20.000000,0.000000,4410.641113,4398.974121,4367.179688,4377.436035,4267.436035,4249.230957,4261.794922,4276.794922,4236.410156,4238.589844,4562.948730,4489.871582,4426.794922,4598.077148,0.000000,1.000000,16.000000,,,,0.000000,4.000000,4.000000,4.000000,4.000000,4.000000,4.000000,4.000000,4.000000,4.000000,4.000000,4.000000,4.000000,4.000000,4.000000,100.000000,,,,,,,,,,,,,,,,,5.000000,0.000000,0.462721,0.386292,-0.545288,0.582520,0.939568,-0.266634,0.096691,-37.557632,-29.988592,45.585941,,,,,,,,,,,,,,,,,,,,,,,,,,,,,,,,,,,,,,,,,,,,,,,,,,,,,,,,,,,,,,,,,,,,,,,,,,,,,,,,,,,,,,,,,,,,,,,,,,,,,
1739354760.256687,1739354760.257635,21.000000,0.000000,4386.922852,4376.410156,4358.077148,4363.205078,4263.333496,4241.282227,4252.436035,4275.897461,4235.641113,4235.897461,4557.692383,4478.333496,4410.256348,4570.256348,0.000000,1.000000,16.000000,,,,0.000000,4.000000,4.000000,4.000000,4.000000,4.000000,4.000000,4.000000,4.000000,4.000000,4.000000,4.000000,4.000000,4.000000,4.000000,100.000000,,,,,,,,,,,,,,,,,,,,,,,,,,,,,,,,,,,,,,,,,,,,,,,,,,,,,,,,,,,,,,,,,,,,,,,,,,,,,,,,,,,,,,,,,,,,,,,,,,,,,,,,,,,,,,,,,,,,,,,,,,,,,,,,,
1739354760.264495,1739354760.265443,22.000000,0.000000,4359.230957,4349.743652,4343.974121,4343.717773,4254.487305,4233.077148,4243.846191,4275.384766,4233.205078,4230.641113,4543.589844,4460.512695,4394.102539,4541.794922,0.000000,1.000000,16.000000,,,,0.000000,4.000000,4.000000,4.000000,4.000000,4.000000,4.000000,4.000000,4.000000,4.000000,4.000000,4.000000,4.000000,4.000000,4.000000,100.000000,,,,,,,,,,,,,,,,,,,,,,,,,,,,,,,,,,,,,,,,,,,,,,,,,,,,,,,,,,,,,,,,,,,,,,,,,,,,,,,,,,,,,,,,,,,,,,,,,,,,,,,,,,,,,,,,,,,,,,,,,,,,,,,,,
1739354760.272303,1739354760.273151,23.000000,0.000000,4330.512695,4322.692383,4329.358887,4328.974121,4248.333496,4230.769043,4238.589844,4269.487305,4220.000000,4220.641113,4531.794922,4446.153809,4380.384766,4521.538574,0.000000,1.000000,16.000000,,,,0.000000,4.000000,4.000000,4.000000,4.000000,4.000000,4.000000,4.000000,4.000000,4.000000,4.000000,4.000000,4.000000,4.000000,4.000000,100.000000,,,,,,,,,,,,,,,,,,,,,,,,,,,,,,,,,,,,,,,,,,,,,,,,,,,,,,,,,,,,,,,,,,,,,,,,,,,,,,,,,,,,,,,,,,,,,,,,,,,,,,,,,,,,,,,,,,,,,,,,,,,,,,,,,
1739354760.280111,1739354760.280959,24.000000,0.000000,4312.692383,4306.922852,4321.922852,4322.692383,4247.820313,4228.461426,4228.846191,4262.563965,4212.948730,4213.589844,4529.871582,4441.025879,4370.641113,4506.282227,0.000000,1.000000,16.000000,,,,0.000000,4.000000,4.000000,4.000000,4.000000,4.000000,4.000000,4.000000,4.000000,4.000000,4.000000,4.000000,4.000000,4.000000,4.000000,100.000000,,,,,,,,,,,,,,,,,6.000000,0.000000,0.463305,0.385010,-0.545959,0.582275,0.953730,-0.269076,0.102063,-37.468536,-30.089733,45.744015,,,,,,,,,,,,,,,,,,,,,,,,,,,,,,,,,,,,,,,,,,,,,,,,,,,,,,,,,,,,,,,,,,,,,,,,,,,,,,,,,,,,,,,,,,,,,,,,,,,,,
1739354760.287919,1739354760.288667,25.000000,0.000000,4305.384766,4304.743652,4318.205078,4322.051270,4250.000000,4228.077148,4229.102539,4264.615234,4218.717773,4217.820313,4526.922852,4437.179688,4367.948730,4500.769043,0.000000,1.000000,16.000000,,,,0.000000,4.000000,4.000000,4.000000,4.000000,4.000000,4.000000,4.000000,4.000000,4.000000,4.000000,4.000000,4.000000,4.000000,4.000000,100.000000,,,,,,,,,,,,,,,,,,,,,,,,,,,,,,,,,,,,,,,,,,,,,,,,,,,,,,,,,,,,,,,,,,,,,,,,,,,,,,,,,,,,,,,,,,,,,,,,,,,,,,,,,,,,,,,,,,,,,,,,,,,,,,,,,
1739354760.295727,1739354760.296475,26.000000,0.000000,4296.666504,4299.230957,4313.461426,4320.128418,4250.641113,4231.153809,4241.025879,4268.846191,4224.487305,4227.051270,4519.615234,4433.974121,4365.769043,4493.974121,0.000000,1.000000,16.000000,,,,0.000000,4.000000,4.000000,4.000000,4.000000,4.000000,4.000000,4.000000,4.000000,4.000000,4.000000,4.000000,4.000000,4.000000,4.000000,100.000000,,,,,,,,,,,,,,,,,,,,,,,,,,,,,,,,,,,,,,,,,,,,,,,,,,,,,,,,,,,,6.329339,2.644866,1.537267,0.590909,0.346633,4.993866,2.377309,0.796349,0.572780,0.458941,4.241045,1.834226,1.053731,0.572443,0.325942,5.089129,2.082516,0.761081,0.681794,0.337733,2.858943,1.797314,0.356124,0.385712,0.269679,1.277520,0.552687,0.320686,0.253617,0.240959,2.240823,1.923508,0.471444,0.590645,0.304762,0.495997,0.398425,0.132960,0.133408,0.111741,2.350684,1.795367,1.169742,0.540082,0.250574,4.183846,2.433324,1.700636,0.415031,0.324917,3.504161,2.595678,1.228398,0.411153,0.374086,6.506765,3.877890,2.230475,0.908572,0.499442,7.482027,4.063400,2.636974,0.549957,0.390401,4.119696,2.778724,1.570808,0.605738,0.429299
1739354760.303535,1739354760.304183,27.000000,0.000000,4288.717773,4287.179688,4309.102539,4312.692383,4248.846191,4231.153809,4243.077148,4268.589844,4227.948730,4233.333496,4519.743652,4438.333496,4357.436035,4483.333496,0.000000,1.000000,16.000000,,,,0.000000,4.000000,4.000000,4.000000,4.000000,4.000000,4.000000,4.000000,4.000000,4.000000,4.000000,4.000000,4.000000,4.000000,4.000000,100.000000,,,,,,,,,,,,,,,,,,,,,,,,,,,,,,,,,,,,,,,,,,,,,,,,,,,,,,,,,,,,,,,,,,,,,,,,,,,,,,,,,,,,,,,,,,,,,,,,,,,,,,,,,,,,,,,,,,,,,,,,,,,,,,,,,
1739354760.311344,1739354760.311991,28.000000,0.000000,4287.307617,4286.922852,4312.051270,4307.307617,4247.563965,4229.358887,4240.256348,4267.436035,4231.666504,4237.948730,4525.641113,4444.615234,4353.589844,4486.794922,0.000000,1.000000,16.000000,,,,0.000000,4.000000,4.000000,4.000000,4.000000,4.000000,4.000000,4.000000,4.000000,4.000000,4.000000,4.000000,4.000000,4.000000,4.000000,100.000000,,,,,,,,,,,,,,,,,7.000000,0.000000,0.464011,0.384094,-0.546265,0.582031,0.969845,-0.262239,0.105482,-37.471684,-30.080759,45.636280,,,,,,,,,,,,,,,,,,,,,,,,,,,,,,,,,,,,,,,,,,,,,,,,,,,,,,,,,,,,,,,,,,,,,,,,,,,,,,,,,,,,,,,,,,,,,,,,,,,,,
1739354760.319152,1739354760.319699,29.000000,0.000000,4284.487305,4291.538574,4317.051270,4312.820313,4249.743652,4231.538574,4244.615234,4266.282227,4232.051270,4242.051270,4525.641113,4445.000000,4358.846191,4495.256348,0.000000,1.000000,16.000000,,,,0.000000,4.000000,4.000000,4.000000,4.000000,4.000000,4.000000,4.000000,4.000000,4.000000,4.000000,4.000000,4.000000,4.000000,4.000000,100.000000,,,,,,,,,,,,,,,,,,,,,,,,,,,,,,,,,,,,,,,,,,,,,,,,,,,,,,,,,,,,,,,,,,,,,,,,,,,,,,,,,,,,,,,,,,,,,,,,,,,,,,,,,,,,,,,,,,,,,,,,,,,,,,,,,
1739354760.326959,1739354760.327507,30.000000,0.000000,4280.384766,4285.128418,4313.974121,4314.743652,4250.512695,4231.666504,4248.717773,4269.615234,4229.871582,4245.512695,4523.077148,4444.487305,4359.102539,4490.641113,0.000000,1.000000,16.000000,,,,0.000000,4.000000,4.000000,4.000000,4.000000,4.000000,4.000000,4.000000,4.000000,4.000000,4.000000,4.000000,4.000000,4.000000,4.000000,100.000000,,,,,,,,,,,,,,,,,,,,,,,,,,,,,,,,,,,,,,,,,,,,,,,,,,,,,,,,,,,,,,,,,,,,,,,,,,,,,,,,,,,,,,,,,,,,,,,,,,,,,,,,,,,,,,,,,,,,,,,,,,,,,,,,,
1739354760.334768,1739354760.335215,31.000000,0.000000,4276.666504,4276.410156,4309.871582,4304.358887,4246.666504,4230.641113,4248.589844,4278.077148,4231.282227,4243.461426,4524.230957,4442.820313,4355.000000,4480.384766,0.000000,1.000000,16.000000,,,,0.000000,4.000000,4.000000,4.000000,4.000000,4.000000,4.000000,4.000000,4.000000,4.000000,4.000000,4.000000,4.000000,4.000000,4.000000,100.000000,,,,,,,,,,,,,,,,,,,,,,,,,,,,,,,,,,,,,,,,,,,,,,,,,,,,,,,,,,,,,,,,,,,,,,,,,,,,,,,,,,,,,,,,,,,,,,,,,,,,,,,,,,,,,,,,,,,,,,,,,,,,,,,,,
1739354760.342576,1739354760.343023,32.000000,0.000000,4268.461426,4270.512695,4310.897461,4294.743652,4245.384766,4231.666504,4248.333496,4278.717773,4232.820313,4237.307617,4522.179688,4436.282227,4353.589844,4475.000000,0.000000,1.000000,16.000000,,,,0.000000,4.000000,4.000000,4.000000,4.000000,4.000000,4.000000,4.000000,4.000000,4.000000,4.000000,4.000000,4.000000,4.000000,4.000000,100.000000,,,,,,,,,,,,,,,,,8.000000,0.000000,0.464348,0.383606,-0.546387,0.581970,0.969357,-0.272983,0.108412,-37.324512,-30.139351,45.489319,,,,,,,,,,,,,,,,,,,,,,,,,,,,,,,,,,,,,,,,,,,,,,,,,,,,,,,,,,,,,,,,,,,,,,,,,,,,,,,,,,,,,,,,,,,,,,,,,,,,,
1739354760.350384,1739354760.350731,33.000000,0.000000,4257.563965,4265.128418,4305.897461,4293.205078,4247.051270,4230.512695,4246.794922,4272.692383,4224.230957,4232.436035,4509.871582,4425.512695,4347.179688,4466.922852,0.000000,1.000000,16.000000,,,,0.000000,4.000000,4.000000,4.000000,4.000000,4.000000,4.000000,4.000000,4.000000,4.000000,4.000000,4.000000,4.000000,4.000000,4.000000,100.000000,,,,,,,,,,,,,,,,,,,,,,,,,,,,,,,,,,,,,,,,,,,,,,,,,,,,,,,,,,,,,,,,,,,,,,,,,,,,,,,,,,,,,,,,,,,,,,,,,,,,,,,,,,,,,,,,,,,,,,,,,,,,,,,,,
1739354760.358192,1739354760.358539,34.000000,0.000000,4250.897461,4259.487305,4295.384766,4292.820313,4247.563965,4230.000000,4243.461426,4272.179688,4216.922852,4231.538574,4503.077148,4420.256348,4341.282227,4457.948730,0.000000,1.000000,16.000000,,,,0.000000,4.000000,4.000000,4.000000,4.000000,4.000000,4.000000,4.000000,4.000000,4.000000,4.000000,4.000000,4.000000,4.000000,4.000000,100.000000,,,,,,,,,,,,,,,,,,,,,,,,,,,,,,,,,,,,,,,,,,,,,,,,,,,,,,,,,,,,,,,,,,,,,,,,,,,,,,,,,,,,,,,,,,,,,,,,,,,,,,,,,,,,,,,,,,,,,,,,,,,,,,,,,
1739354760.366000,1739354760.366247,35.000000,0.000000,4246.538574,4251.794922,4293.333496,4288.333496,4246.025879,4233.077148,4248.461426,4276.922852,4224.743652,4232.051270,4507.692383,4423.205078,4344.743652,4455.512695,0.000000,1.000000,16.000000,,,,0.000000,4.000000,4.000000,4.000000,4.000000,4.000000,4.000000,4.000000,4.000000,4.000000,4.000000,4.000000,4.000000,4.000000,4.000000,100.000000,,,,,,,,,,,,,,,,,,,,,,,,,,,,,,,,,,,,,,,,,,,,,,,,,,,,,,,,,,,,,,,,,,,,,,,,,,,,,,,,,,,,,,,,,,,,,,,,,,,,,,,,,,,,,,,,,,,,,,,,,,,,,,,,,
1739354760.373808,1739354760.374155,36.000000,0.000000,4248.461426,4250.256348,4297.179688,4287.436035,4247.820313,4234.615234,4261.410156,4277.563965,4232.692383,4233.077148,4509.230957,4425.512695,4350.641113,4457.948730,0.000000,1.000000,16.000000,,,,0.000000,4.000000,4.000000,4.000000,4.000000,4.000000,4.000000,4.000000,4.000000,4.000000,4.000000,4.000000,4.000000,4.000000,4.000000,100.000000,,,,,,,,,,,,,,,,,9.000000,0.000000,0.464228,0.383484,-0.546509,0.582031,0.950311,-0.275913,0.092296,-37.325397,-30.158749,45.607052,,,,,,,,,,,,,,,,,,,,,,,,,,,,,,,,,,,,,,,,,,,,,,,,,,,,,,,,,,,,,,,,,,,,,,,,,,,,,,,,,,,,,,,,,,,,,,,,,,,,,
1739354760.381616,1739354760.381964,37.000000,0.000000,4258.205078,4264.743652,4301.922852,4294.358887,4253.589844,4235.512695,4268.205078,4276.794922,4231.922852,4241.410156,4513.333496,4431.922852,4353.717773,4466.410156,0.000000,1.000000,16.000000,,,,0.000000,4.000000,4.000000,4.000000,4.000000,4.000000,4.000000,4.000000,4.000000,4.000000,4.000000,4.000000,4.000000,4.000000,4.000000,100.000000,,,,,,,,,,,,,,,,,,,,,,,,,,,,,,,,,,,,,,,,,,,,,,,,,,,,,,,,,,,,,,,,,,,,,,,,,,,,,,,,,,,,,,,,,,,,,,,,,,,,,,,,,,,,,,,,,,,,,,,,,,,,,,,,,
1739354760.389424,1739354760.389871,38.000000,0.000000,4265.384766,4276.666504,4305.384766,4298.205078,4253.846191,4236.410156,4264.871582,4277.692383,4231.282227,4247.948730,4517.948730,4440.512695,4356.282227,4473.333496,0.000000,1.000000,16.000000,,,,0.000000,4.000000,4.000000,4.000000,4.000000,4.000000,4.000000,4.000000,4.000000,4.000000,4.000000,4.000000,4.000000,4.000000,4.000000,100.000000,,,,,,,,,,,,,,,,,,,,,,,,,,,,,,,,,,,,,,,,,,,,,,,,,,,,,,,,,,,,,,,,,,,,,,,,,,,,,,,,,,,,,,,,,,,,,,,,,,,,,,,,,,,,,,,,,,,,,,,,,,,,,,,,,
1739354760.397232,1739354760.397679,39.000000,0.000000,4265.128418,4271.410156,4303.205078,4296.153809,4250.128418,4234.230957,4259.615234,4277.820313,4232.051270,4247.692383,4511.153809,4435.256348,4356.025879,4474.615234,0.000000,1.000000,16.000000,,,,0.000000,4.000000,4.000000,4.000000,4.000000,4.000000,4.000000,4.000000,4.000000,4.000000,4.000000,4.000000,4.000000,4.000000,4.000000,100.000000,,,,,,,,,,,,,,,,,,,,,,,,,,,,,,,,,,,,,,,,,,,,,,,,,,,,,,,,,,,,,,,,,,,,,,,,,,,,,,,,,,,,,,,,,,,,,,,,,,,,,,,,,,,,,,,,,,,,,,,,,,,,,,,,,
1739354760.405040,1739354760.405587,40.000000,0.000000,4261.922852,4265.897461,4299.487305,4296.538574,4250.128418,4231.922852,4253.461426,4276.538574,4230.897461,4248.717773,4506.794922,4428.974121,4355.512695,4472.307617,0.000000,1.000000,16.000000,,,,0.000000,4.000000,4.000000,4.000000,4.000000,4.000000,4.000000,4.000000,4.000000,4.000000,4.000000,4.000000,4.000000,4.000000,4.000000,100.000000,,,,,,,,,,,,,,,,,10.000000,0.000000,0.463704,0.383301,-0.546692,0.582397,0.946893,-0.278354,0.100110,-37.242855,-30.259541,45.663013,,,,,,,,,,,,,,,,,,,,,,,,,,,,,,,,,,,,,,,,,,,,,,,,,,,,,,,,,,,,,,,,,,,,,,,,,,,,,,,,,,,,,,,,,,,,,,,,,,,,,
1739354760.412848,1739354760.413395,41.000000,0.000000,4258.205078,4264.230957,4296.153809,4290.897461,4248.846191,4228.717773,4246.282227,4272.692383,4227.820313,4249.102539,4510.256348,4430.256348,4357.179688,4465.641113,0.000000,1.000000,16.000000,,,,0.000000,4.000000,4.000000,4.000000,4.000000,4.000000,4.000000,4.000000,4.000000,4.000000,4.000000,4.000000,4.000000,4.000000,4.000000,100.000000,,,,,,,,,,,,,,,,,,,,,,,,,,,,,,,,,,,,,,,,,,,,,,,,,,,,,,,,,,,,,,,,,,,,,,,,,,,,,,,,,,,,,,,,,,,,,,,,,,,,,,,,,,,,,,,,,,,,,,,,,,,,,,,,,
1739354760.420657,1739354760.421303,42.000000,0.000000,4254.230957,4260.000000,4291.410156,4278.846191,4243.461426,4223.846191,4243.589844,4270.000000,4223.846191,4242.692383,4509.743652,4427.051270,4358.461426,4459.487305,0.000000,1.000000,16.000000,,,,0.000000,4.000000,4.000000,4.000000,4.000000,4.000000,4.000000,4.000000,4.000000,4.000000,4.000000,4.000000,4.000000,4.000000,4.000000,100.000000,,,,,,,,,,,,,,,,,,,,,,,,,,,,,,,,,,,,,,,,,,,,,,,,,,,,,,,,,,,,6.361608,2.034007,1.415296,0.514194,0.266606,6.051927,1.858379,0.832924,0.487873,0.357324,3.889438,1.273501,1.010326,0.493461,0.250518,5.093668,1.421479,0.654473,0.606085,0.252175,2.713157,1.297873,0.384052,0.380986,0.191225,1.376984,0.388156,0.371099,0.229218,0.164622,2.364117,1.673596,0.379622,0.552729,0.225049,0.477730,0.318350,0.176274,0.108692,0.091055,2.155286,1.424484,1.000995,0.443810,0.187885,3.633072,1.756842,1.489486,0.356327,0.229194,3.063513,1.982572,1.096876,0.379181,0.284622,5.744480,2.657431,1.985116,0.838054,0.383218,7.425056,3.545237,2.553215,0.511547,0.314879,4.059392,2.141156,1.436984,0.528708,0.339039
1739354760.428465,1739354760.429111,43.000000,0.000000,4263.461426,4266.666504,4298.077148,4287.948730,4249.743652,4231.025879,4249.615234,4278.846191,4234.487305,4249.615234,4520.256348,4439.230957,4367.948730,4469.358887,0.000000,1.000000,16.000000,,,,0.000000,4.000000,4.000000,4.000000,4.000000,4.000000,4.000000,4.000000,4.000000,4.000000,4.000000,4.000000,4.000000,4.000000,4.000000,100.000000,,,,,,,,,,,,,,,,,,,,,,,,,,,,,,,,,,,,,,,,,,,,,,,,,,,,,,,,,,,,,,,,,,,,,,,,,,,,,,,,,,,,,,,,,,,,,,,,,,,,,,,,,,,,,,,,,,,,,,,,,,,,,,,,,
1739354760.436273,1739354760.437019,44.000000,0.000000,4262.307617,4266.153809,4298.077148,4293.205078,4248.589844,4229.615234,4242.692383,4277.948730,4237.563965,4253.333496,4522.179688,4442.179688,4360.512695,4470.512695,0.000000,1.000000,16.000000,,,,0.000000,4.000000,4.000000,4.000000,4.000000,4.000000,4.000000,4.000000,4.000000,4.000000,4.000000,4.000000,4.000000,4.000000,4.000000,100.000000,,,,,,,,,,,,,,,,,11.000000,0.000000,0.463417,0.383179,-0.546631,0.582764,0.937126,-0.286656,0.092296,-37.201904,-30.433586,45.763382,,,,,,,,,,,,,,,,,,,,,,,,,,,,,,,,,,,,,,,,,,,,,,,,,,,,,,,,,,,,,,,,,,,,,,,,,,,,,,,,,,,,,,,,,,,,,,,,,,,,,
1739354760.444081,1739354760.444827,45.000000,0.000000,4245.128418,4247.692383,4285.769043,4275.128418,4231.922852,4212.692383,4227.179688,4265.384766,4221.282227,4235.000000,4504.358887,4420.641113,4339.230957,4452.563965,0.000000,1.000000,16.000000,,,,0.000000,4.000000,4.000000,4.000000,4.000000,4.000000,4.000000,4.000000,4.000000,4.000000,4.000000,4.000000,4.000000,4.000000,4.000000,100.000000,,,,,,,,,,,,,,,,,,,,,,,,,,,,,,,,,,,,,,,,,,,,,,,,,,,,,,,,,,,,,,,,,,,,,,,,,,,,,,,,,,,,,,,,,,,,,,,,,,,,,,,,,,,,,,,,,,,,,,,,,,,,,,,,,
1739354760.451889,1739354760.452535,46.000000,0.000000,4255.641113,4251.410156,4297.563965,4278.974121,4238.974121,4217.948730,4242.051270,4269.487305,4227.692383,4237.179688,4509.871582,4434.871582,4345.512695,4459.615234,0.000000,1.000000,16.000000,,,,0.000000,4.000000,4.000000,4.000000,4.000000,4.000000,4.000000,4.000000,4.000000,4.000000,4.000000,4.000000,4.000000,4.000000,4.000000,100.000000,,,,,,,,,,,,,,,,,,,,,,,,,,,,,,,,,,,,,,,,,,,,,,,,,,,,,,,,,,,,,,,,,,,,,,,,,,,,,,,,,,,,,,,,,,,,,,,,,,,,,,,,,,,,,,,,,,,,,,,,,,,,,,,,,
1739354760.459697,1739354760.460343,47.000000,0.000000,4278.846191,4274.230957,4319.871582,4301.282227,4259.871582,4237.563965,4266.153809,4280.769043,4248.589844,4258.205078,4531.025879,4466.282227,4362.692383,4482.179688,0.000000,1.000000,16.000000,,,,0.000000,4.000000,4.000000,4.000000,4.000000,4.000000,4.000000,4.000000,4.000000,4.000000,4.000000,4.000000,4.000000,4.000000,4.000000,100.000000,,,,,,,,,,,,,,,,,,,,,,,,,,,,,,,,,,,,,,,,,,,,,,,,,,,,,,,,,,,,,,,,,,,,,,,,,,,,,,,,,,,,,,,,,,,,,,,,,,,,,,,,,,,,,,,,,,,,,,,,,,,,,,,,,
1739354760.467505,1739354760.468051,48.000000,0.000000,4270.769043,4273.333496,4313.461426,4298.717773,4255.256348,4236.153809,4255.384766,4275.000000,4239.871582,4253.974121,4525.897461,4453.846191,4354.615234,4475.384766,0.000000,1.000000,16.000000,,,,0.000000,4.000000,4.000000,4.000000,4.000000,4.000000,4.000000,4.000000,4.000000,4.000000,4.000000,4.000000,4.000000,4.000000,4.000000,100.000000,,,,,,,,,,,,,,,,,12.000000,0.000000,0.463439,0.383118,-0.546265,0.583130,0.951776,-0.296423,0.105970,-37.015045,-30.356895,45.820374,,,,,,,,,,,,,,,,,,,,,,,,,,,,,,,,,,,,,,,,,,,,,,,,,,,,,,,,,,,,,,,,,,,,,,,,,,,,,,,,,,,,,,,,,,,,,,,,,,,,,
1739354760.475313,1739354760.475859,49.000000,0.000000,4258.717773,4262.563965,4303.974121,4289.230957,4244.102539,4227.307617,4243.974121,4266.538574,4225.897461,4241.666504,4517.820313,4438.717773,4344.615234,4461.922852,0.000000,1.000000,16.000000,,,,0.000000,4.000000,4.000000,4.000000,4.000000,4.000000,4.000000,4.000000,4.000000,4.000000,4.000000,4.000000,4.000000,4.000000,4.000000,100.000000,,,,,,,,,,,,,,,,,,,,,,,,,,,,,,,,,,,,,,,,,,,,,,,,,,,,,,,,,,,,,,,,,,,,,,,,,,,,,,,,,,,,,,,,,,,,,,,,,,,,,,,,,,,,,,,,,,,,,,,,,,,,,,,,,
1739354760.483121,1739354760.483567,50.000000,0.000000,4274.230957,4266.538574,4317.563965,4297.692383,4249.743652,4231.922852,4259.871582,4272.692383,4240.897461,4250.641113,4530.256348,4461.153809,4354.487305,4473.077148,0.000000,1.000000,16.000000,,,,0.000000,4.000000,4.000000,4.000000,4.000000,4.000000,4.000000,4.000000,4.000000,4.000000,4.000000,4.000000,4.000000,4.000000,4.000000,100.000000,,,,,,,,,,,,,,,,,,,,,,,,,,,,,,,,,,,,,,,,,,,,,,,,,,,,,,,,,,,,,,,,,,,,,,,,,,,,,,,,,,,,,,,,,,,,,,,,,,,,,,,,,,,,,,,,,,,,,,,,,,,,,,,,,
1739354760.490929,1739354760.491475,51.000000,0.000000,4276.153809,4264.487305,4321.410156,4298.205078,4248.717773,4233.077148,4264.230957,4280.769043,4247.307617,4252.179688,4530.641113,4467.179688,4357.563965,4474.230957,0.000000,1.000000,16.000000,,,,0.000000,4.000000,4.000000,4.000000,4.000000,4.000000,4.000000,4.000000,4.000000,4.000000,4.000000,4.000000,4.000000,4.000000,4.000000,100.000000,,,,,,,,,,,,,,,,,,,,,,,,,,,,,,,,,,,,,,,,,,,,,,,,,,,,,,,,,,,,,,,,,,,,,,,,,,,,,,,,,,,,,,,,,,,,,,,,,,,,,,,,,,,,,,,,,,,,,,,,,,,,,,,,,
1739354760.498737,1739354760.499283,52.000000,0.000000,4263.333496,4260.769043,4313.846191,4294.871582,4245.641113,4228.974121,4259.102539,4284.102539,4237.563965,4245.000000,4523.077148,4453.846191,4353.846191,4462.307617,0.000000,1.000000,16.000000,,,,0.000000,4.000000,4.000000,4.000000,4.000000,4.000000,4.000000,4.000000,4.000000,4.000000,4.000000,4.000000,4.000000,4.000000,4.000000,100.000000,,,,,,,,,,,,,,,,,13.000000,0.000000,0.463443,0.382996,-0.546021,0.583435,0.968868,-0.272983,0.107923,-37.046875,-30.354538,45.821671,,,,,,,,,,,,,,,,,,,,,,,,,,,,,,,,,,,,,,,,,,,,,,,,,,,,,,,,,,,,,,,,,,,,,,,,,,,,,,,,,,,,,,,,,,,,,,,,,,,,,
1739354760.506545,1739354760.507092,53.000000,0.000000,4261.666504,4263.333496,4307.948730,4293.974121,4247.563965,4226.282227,4258.461426,4280.641113,4235.000000,4245.512695,4521.410156,4446.153809,4353.717773,4458.589844,0.000000,1.000000,16.000000,,,,0.000000,4.000000,4.000000,4.000000,4.000000,4.000000,4.000000,4.000000,4.000000,4.000000,4.000000,4.000000,4.000000,4.000000,4.000000,100.000000,,,,,,,,,,,,,,,,,,,,,,,,,,,,,,,,,,,,,,,,,,,,,,,,,,,,,,,,,,,,,,,,,,,,,,,,,,,,,,,,,,,,,,,,,,,,,,,,,,,,,,,,,,,,,,,,,,,,,,,,,,,,,,,,,
1739354760.514353,1739354760.514900,54.000000,0.000000,4249.615234,4249.102539,4286.538574,4274.871582,4232.948730,4210.769043,4237.179688,4268.846191,4221.922852,4230.512695,4507.563965,4424.615234,4343.461426,4444.743652,0.000000,1.000000,16.000000,,,,0.000000,4.000000,4.000000,4.000000,4.000000,4.000000,4.000000,4.000000,4.000000,4.000000,4.000000,4.000000,4.000000,4.000000,4.000000,100.000000,,,,,,,,,,,,,,,,,,,,,,,,,,,,,,,,,,,,,,,,,,,,,,,,,,,,,,,,,,,,,,,,,,,,,,,,,,,,,,,,,,,,,,,,,,,,,,,,,,,,,,,,,,,,,,,,,,,,,,,,,,,,,,,,,
1739354760.522162,1739354760.522708,55.000000,0.000000,4239.230957,4241.410156,4282.436035,4269.871582,4227.563965,4205.384766,4229.871582,4269.487305,4215.897461,4223.077148,4500.641113,4416.410156,4340.256348,4436.282227,0.000000,1.000000,16.000000,,,,0.000000,4.000000,4.000000,4.000000,4.000000,4.000000,4.000000,4.000000,4.000000,4.000000,4.000000,4.000000,4.000000,4.000000,4.000000,100.000000,,,,,,,,,,,,,,,,,,,,,,,,,,,,,,,,,,,,,,,,,,,,,,,,,,,,,,,,,,,,,,,,,,,,,,,,,,,,,,,,,,,,,,,,,,,,,,,,,,,,,,,,,,,,,,,,,,,,,,,,,,,,,,,,,
1739354760.529970,1739354760.530416,56.000000,0.000000,4256.153809,4260.128418,4307.051270,4293.846191,4246.025879,4223.974121,4252.051270,4276.410156,4236.922852,4245.384766,4516.794922,4435.769043,4356.666504,4452.307617,0.000000,1.000000,16.000000,,,,0.000000,4.000000,4.000000,4.000000,4.000000,4.000000,4.000000,4.000000,4.000000,4.000000,4.000000,4.000000,4.000000,4.000000,4.000000,100.000000,,,,,,,,,,,,,,,,,14.000000,0.000000,0.463683,0.382874,-0.545837,0.583496,0.950311,-0.278354,0.121109,-36.992188,-30.219084,45.739506,,,,,,,,,,,,,,,,,,,,,,,,,,,,,,,,,,,,,,,,,,,,,,,,,,,,,,,,,,,,,,,,,,,,,,,,,,,,,,,,,,,,,,,,,,,,,,,,,,,,,
1739354760.537778,1739354760.538224,57.000000,0.000000,4282.948730,4284.743652,4322.948730,4314.871582,4263.205078,4242.563965,4263.461426,4273.461426,4258.974121,4272.563965,4542.563965,4461.538574,4378.717773,4477.820313,0.000000,1.000000,16.000000,,,,0.000000,4.000000,4.000000,4.000000,4.000000,4.000000,4.000000,4.000000,4.000000,4.000000,4.000000,4.000000,4.000000,4.000000,4.000000,100.000000,,,,,,,,,,,,,,,,,,,,,,,,,,,,,,,,,,,,,,,,,,,,,,,,,,,,,,,,,,,,,,,,,,,,,,,,,,,,,,,,,,,,,,,,,,,,,,,,,,,,,,,,,,,,,,,,,,,,,,,,,,,,,,,,,
1739354760.545586,1739354760.545932,58.000000,0.000000,4274.358887,4276.025879,4310.641113,4302.436035,4253.333496,4227.820313,4243.461426,4256.282227,4244.358887,4263.333496,4533.974121,4455.000000,4369.743652,4468.333496,0.000000,1.000000,16.000000,,,,0.000000,4.000000,4.000000,4.000000,4.000000,4.000000,4.000000,4.000000,4.000000,4.000000,4.000000,4.000000,4.000000,4.000000,4.000000,100.000000,,,,,,,,,,,,,,,,,,,,,,,,,,,,,,,,,,,,,,,,,,,,,,,,,,,,,,,,,,,,9.036178,1.887549,1.243977,0.447545,0.221111,10.063028,1.982952,0.917268,0.419983,0.292015,3.956800,0.901871,0.900180,0.425368,0.213575,5.881759,1.117849,0.569785,0.516483,0.195997,2.705696,0.985926,0.438518,0.360501,0.145194,1.597330,0.288310,0.429625,0.204617,0.119779,2.429725,1.361943,0.343033,0.489594,0.181565,0.476913,0.295101,0.228091,0.087800,0.077796,2.044348,1.281969,0.899440,0.352837,0.159970,3.125617,1.346845,1.256511,0.303487,0.175529,2.936583,1.525160,0.920190,0.338176,0.235149,5.480869,1.757987,1.630282,0.746606,0.313924,7.846319,3.263163,2.314090,0.474664,0.281878,6.392887,1.757643,1.284702,0.452725,0.291241
1739354760.553394,1739354760.553840,59.000000,0.000000,4258.077148,4257.563965,4302.820313,4288.974121,4241.025879,4209.743652,4233.974121,4236.410156,4224.358887,4243.077148,4508.077148,4429.230957,4350.000000,4445.897461,0.000000,1.000000,16.000000,,,,0.000000,4.000000,4.000000,4.000000,4.000000,4.000000,4.000000,4.000000,4.000000,4.000000,4.000000,4.000000,4.000000,4.000000,4.000000,100.000000,,,,,,,,,,,,,,,,,,,,,,,,,,,,,,,,,,,,,,,,,,,,,,,,,,,,,,,,,,,,,,,,,,,,,,,,,,,,,,,,,,,,,,,,,,,,,,,,,,,,,,,,,,,,,,,,,,,,,,,,,,,,,,,,,
1739354760.561202,1739354760.561648,60.000000,0.000000,4276.410156,4276.282227,4319.615234,4308.717773,4255.769043,4228.077148,4257.307617,4235.128418,4240.256348,4259.102539,4518.717773,4438.205078,4363.205078,4462.179688,0.000000,1.000000,16.000000,,,,0.000000,4.000000,4.000000,4.000000,4.000000,4.000000,4.000000,4.000000,4.000000,4.000000,4.000000,4.000000,4.000000,4.000000,4.000000,100.000000,,,,,,,,,,,,,,,,,15.000000,0.000000,0.463673,0.383240,-0.545654,0.583435,0.957148,-0.277378,0.108900,-37.076302,-30.230509,45.748886,,,,,,,,,,,,,,,,,,,,,,,,,,,,,,,,,,,,,,,,,,,,,,,,,,,,,,,,,,,,,,,,,,,,,,,,,,,,,,,,,,,,,,,,,,,,,,,,,,,,,
1739354760.569010,1739354760.569557,61.000000,0.000000,4294.487305,4296.794922,4331.410156,4324.743652,4271.666504,4245.384766,4273.205078,4256.153809,4255.128418,4276.538574,4540.641113,4464.102539,4383.589844,4487.692383,0.000000,1.000000,16.000000,,,,0.000000,4.000000,4.000000,4.000000,4.000000,4.000000,4.000000,4.000000,4.000000,4.000000,4.000000,4.000000,4.000000,4.000000,4.000000,100.000000,,,,,,,,,,,,,,,,,,,,,,,,,,,,,,,,,,,,,,,,,,,,,,,,,,,,,,,,,,,,,,,,,,,,,,,,,,,,,,,,,,,,,,,,,,,,,,,,,,,,,,,,,,,,,,,,,,,,,,,,,,,,,,,,,
1739354760.576818,1739354760.577365,62.000000,0.000000,4281.666504,4281.153809,4319.358887,4312.948730,4264.230957,4233.717773,4263.205078,4274.743652,4238.846191,4257.436035,4536.025879,4458.205078,4378.589844,4480.384766,0.000000,1.000000,16.000000,,,,0.000000,4.000000,4.000000,4.000000,4.000000,4.000000,4.000000,4.000000,4.000000,4.000000,4.000000,4.000000,4.000000,4.000000,4.000000,100.000000,,,,,,,,,,,,,,,,,,,,,,,,,,,,,,,,,,,,,,,,,,,,,,,,,,,,,,,,,,,,,,,,,,,,,,,,,,,,,,,,,,,,,,,,,,,,,,,,,,,,,,,,,,,,,,,,,,,,,,,,,,,,,,,,,
1739354760.584626,1739354760.585273,63.000000,0.000000,4267.436035,4266.794922,4305.000000,4302.436035,4251.282227,4224.102539,4252.692383,4277.179688,4222.820313,4238.589844,4525.769043,4438.077148,4364.871582,4465.000000,0.000000,1.000000,16.000000,,,,0.000000,4.000000,4.000000,4.000000,4.000000,4.000000,4.000000,4.000000,4.000000,4.000000,4.000000,4.000000,4.000000,4.000000,4.000000,100.000000,,,,,,,,,,,,,,,,,,,,,,,,,,,,,,,,,,,,,,,,,,,,,,,,,,,,,,,,,,,,,,,,,,,,,,,,,,,,,,,,,,,,,,,,,,,,,,,,,,,,,,,,,,,,,,,,,,,,,,,,,,,,,,,,,
1739354760.592434,1739354760.593081,64.000000,0.000000,4278.717773,4282.179688,4314.871582,4316.666504,4257.820313,4232.948730,4259.871582,4282.948730,4236.794922,4253.333496,4534.871582,4450.128418,4369.230957,4477.436035,5153.000000,1.000000,16.000000,,,,0.000000,4.000000,4.000000,4.000000,4.000000,4.000000,4.000000,4.000000,4.000000,4.000000,4.000000,4.000000,4.000000,4.000000,4.000000,100.000000,,,,,,,,,,,,,,,,,16.000000,0.000000,0.463724,0.383240,-0.545349,0.583679,0.969845,-0.267611,0.117690,-36.968674,-30.157459,45.757332,,,,,,,,,,,,,,,,,,,,,,,,,,,,,,,,,,,,,,,,,,,,,,,,,,,,,,,,,,,,,,,,,,,,,,,,,,,,,,,,,,,,,,,,,,,,,,,,,,,,,
1739354760.600242,1739354760.600988,65.000000,0.000000,4276.153809,4276.410156,4311.282227,4310.512695,4248.333496,4220.128418,4246.410156,4280.000000,4234.615234,4248.846191,4527.307617,4447.692383,4370.128418,4475.384766,5526.000000,1.000000,16.000000,,,,0.000000,4.000000,4.000000,4.000000,4.000000,4.000000,4.000000,4.000000,4.000000,4.000000,4.000000,4.000000,4.000000,4.000000,4.000000,100.000000,,,,,,,,,,,,,,,,,,,,,,,,,,,,,,,,,,,,,,,,,,,,,,,,,,,,,,,,,,,,,,,,,,,,,,,,,,,,,,,,,,,,,,,,,,,,,,,,,,,,,,,,,,,,,,,,,,,,,,,,,,,,,,,,,
1739354760.608050,1739354760.608796,66.000000,0.000000,4255.000000,4250.000000,4291.794922,4286.025879,4225.384766,4198.461426,4224.871582,4266.922852,4212.948730,4222.436035,4510.128418,4427.436035,4355.769043,4451.666504,5546.000000,1.000000,16.000000,,,,0.000000,4.000000,4.000000,4.000000,4.000000,4.000000,4.000000,4.000000,4.000000,4.000000,4.000000,4.000000,4.000000,4.000000,4.000000,100.000000,,,,,,,,,,,,,,,,,,,,,,,,,,,,,,,,,,,,,,,,,,,,,,,,,,,,,,,,,,,,,,,,,,,,,,,,,,,,,,,,,,,,,,,,,,,,,,,,,,,,,,,,,,,,,,,,,,,,,,,,,,,,,,,,,
1739354760.615858,1739354760.616704,67.000000,0.000000,4270.512695,4265.769043,4313.974121,4304.102539,4242.563965,4220.641113,4250.897461,4278.077148,4234.358887,4243.846191,4531.922852,4456.025879,4369.743652,4465.256348,5467.000000,1.000000,16.000000,,,,0.000000,4.000000,4.000000,4.000000,4.000000,4.000000,4.000000,4.000000,4.000000,4.000000,4.000000,4.000000,4.000000,4.000000,4.000000,100.000000,,,,,,,,,,,,,,,,,,,,,,,,,,,,,,,,,,,,,,,,,,,,,,,,,,,,,,,,,,,,,,,,,,,,,,,,,,,,,,,,,,,,,,,,,,,,,,,,,,,,,,,,,,,,,,,,,,,,,,,,,,,,,,,,,
1739354760.623667,1739354760.624512,68.000000,0.000000,4298.974121,4291.666504,4341.282227,4328.461426,4266.666504,4243.589844,4273.461426,4293.461426,4265.000000,4279.230957,4557.563965,4485.897461,4403.974121,4490.641113,5445.000000,1.000000,16.000000,,,,0.000000,4.000000,4.000000,4.000000,4.000000,4.000000,4.000000,4.000000,4.000000,4.000000,4.000000,4.000000,4.000000,4.000000,4.000000,100.000000,,,,,,,,,,,,,,,,,17.000000,0.000000,0.463444,0.383728,-0.544983,0.583923,0.968380,-0.254914,0.114760,-36.988472,-30.108379,45.648266,,,,,,,,,,,,,,,,,,,,,,,,,,,,,,,,,,,,,,,,,,,,,,,,,,,,,,,,,,,,,,,,,,,,,,,,,,,,,,,,,,,,,,,,,,,,,,,,,,,,,
1739354760.631475,1739354760.632220,69.000000,0.000000,4290.000000,4276.666504,4323.717773,4310.128418,4252.051270,4226.153809,4250.256348,4283.589844,4252.051270,4268.589844,4545.384766,4464.743652,4407.307617,4482.948730,5470.000000,1.000000,16.000000,,,,0.000000,4.000000,4.000000,4.000000,4.000000,4.000000,4.000000,4.000000,4.000000,4.000000,4.000000,4.000000,4.000000,4.000000,4.000000,100.000000,,,,,,,,,,,,,,,,,,,,,,,,,,,,,,,,,,,,,,,,,,,,,,,,,,,,,,,,,,,,,,,,,,,,,,,,,,,,,,,,,,,,,,,,,,,,,,,,,,,,,,,,,,,,,,,,,,,,,,,,,,,,,,,,,
1739354760.639283,1739354760.640028,70.000000,0.000000,4282.436035,4262.051270,4315.128418,4298.333496,4243.974121,4220.769043,4246.794922,4276.538574,4241.922852,4259.487305,4541.025879,4458.077148,4397.692383,4482.051270,5434.000000,1.000000,16.000000,,,,0.000000,4.000000,4.000000,4.000000,4.000000,4.000000,4.000000,4.000000,4.000000,4.000000,4.000000,4.000000,4.000000,4.000000,4.000000,100.000000,,,,,,,,,,,,,,,,,,,,,,,,,,,,,,,,,,,,,,,,,,,,,,,,,,,,,,,,,,,,,,,,,,,,,,,,,,,,,,,,,,,,,,,,,,,,,,,,,,,,,,,,,,,,,,,,,,,,,,,,,,,,,,,,,
1739354760.647091,1739354760.647736,71.000000,0.000000,4302.563965,4279.487305,4340.000000,4319.358887,4266.410156,4245.897461,4278.589844,4284.871582,4263.333496,4283.461426,4565.512695,4486.794922,4410.512695,4504.230957,2481.000000,1.000000,16.000000,,,,0.000000,4.000000,4.000000,4.000000,4.000000,4.000000,4.000000,4.000000,4.000000,4.000000,4.000000,4.000000,4.000000,4.000000,4.000000,100.000000,,,,,,,,,,,,,,,,,,,,,,,,,,,,,,,,,,,,,,,,,,,,,,,,,,,,,,,,,,,,,,,,,,,,,,,,,,,,,,,,,,,,,,,,,,,,,,,,,,,,,,,,,,,,,,,,,,,,,,,,,,,,,,,,,
1739354760.654899,1739354760.655544,72.000000,0.000000,4307.692383,4286.282227,4342.436035,4323.974121,4273.846191,4255.128418,4281.666504,4286.666504,4269.615234,4292.179688,4571.282227,4491.153809,4420.384766,4506.666504,5232.000000,1.000000,16.000000,,,,0.000000,4.000000,4.000000,4.000000,4.000000,4.000000,4.000000,4.000000,4.000000,4.000000,4.000000,4.000000,4.000000,4.000000,4.000000,100.000000,,,,,,,,,,,,,,,,,18.000000,0.000000,0.462512,0.384460,-0.544800,0.584351,0.961055,-0.272983,0.108900,-37.172958,-30.197542,45.600105,,,,,,,,,,,,,,,,,,,,,,,,,,,,,,,,,,,,,,,,,,,,,,,,,,,,,,,,,,,,,,,,,,,,,,,,,,,,,,,,,,,,,,,,,,,,,,,,,,,,,
1739354760.662707,1739354760.663252,73.000000,0.000000,4289.615234,4267.948730,4323.077148,4308.205078,4263.333496,4242.307617,4262.948730,4283.589844,4251.794922,4274.487305,4553.717773,4473.205078,4407.179688,4491.410156,5572.000000,1.000000,16.000000,,,,0.000000,4.000000,4.000000,4.000000,4.000000,4.000000,4.000000,4.000000,4.000000,4.000000,4.000000,4.000000,4.000000,4.000000,4.000000,100.000000,,,,,,,,,,,,,,,,,,,,,,,,,,,,,,,,,,,,,,,,,,,,,,,,,,,,,,,,,,,,,,,,,,,,,,,,,,,,,,,,,,,,,,,,,,,,,,,,,,,,,,,,,,,,,,,,,,,,,,,,,,,,,,,,,
1739354760.670515,1739354760.671060,74.000000,0.000000,4276.666504,4255.384766,4319.358887,4305.000000,4258.077148,4228.205078,4256.794922,4281.538574,4239.743652,4258.589844,4542.692383,4463.846191,4394.743652,4482.307617,5026.000000,1.000000,16.000000,,,,0.000000,4.000000,4.000000,4.000000,4.000000,4.000000,4.000000,4.000000,4.000000,4.000000,4.000000,4.000000,4.000000,4.000000,4.000000,100.000000,1.000000,83.333336,4.000000,4.000000,3.000000,4.000000,4.000000,4.000000,4.000000,4.000000,4.000000,4.000000,4.000000,3.000000,4.000000,4.000000,,,,,,,,,,,,,,,,,,,,,,,,,,,,,,,,,,,,,,,,,,,,16.709887,2.325810,1.115301,0.405331,0.212085,19.243767,2.762316,1.070926,0.389504,0.272910,5.078800,0.767024,0.772002,0.382388,0.209598,8.354909,1.169408,0.534361,0.429262,0.175524,3.014293,0.849381,0.500990,0.327410,0.131409,1.952213,0.249561,0.473097,0.185281,0.104834,2.546135,1.041676,0.364301,0.412112,0.174859,0.506008,0.306744,0.267091,0.073937,0.073621,2.068239,1.357515,0.872504,0.288691,0.165331,2.792685,1.246541,1.084290,0.269187,0.160679,3.440778,1.300670,0.748664,0.304185,0.224852,6.545343,1.349803,1.284347,0.658396,0.292321,9.204239,3.250162,2.000107,0.446145,0.285184,12.999152,1.799582,1.203132,0.397233,0.285494
1739354760.678323,1739354760.678768,75.000000,0.000000,4290.897461,4270.897461,4335.256348,4323.846191,4264.487305,4234.230957,4265.512695,4282.307617,4249.358887,4263.333496,4551.666504,4473.333496,4406.153809,4493.077148,5502.000000,1.000000,16.000000,,,,0.000000,4.000000,4.000000,4.000000,4.000000,4.000000,4.000000,4.000000,4.000000,4.000000,4.000000,4.000000,4.000000,4.000000,4.000000,100.000000,,,,,,,,,,,,,,,,,,,,,,,,,,,,,,,,,,,,,,,,,,,,,,,,,,,,,,,,,,,,,,,,,,,,,,,,,,,,,,,,,,,,,,,,,,,,,,,,,,,,,,,,,,,,,,,,,,,,,,,,,,,,,,,,,
1739354760.686131,1739354760.686576,76.000000,0.000000,4316.025879,4292.948730,4351.538574,4343.461426,4281.410156,4254.743652,4281.153809,4282.307617,4270.641113,4285.641113,4570.769043,4492.692383,4427.051270,4511.153809,5579.000000,1.000000,16.000000,,,,0.000000,4.000000,4.000000,4.000000,4.000000,4.000000,4.000000,4.000000,4.000000,4.000000,4.000000,4.000000,4.000000,4.000000,4.000000,100.000000,,,,,,,,,,,,,,,,,19.000000,0.000000,0.461693,0.384949,-0.544495,0.584961,0.942010,-0.273471,0.124527,-37.322330,-29.911121,45.656761,,,,,,,,,,,,,,,,,,,,,,,,,,,,,,,,,,,,,,,,,,,,,,,,,,,,,,,,,,,,,,,,,,,,,,,,,,,,,,,,,,,,,,,,,,,,,,,,,,,,,
1739354760.693939,1739354760.694284,77.000000,0.000000,4309.487305,4287.179688,4346.666504,4334.487305,4279.102539,4254.230957,4280.384766,4278.974121,4277.820313,4292.948730,4571.794922,4493.461426,4430.256348,4504.615234,6583.000000,1.000000,16.000000,,,,0.000000,4.000000,4.000000,4.000000,4.000000,4.000000,4.000000,4.000000,4.000000,4.000000,4.000000,4.000000,4.000000,4.000000,4.000000,100.000000,,,,,,,,,,,,,,,,,,,,,,,,,,,,,,,,,,,,,,,,,,,,,,,,,,,,,,,,,,,,,,,,,,,,,,,,,,,,,,,,,,,,,,,,,,,,,,,,,,,,,,,,,,,,,,,,,,,,,,,,,,,,,,,,,
1739354760.701747,1739354760.702193,78.000000,0.000000,4295.897461,4277.820313,4340.641113,4323.077148,4268.333496,4246.538574,4277.692383,4283.717773,4277.563965,4287.307617,4566.666504,4488.846191,4424.358887,4495.897461,5026.000000,1.000000,16.000000,,,,0.000000,4.000000,4.000000,4.000000,4.000000,4.000000,4.000000,4.000000,4.000000,4.000000,4.000000,4.000000,4.000000,4.000000,4.000000,100.000000,,,,,,,,,,,,,,,,,,,,,,,,,,,,,,,,,,,,,,,,,,,,,,,,,,,,,,,,,,,,,,,,,,,,,,,,,,,,,,,,,,,,,,,,,,,,,,,,,,,,,,,,,,,,,,,,,,,,,,,,,,,,,,,,,
1739354760.709556,1739354760.710001,79.000000,0.000000,4300.769043,4279.743652,4339.230957,4325.897461,4266.666504,4248.589844,4278.589844,4287.563965,4272.179688,4282.179688,4565.897461,4487.051270,4421.025879,4499.487305,5502.000000,1.000000,16.000000,,,,0.000000,4.000000,4.000000,4.000000,4.000000,4.000000,4.000000,4.000000,4.000000,4.000000,4.000000,4.000000,4.000000,4.000000,4.000000,100.000000,,,,,,,,,,,,,,,,,,,,,,,,,,,,,,,,,,,,,,,,,,,,,,,,,,,,,,,,,,,,,,,,,,,,,,,,,,,,,,,,,,,,,,,,,,,,,,,,,,,,,,,,,,,,,,,,,,,,,,,,,,,,,,,,,
1739354760.717363,1739354760.717909,80.000000,0.000000,4298.077148,4273.846191,4333.077148,4322.051270,4260.128418,4239.487305,4266.410156,4286.282227,4258.974121,4275.769043,4564.102539,4479.102539,4418.461426,4496.025879,5579.000000,1.000000,16.000000,,,,0.000000,4.000000,4.000000,4.000000,4.000000,4.000000,4.000000,4.000000,4.000000,4.000000,4.000000,4.000000,4.000000,4.000000,4.000000,100.000000,,,,,,,,,,,,,,,,,20.000000,0.000000,0.461387,0.385376,-0.544189,0.585205,0.934684,-0.288121,0.113295,-37.173428,-29.970009,45.607754,,,,,,,,,,,,,,,,,,,,,,,,,,,,,,,,,,,,,,,,,,,,,,,,,,,,,,,,,,,,,,,,,,,,,,,,,,,,,,,,,,,,,,,,,,,,,,,,,,,,,
1739354760.725172,1739354760.725717,81.000000,0.000000,4307.307617,4286.410156,4346.794922,4331.794922,4266.410156,4241.538574,4269.102539,4296.538574,4270.000000,4288.589844,4579.615234,4492.692383,4433.077148,4510.128418,6583.000000,1.000000,16.000000,,,,0.000000,4.000000,4.000000,4.000000,4.000000,4.000000,4.000000,4.000000,4.000000,4.000000,4.000000,4.000000,4.000000,4.000000,4.000000,100.000000,,,,,,,,,,,,,,,,,,,,,,,,,,,,,,,,,,,,,,,,,,,,,,,,,,,,,,,,,,,,,,,,,,,,,,,,,,,,,,,,,,,,,,,,,,,,,,,,,,,,,,,,,,,,,,,,,,,,,,,,,,,,,,,,,
1739354760.732980,1739354760.733525,82.000000,0.000000,4334.871582,4317.307617,4371.282227,4358.205078,4287.563965,4262.436035,4290.000000,4305.512695,4292.692383,4311.666504,4602.179688,4521.666504,4450.384766,4539.358887,5026.000000,1.000000,16.000000,,,,0.000000,4.000000,4.000000,4.000000,4.000000,4.000000,4.000000,4.000000,4.000000,4.000000,4.000000,4.000000,4.000000,4.000000,4.000000,100.000000,,,,,,,,,,,,,,,,,,,,,,,,,,,,,,,,,,,,,,,,,,,,,,,,,,,,,,,,,,,,,,,,,,,,,,,,,,,,,,,,,,,,,,,,,,,,,,,,,,,,,,,,,,,,,,,,,,,,,,,,,,,,,,,,,
1739354760.740788,1739354760.741233,83.000000,0.000000,4332.692383,4315.384766,4364.230957,4357.692383,4285.128418,4257.820313,4284.615234,4294.743652,4277.948730,4299.871582,4588.974121,4511.410156,4441.922852,4530.641113,5502.000000,1.000000,16.000000,,,,0.000000,4.000000,4.000000,4.000000,4.000000,4.000000,4.000000,4.000000,4.000000,4.000000,4.000000,4.000000,4.000000,4.000000,4.000000,100.000000,,,,,,,,,,,,,,,,,,,,,,,,,,,,,,,,,,,,,,,,,,,,,,,,,,,,,,,,,,,,,,,,,,,,,,,,,,,,,,,,,,,,,,,,,,,,,,,,,,,,,,,,,,,,,,,,,,,,,,,,,,,,,,,,,
1739354760.748596,1739354760.749041,84.000000,0.000000,4315.897461,4297.563965,4351.666504,4343.846191,4275.000000,4245.000000,4271.922852,4287.051270,4256.922852,4278.589844,4569.358887,4489.102539,4431.922852,4513.205078,5579.000000,1.000000,16.000000,,,,0.000000,4.000000,4.000000,4.000000,4.000000,4.000000,4.000000,4.000000,4.000000,4.000000,4.000000,4.000000,4.000000,4.000000,4.000000,100.000000,,,,,,,,,,,,,,,,,21.000000,0.000000,0.461589,0.385559,-0.543823,0.585266,0.961055,-0.283726,0.130387,-37.139420,-30.006342,45.713642,,,,,,,,,,,,,,,,,,,,,,,,,,,,,,,,,,,,,,,,,,,,,,,,,,,,,,,,,,,,,,,,,,,,,,,,,,,,,,,,,,,,,,,,,,,,,,,,,,,,,
1739354760.756404,1739354760.756749,85.000000,0.000000,4316.794922,4299.871582,4358.974121,4346.282227,4282.179688,4252.051270,4281.282227,4293.974121,4263.846191,4281.410156,4578.589844,4494.871582,4435.384766,4523.974121,6583.000000,1.000000,16.000000,,,,0.000000,4.000000,4.000000,4.000000,4.000000,4.000000,4.000000,4.000000,4.000000,4.000000,4.000000,4.000000,4.000000,4.000000,4.000000,100.000000,,,,,,,,,,,,,,,,,,,,,,,,,,,,,,,,,,,,,,,,,,,,,,,,,,,,,,,,,,,,,,,,,,,,,,,,,,,,,,,,,,,,,,,,,,,,,,,,,,,,,,,,,,,,,,,,,,,,,,,,,,,,,,,,,
1739354760.764212,1739354760.764557,86.000000,0.000000,4315.512695,4298.846191,4354.358887,4345.512695,4280.128418,4252.692383,4279.871582,4292.179688,4263.846191,4281.282227,4578.717773,4493.717773,4430.897461,4520.512695,5026.000000,1.000000,16.000000,,,,0.000000,4.000000,4.000000,4.000000,4.000000,4.000000,4.000000,4.000000,4.000000,4.000000,4.000000,4.000000,4.000000,4.000000,4.000000,100.000000,,,,,,,,,,,,,,,,,,,,,,,,,,,,,,,,,,,,,,,,,,,,,,,,,,,,,,,,,,,,,,,,,,,,,,,,,,,,,,,,,,,,,,,,,,,,,,,,,,,,,,,,,,,,,,,,,,,,,,,,,,,,,,,,,
1739354760.772020,1739354760.772265,87.000000,0.000000,4305.512695,4291.794922,4341.153809,4337.948730,4274.102539,4246.410156,4266.153809,4286.282227,4254.230957,4273.461426,4562.051270,4478.077148,4422.307617,4499.615234,5502.000000,1.000000,16.000000,,,,0.000000,4.000000,4.000000,4.000000,4.000000,4.000000,4.000000,4.000000,4.000000,4.000000,4.000000,4.000000,4.000000,4.000000,4.000000,100.000000,,,,,,,,,,,,,,,,,,,,,,,,,,,,,,,,,,,,,,,,,,,,,,,,,,,,,,,,,,,,,,,,,,,,,,,,,,,,,,,,,,,,,,,,,,,,,,,,,,,,,,,,,,,,,,,,,,,,,,,,,,,,,,,,,
1739354760.779828,1739354760.780174,88.000000,0.000000,4297.307617,4291.538574,4339.230957,4335.256348,4276.410156,4247.563965,4262.948730,4288.717773,4255.897461,4274.487305,4554.871582,4471.922852,4420.641113,4492.051270,5579.000000,1.000000,16.000000,,,,0.000000,4.000000,4.000000,4.000000,4.000000,4.000000,4.000000,4.000000,4.000000,4.000000,4.000000,4.000000,4.000000,4.000000,4.000000,100.000000,,,,,,,,,,,,,,,,,22.000000,0.000000,0.461820,0.385620,-0.543518,0.585327,0.958125,-0.285679,0.130387,-37.275478,-29.972374,45.658947,,,,,,,,,,,,,,,,,,,,,,,,,,,,,,,,,,,,,,,,,,,,,,,,,,,,,,,,,,,,,,,,,,,,,,,,,,,,,,,,,,,,,,,,,,,,,,,,,,,,,
1739354760.787636,1739354760.787982,89.000000,0.000000,4291.794922,4286.538574,4337.436035,4333.589844,4270.000000,4246.410156,4263.589844,4287.179688,4258.461426,4271.922852,4554.871582,4468.717773,4420.128418,4493.077148,6583.000000,1.000000,16.000000,,,,0.000000,4.000000,4.000000,4.000000,4.000000,4.000000,4.000000,4.000000,4.000000,4.000000,4.000000,4.000000,4.000000,4.000000,4.000000,100.000000,,,,,,,,,,,,,,,,,,,,,,,,,,,,,,,,,,,,,,,,,,,,,,,,,,,,,,,,,,,,,,,,,,,,,,,,,,,,,,,,,,,,,,,,,,,,,,,,,,,,,,,,,,,,,,,,,,,,,,,,,,,,,,,,,
1739354760.795444,1739354760.795890,90.000000,0.000000,4293.974121,4280.128418,4332.692383,4330.769043,4263.205078,4241.794922,4260.000000,4283.974121,4256.282227,4263.846191,4552.820313,4468.205078,4416.282227,4491.538574,5026.000000,1.000000,16.000000,,,,0.000000,4.000000,4.000000,4.000000,4.000000,4.000000,4.000000,4.000000,4.000000,4.000000,4.000000,4.000000,4.000000,4.000000,4.000000,100.000000,,,,,,,,,,,,,,,,,,,,,,,,,,,,,,,,,,,,,,,,,,,,,,,,,,,,,,,,,,,,29.771223,3.256526,1.120789,0.393333,0.239267,33.672478,3.965358,1.307575,0.395478,0.301215,7.394124,0.842114,0.700340,0.368076,0.233618,12.644422,1.457680,0.572047,0.356649,0.194254,3.654871,0.830620,0.553755,0.288494,0.148456,2.418659,0.267690,0.489773,0.176162,0.118448,2.798030,0.805636,0.444581,0.339934,0.206514,0.578387,0.334082,0.281221,0.073081,0.080147,2.175526,1.562606,0.903685,0.259345,0.202645,2.622800,1.386705,1.040614,0.257038,0.180882,4.571026,1.295968,0.632318,0.289849,0.249786,8.991203,1.403957,1.079040,0.594974,0.318804,11.481600,3.413691,1.697948,0.428916,0.315049,24.108706,2.305871,1.263315,0.373500,0.317773
1739354760.803252,1739354760.803698,91.000000,0.000000,4293.846191,4278.333496,4332.692383,4325.000000,4262.307617,4241.410156,4259.230957,4286.794922,4257.051270,4263.717773,4548.974121,4469.871582,4412.179688,4492.179688,5502.000000,1.000000,16.000000,,,,0.000000,4.000000,4.000000,4.000000,4.000000,4.000000,4.000000,4.000000,4.000000,4.000000,4.000000,4.000000,4.000000,4.000000,4.000000,100.000000,,,,,,,,,,,,,,,,,,,,,,,,,,,,,,,,,,,,,,,,,,,,,,,,,,,,,,,,,,,,,,,,,,,,,,,,,,,,,,,,,,,,,,,,,,,,,,,,,,,,,,,,,,,,,,,,,,,,,,,,,,,,,,,,,
1739354760.811061,1739354760.811606,92.000000,0.000000,4291.666504,4278.461426,4340.769043,4325.256348,4265.384766,4246.666504,4272.179688,4289.615234,4266.538574,4277.436035,4555.256348,4473.589844,4417.692383,4503.717773,5579.000000,1.000000,16.000000,,,,0.000000,4.000000,4.000000,4.000000,4.000000,4.000000,4.000000,4.000000,4.000000,4.000000,4.000000,4.000000,4.000000,4.000000,4.000000,100.000000,,,,,,,,,,,,,,,,,23.000000,0.000000,0.462348,0.385681,-0.543091,0.585266,0.965938,-0.277378,0.134294,-37.481262,-29.941803,45.609718,,,,,,,,,,,,,,,,,,,,,,,,,,,,,,,,,,,,,,,,,,,,,,,,,,,,,,,,,,,,,,,,,,,,,,,,,,,,,,,,,,,,,,,,,,,,,,,,,,,,,
1739354760.818869,1739354760.819413,93.000000,0.000000,4297.692383,4280.641113,4346.666504,4335.512695,4272.563965,4253.846191,4281.282227,4291.410156,4276.922852,4291.025879,4564.102539,4482.051270,4426.410156,4516.282227,6583.000000,1.000000,16.000000,,,,0.000000,4.000000,4.000000,4.000000,4.000000,4.000000,4.000000,4.000000,4.000000,4.000000,4.000000,4.000000,4.000000,4.000000,4.000000,100.000000,,,,,,,,,,,,,,,,,,,,,,,,,,,,,,,,,,,,,,,,,,,,,,,,,,,,,,,,,,,,,,,,,,,,,,,,,,,,,,,,,,,,,,,,,,,,,,,,,,,,,,,,,,,,,,,,,,,,,,,,,,,,,,,,,
1739354760.826677,1739354760.827321,94.000000,0.000000,4308.846191,4289.487305,4350.512695,4346.282227,4280.641113,4261.794922,4281.538574,4292.563965,4282.692383,4297.563965,4570.641113,4492.307617,4431.666504,4519.102539,5026.000000,1.000000,16.000000,,,,0.000000,4.000000,4.000000,4.000000,4.000000,4.000000,4.000000,4.000000,4.000000,4.000000,4.000000,4.000000,4.000000,4.000000,4.000000,100.000000,,,,,,,,,,,,,,,,,,,,,,,,,,,,,,,,,,,,,,,,,,,,,,,,,,,,,,,,,,,,,,,,,,,,,,,,,,,,,,,,,,,,,,,,,,,,,,,,,,,,,,,,,,,,,,,,,,,,,,,,,,,,,,,,,
1739354760.834485,1739354760.835229,95.000000,0.000000,4310.512695,4290.384766,4348.974121,4345.256348,4281.666504,4263.333496,4282.051270,4288.333496,4277.307617,4297.051270,4570.000000,4489.871582,4425.128418,4517.436035,5502.000000,1.000000,16.000000,,,,0.000000,4.000000,4.000000,4.000000,4.000000,4.000000,4.000000,4.000000,4.000000,4.000000,4.000000,4.000000,4.000000,4.000000,4.000000,100.000000,,,,,,,,,,,,,,,,,,,,,,,,,,,,,,,,,,,,,,,,,,,,,,,,,,,,,,,,,,,,,,,,,,,,,,,,,,,,,,,,,,,,,,,,,,,,,,,,,,,,,,,,,,,,,,,,,,,,,,,,,,,,,,,,,
1739354760.842293,1739354760.843038,96.000000,0.000000,4305.128418,4280.512695,4341.282227,4337.820313,4278.205078,4257.820313,4280.897461,4283.333496,4264.102539,4290.641113,4563.205078,4477.436035,4412.692383,4515.256348,5579.000000,1.000000,16.000000,,,,0.000000,4.000000,4.000000,4.000000,4.000000,4.000000,4.000000,4.000000,4.000000,4.000000,4.000000,4.000000,4.000000,4.000000,4.000000,100.000000,,,,,,,,,,,,,,,,,24.000000,0.000000,0.462467,0.385803,-0.542969,0.585205,0.967892,-0.276401,0.129410,-37.549805,-29.980955,45.582081,,,,,,,,,,,,,,,,,,,,,,,,,,,,,,,,,,,,,,,,,,,,,,,,,,,,,,,,,,,,,,,,,,,,,,,,,,,,,,,,,,,,,,,,,,,,,,,,,,,,,
1739354760.850101,1739354760.850846,97.000000,0.000000,4310.000000,4284.615234,4346.282227,4345.641113,4282.820313,4264.358887,4285.769043,4288.333496,4268.077148,4298.333496,4569.230957,4481.025879,4420.769043,4518.077148,6583.000000,1.000000,16.000000,,,,0.000000,4.000000,4.000000,4.000000,4.000000,4.000000,4.000000,4.000000,4.000000,4.000000,4.000000,4.000000,4.000000,4.000000,4.000000,100.000000,,,,,,,,,,,,,,,,,,,,,,,,,,,,,,,,,,,,,,,,,,,,,,,,,,,,,,,,,,,,,,,,,,,,,,,,,,,,,,,,,,,,,,,,,,,,,,,,,,,,,,,,,,,,,,,,,,,,,,,,,,,,,,,,,
1739354760.857909,1739354760.858554,98.000000,0.000000,4305.256348,4280.256348,4345.384766,4342.179688,4275.769043,4258.717773,4277.563965,4286.794922,4270.128418,4302.692383,4565.128418,4480.769043,4425.000000,4513.333496,5026.000000,1.000000,16.000000,,,,0.000000,4.000000,4.000000,4.000000,4.000000,4.000000,4.000000,4.000000,4.000000,4.000000,4.000000,4.000000,4.000000,4.000000,4.000000,100.000000,,,,,,,,,,,,,,,,,,,,,,,,,,,,,,,,,,,,,,,,,,,,,,,,,,,,,,,,,,,,,,,,,,,,,,,,,,,,,,,,,,,,,,,,,,,,,,,,,,,,,,,,,,,,,,,,,,,,,,,,,,,,,,,,,
1739354760.865717,1739354760.866362,99.000000,0.000000,4289.871582,4264.358887,4332.307617,4324.102539,4260.000000,4237.436035,4259.102539,4279.230957,4258.589844,4291.025879,4550.512695,4469.358887,4414.487305,4502.563965,5502.000000,1.000000,16.000000,,,,0.000000,4.000000,4.000000,4.000000,4.000000,4.000000,4.000000,4.000000,4.000000,4.000000,4.000000,4.000000,4.000000,4.000000,4.000000,100.000000,,,,,,,,,,,,,,,,,,,,,,,,,,,,,,,,,,,,,,,,,,,,,,,,,,,,,,,,,,,,,,,,,,,,,,,,,,,,,,,,,,,,,,,,,,,,,,,,,,,,,,,,,,,,,,,,,,,,,,,,,,,,,,,,,
1739354760.873525,1739354760.874070,100.000000,0.000000,4301.153809,4277.179688,4340.128418,4334.230957,4267.820313,4245.641113,4270.256348,4283.717773,4265.000000,4296.025879,4560.769043,4478.461426,4423.205078,4507.563965,5579.000000,1.000000,16.000000,,,,0.000000,4.000000,4.000000,4.000000,4.000000,4.000000,4.000000,4.000000,4.000000,4.000000,4.000000,4.000000,4.000000,4.000000,4.000000,100.000000,,,,,,,,,,,,,,,,,25.000000,0.000000,0.462478,0.386047,-0.542786,0.585205,0.959101,-0.274448,0.124039,-37.478157,-30.016193,45.607204,,,,,,,,,,,,,,,,,,,,,,,,,,,,,,,,,,,,,,,,,,,,,,,,,,,,,,,,,,,,,,,,,,,,,,,,,,,,,,,,,,,,,,,,,,,,,,,,,,,,,
1739354760.881333,1739354760.881878,101.000000,0.000000,4321.153809,4300.897461,4357.948730,4356.153809,4285.769043,4269.743652,4293.333496,4289.358887,4282.436035,4313.205078,4579.871582,4495.256348,4442.692383,4519.230957,6583.000000,1.000000,16.000000,,,,0.000000,4.000000,4.000000,4.000000,4.000000,4.000000,4.000000,4.000000,4.000000,4.000000,4.000000,4.000000,4.000000,4.000000,4.000000,100.000000,,,,,,,,,,,,,,,,,,,,,,,,,,,,,,,,,,,,,,,,,,,,,,,,,,,,,,,,,,,,,,,,,,,,,,,,,,,,,,,,,,,,,,,,,,,,,,,,,,,,,,,,,,,,,,,,,,,,,,,,,,,,,,,,,
1739354760.889141,1739354760.889586,102.000000,0.000000,4317.307617,4299.358887,4358.461426,4354.358887,4284.615234,4268.974121,4285.256348,4283.846191,4281.282227,4314.230957,4576.410156,4490.769043,4438.846191,4516.538574,5026.000000,1.000000,16.000000,,,,0.000000,4.000000,4.000000,4.000000,4.000000,4.000000,4.000000,4.000000,4.000000,4.000000,4.000000,4.000000,4.000000,4.000000,4.000000,100.000000,,,,,,,,,,,,,,,,,,,,,,,,,,,,,,,,,,,,,,,,,,,,,,,,,,,,,,,,,,,,,,,,,,,,,,,,,,,,,,,,,,,,,,,,,,,,,,,,,,,,,,,,,,,,,,,,,,,,,,,,,,,,,,,,,
1739354760.896949,1739354760.897394,103.000000,0.000000,4309.230957,4293.333496,4353.589844,4348.846191,4278.205078,4261.794922,4273.974121,4277.307617,4274.487305,4309.487305,4567.563965,4483.205078,4429.358887,4508.717773,5502.000000,1.000000,16.000000,,,,0.000000,4.000000,4.000000,4.000000,4.000000,4.000000,4.000000,4.000000,4.000000,4.000000,4.000000,4.000000,4.000000,4.000000,4.000000,100.000000,,,,,,,,,,,,,,,,,,,,,,,,,,,,,,,,,,,,,,,,,,,,,,,,,,,,,,,,,,,,,,,,,,,,,,,,,,,,,,,,,,,,,,,,,,,,,,,,,,,,,,,,,,,,,,,,,,,,,,,,,,,,,,,,,
1739354760.904757,1739354760.905102,104.000000,0.000000,4311.282227,4296.025879,4349.487305,4348.589844,4282.436035,4265.512695,4280.897461,4279.615234,4276.666504,4311.794922,4569.487305,4484.487305,4428.205078,4503.717773,5579.000000,1.000000,16.000000,,,,0.000000,4.000000,4.000000,4.000000,4.000000,4.000000,4.000000,4.000000,4.000000,4.000000,4.000000,4.000000,4.000000,4.000000,4.000000,100.000000,,,,,,,,,,,,,,,,,26.000000,0.000000,0.462221,0.386719,-0.542725,0.585022,0.957148,-0.261262,0.118667,-37.580341,-29.981241,45.679817,,,,,,,,,,,,,,,,,,,,,,,,,,,,,,,,,,,,,,,,,,,,,,,,,,,,,,,,,,,,,,,,,,,,,,,,,,,,,,,,,,,,,,,,,,,,,,,,,,,,,
1739354760.912566,1739354760.912910,105.000000,0.000000,4310.384766,4291.666504,4341.794922,4339.487305,4281.666504,4263.333496,4279.743652,4281.153809,4276.922852,4312.307617,4570.128418,4479.871582,4423.461426,4496.794922,6583.000000,1.000000,16.000000,,,,0.000000,4.000000,4.000000,4.000000,4.000000,4.000000,4.000000,4.000000,4.000000,4.000000,4.000000,4.000000,4.000000,4.000000,4.000000,100.000000,,,,,,,,,,,,,,,,,,,,,,,,,,,,,,,,,,,,,,,,,,,,,,,,,,,,,,,,,,,,,,,,,,,,,,,,,,,,,,,,,,,,,,,,,,,,,,,,,,,,,,,,,,,,,,,,,,,,,,,,,,,,,,,,,
1739354760.920374,1739354760.920618,106.000000,0.000000,4309.615234,4289.102539,4342.179688,4335.641113,4276.922852,4261.538574,4276.794922,4277.692383,4276.666504,4315.000000,4570.769043,4475.384766,4422.820313,4495.384766,5026.000000,1.000000,16.000000,,,,0.000000,4.000000,4.000000,4.000000,4.000000,4.000000,4.000000,4.000000,4.000000,4.000000,4.000000,4.000000,4.000000,4.000000,4.000000,100.000000,,,,,,,,,,,,,,,,,,,,,,,,,,,,,,,,,,,,,,,,,,,,,,,,,,,,,,,,,,,,45.968395,4.418983,1.291085,0.405495,0.305987,50.720364,5.196712,1.601294,0.419869,0.376803,10.494761,1.069407,0.741458,0.376521,0.289014,17.995365,1.826266,0.688220,0.307901,0.257830,4.473525,0.880034,0.582032,0.251988,0.197594,2.872963,0.345273,0.485317,0.182002,0.165847,3.176178,0.730597,0.585558,0.293171,0.283305,0.726524,0.389583,0.280006,0.096438,0.099164,2.284482,1.786197,0.970656,0.261516,0.277498,2.488722,1.658586,1.148052,0.264041,0.242228,6.080484,1.449685,0.599286,0.302033,0.310533,12.459388,1.783420,1.086093,0.568976,0.401352,14.186852,3.609604,1.465438,0.426205,0.366535,37.739933,3.165673,1.474004,0.380576,0.387386
1739354760.928182,1739354760.928426,107.000000,0.000000,4310.000000,4293.461426,4343.717773,4342.820313,4280.128418,4264.871582,4280.897461,4276.794922,4273.974121,4315.256348,4571.025879,4477.307617,4421.922852,4498.077148,5502.000000,1.000000,16.000000,,,,0.000000,4.000000,4.000000,4.000000,4.000000,4.000000,4.000000,4.000000,4.000000,4.000000,4.000000,4.000000,4.000000,4.000000,4.000000,100.000000,,,,,,,,,,,,,,,,,,,,,,,,,,,,,,,,,,,,,,,,,,,,,,,,,,,,,,,,,,,,,,,,,,,,,,,,,,,,,,,,,,,,,,,,,,,,,,,,,,,,,,,,,,,,,,,,,,,,,,,,,,,,,,,,,
1739354760.935990,1739354760.936134,108.000000,0.000000,4311.666504,4297.307617,4342.436035,4349.487305,4284.871582,4263.974121,4278.717773,4282.307617,4273.461426,4309.230957,4568.205078,4481.153809,4420.128418,4498.974121,5579.000000,1.000000,16.000000,,,,0.000000,4.000000,4.000000,4.000000,4.000000,4.000000,4.000000,4.000000,4.000000,4.000000,4.000000,4.000000,4.000000,4.000000,4.000000,100.000000,,,,,,,,,,,,,,,,,27.000000,0.000000,0.462012,0.387146,-0.542664,0.584961,0.979123,-0.281773,0.127457,-37.505642,-29.883118,45.778503,,,,,,,,,,,,,,,,,,,,,,,,,,,,,,,,,,,,,,,,,,,,,,,,,,,,,,,,,,,,,,,,,,,,,,,,,,,,,,,,,,,,,,,,,,,,,,,,,,,,,
1739354760.943798,1739354760.944042,109.000000,0.000000,4313.717773,4296.922852,4345.256348,4353.077148,4284.743652,4263.974121,4278.205078,4287.436035,4278.461426,4307.179688,4570.769043,4484.230957,4420.000000,4501.153809,6583.000000,1.000000,16.000000,,,,0.000000,4.000000,4.000000,4.000000,4.000000,4.000000,4.000000,4.000000,4.000000,4.000000,4.000000,4.000000,4.000000,4.000000,4.000000,100.000000,,,,,,,,,,,,,,,,,,,,,,,,,,,,,,,,,,,,,,,,,,,,,,,,,,,,,,,,,,,,,,,,,,,,,,,,,,,,,,,,,,,,,,,,,,,,,,,,,,,,,,,,,,,,,,,,,,,,,,,,,,,,,,,,,
1739354760.951606,1739354760.951850,110.000000,0.000000,4303.077148,4285.769043,4340.384766,4341.922852,4276.538574,4259.743652,4275.769043,4285.256348,4271.025879,4298.589844,4569.615234,4478.846191,4414.615234,4494.230957,5026.000000,1.000000,16.000000,,,,0.000000,4.000000,4.000000,4.000000,4.000000,4.000000,4.000000,4.000000,4.000000,4.000000,4.000000,4.000000,4.000000,4.000000,4.000000,100.000000,,,,,,,,,,,,,,,,,,,,,,,,,,,,,,,,,,,,,,,,,,,,,,,,,,,,,,,,,,,,,,,,,,,,,,,,,,,,,,,,,,,,,,,,,,,,,,,,,,,,,,,,,,,,,,,,,,,,,,,,,,,,,,,,,
1739354760.959414,1739354760.959759,111.000000,0.000000,4293.461426,4273.717773,4334.358887,4328.717773,4269.615234,4251.922852,4265.641113,4286.794922,4259.102539,4288.717773,4563.846191,4475.897461,4413.717773,4482.948730,5502.000000,1.000000,16.000000,,,,0.000000,4.000000,4.000000,4.000000,4.000000,4.000000,4.000000,4.000000,4.000000,4.000000,4.000000,4.000000,4.000000,4.000000,4.000000,100.000000,,,,,,,,,,,,,,,,,,,,,,,,,,,,,,,,,,,,,,,,,,,,,,,,,,,,,,,,,,,,,,,,,,,,,,,,,,,,,,,,,,,,,,,,,,,,,,,,,,,,,,,,,,,,,,,,,,,,,,,,,,,,,,,,,
1739354760.967222,1739354760.967567,112.000000,0.000000,4305.128418,4281.025879,4343.846191,4336.153809,4277.692383,4260.000000,4266.282227,4292.820313,4266.666504,4295.256348,4573.333496,4490.256348,4426.794922,4490.000000,5579.000000,1.000000,16.000000,,,,0.000000,4.000000,4.000000,4.000000,4.000000,4.000000,4.000000,4.000000,4.000000,4.000000,4.000000,4.000000,4.000000,4.000000,4.000000,100.000000,,,,,,,,,,,,,,,,,28.000000,0.000000,0.461056,0.387146,-0.543213,0.585205,0.949335,-0.271518,0.117202,-37.471745,-29.811472,45.800652,,,,,,,,,,,,,,,,,,,,,,,,,,,,,,,,,,,,,,,,,,,,,,,,,,,,,,,,,,,,,,,,,,,,,,,,,,,,,,,,,,,,,,,,,,,,,,,,,,,,,
1739354760.975030,1739354760.975475,113.000000,0.000000,4302.948730,4282.563965,4342.692383,4334.102539,4278.333496,4264.102539,4269.102539,4287.051270,4268.205078,4289.487305,4575.897461,4486.410156,4423.589844,4490.641113,6583.000000,1.000000,16.000000,,,,0.000000,4.000000,4.000000,4.000000,4.000000,4.000000,4.000000,4.000000,4.000000,4.000000,4.000000,4.000000,4.000000,4.000000,4.000000,100.000000,,,,,,,,,,,,,,,,,,,,,,,,,,,,,,,,,,,,,,,,,,,,,,,,,,,,,,,,,,,,,,,,,,,,,,,,,,,,,,,,,,,,,,,,,,,,,,,,,,,,,,,,,,,,,,,,,,,,,,,,,,,,,,,,,
1739354760.982838,1739354760.983283,114.000000,0.000000,4275.000000,4261.410156,4320.897461,4305.384766,4262.051270,4248.589844,4258.077148,4279.358887,4248.333496,4260.769043,4554.358887,4457.436035,4398.077148,4467.563965,5026.000000,1.000000,16.000000,,,,0.000000,4.000000,4.000000,4.000000,4.000000,4.000000,4.000000,4.000000,4.000000,4.000000,4.000000,4.000000,4.000000,4.000000,4.000000,100.000000,,,,,,,,,,,,,,,,,,,,,,,,,,,,,,,,,,,,,,,,,,,,,,,,,,,,,,,,,,,,,,,,,,,,,,,,,,,,,,,,,,,,,,,,,,,,,,,,,,,,,,,,,,,,,,,,,,,,,,,,,,,,,,,,,
1739354760.990646,1739354760.991190,115.000000,0.000000,4285.897461,4268.846191,4327.563965,4310.769043,4268.589844,4253.974121,4267.820313,4290.128418,4254.102539,4268.589844,4560.128418,4469.358887,4406.538574,4478.461426,5502.000000,1.000000,16.000000,,,,0.000000,4.000000,4.000000,4.000000,4.000000,4.000000,4.000000,4.000000,4.000000,4.000000,4.000000,4.000000,4.000000,4.000000,4.000000,100.000000,,,,,,,,,,,,,,,,,,,,,,,,,,,,,,,,,,,,,,,,,,,,,,,,,,,,,,,,,,,,,,,,,,,,,,,,,,,,,,,,,,,,,,,,,,,,,,,,,,,,,,,,,,,,,,,,,,,,,,,,,,,,,,,,,
1739354760.998454,1739354760.998998,116.000000,0.000000,4325.641113,4303.077148,4363.974121,4350.128418,4297.051270,4282.436035,4296.666504,4301.794922,4285.000000,4306.410156,4596.794922,4512.307617,4438.974121,4523.077148,5579.000000,1.000000,16.000000,,,,0.000000,4.000000,4.000000,4.000000,4.000000,4.000000,4.000000,4.000000,4.000000,4.000000,4.000000,4.000000,4.000000,4.000000,4.000000,100.000000,,,,,,,,,,,,,,,,,29.000000,0.000000,0.460042,0.387146,-0.544006,0.585266,0.934684,-0.281773,0.106458,-37.474567,-29.796991,45.937252,,,,,,,,,,,,,,,,,,,,,,,,,,,,,,,,,,,,,,,,,,,,,,,,,,,,,,,,,,,,,,,,,,,,,,,,,,,,,,,,,,,,,,,,,,,,,,,,,,,,,
1739354761.006262,1739354761.006906,117.000000,0.000000,4325.769043,4305.512695,4367.820313,4350.128418,4299.871582,4287.692383,4294.358887,4296.794922,4284.871582,4303.717773,4597.307617,4512.948730,4433.333496,4525.897461,6583.000000,1.000000,16.000000,,,,0.000000,4.000000,4.000000,4.000000,4.000000,4.000000,4.000000,4.000000,4.000000,4.000000,4.000000,4.000000,4.000000,4.000000,4.000000,100.000000,,,,,,,,,,,,,,,,,,,,,,,,,,,,,,,,,,,,,,,,,,,,,,,,,,,,,,,,,,,,,,,,,,,,,,,,,,,,,,,,,,,,,,,,,,,,,,,,,,,,,,,,,,,,,,,,,,,,,,,,,,,,,,,,,
1739354761.014071,1739354761.014714,118.000000,0.000000,4305.897461,4286.538574,4343.717773,4322.051270,4281.538574,4272.563965,4274.871582,4293.077148,4263.974121,4276.538574,4572.436035,4488.333496,4409.487305,4496.538574,5026.000000,1.000000,16.000000,,,,0.000000,4.000000,4.000000,4.000000,4.000000,4.000000,4.000000,4.000000,4.000000,4.000000,4.000000,4.000000,4.000000,4.000000,4.000000,100.000000,,,,,,,,,,,,,,,,,,,,,,,,,,,,,,,,,,,,,,,,,,,,,,,,,,,,,,,,,,,,,,,,,,,,,,,,,,,,,,,,,,,,,,,,,,,,,,,,,,,,,,,,,,,,,,,,,,,,,,,,,,,,,,,,,
1739354761.021879,1739354761.022522,119.000000,0.000000,4303.974121,4287.436035,4339.615234,4321.025879,4282.820313,4270.000000,4278.846191,4299.487305,4266.410156,4280.000000,4574.487305,4487.179688,4414.871582,4493.205078,5502.000000,1.000000,16.000000,,,,0.000000,4.000000,4.000000,4.000000,4.000000,4.000000,4.000000,4.000000,4.000000,4.000000,4.000000,4.000000,4.000000,4.000000,4.000000,100.000000,,,,,,,,,,,,,,,,,,,,,,,,,,,,,,,,,,,,,,,,,,,,,,,,,,,,,,,,,,,,,,,,,,,,,,,,,,,,,,,,,,,,,,,,,,,,,,,,,,,,,,,,,,,,,,,,,,,,,,,,,,,,,,,,,
1739354761.029687,1739354761.030330,120.000000,0.000000,4298.974121,4283.846191,4336.794922,4321.410156,4282.179688,4266.922852,4277.436035,4299.615234,4270.769043,4281.666504,4576.666504,4484.102539,4421.666504,4491.922852,5579.000000,1.000000,16.000000,,,,0.000000,4.000000,4.000000,4.000000,4.000000,4.000000,4.000000,4.000000,4.000000,4.000000,4.000000,4.000000,4.000000,4.000000,4.000000,100.000000,,,,,,,,,,,,,,,,,30.000000,0.000000,0.459365,0.387085,-0.544556,0.585327,0.938591,-0.283238,0.097668,-37.510445,-29.850626,45.926861,,,,,,,,,,,,,,,,,,,,,,,,,,,,,,,,,,,,,,,,,,,,,,,,,,,,,,,,,,,,,,,,,,,,,,,,,,,,,,,,,,,,,,,,,,,,,,,,,,,,,
1739354761.037495,1739354761.038038,121.000000,0.000000,4291.922852,4273.846191,4327.051270,4308.205078,4267.563965,4261.922852,4264.615234,4296.922852,4261.794922,4263.974121,4565.641113,4472.307617,4411.153809,4481.153809,6583.000000,1.000000,16.000000,,,,0.000000,4.000000,4.000000,4.000000,4.000000,4.000000,4.000000,4.000000,4.000000,4.000000,4.000000,4.000000,4.000000,4.000000,4.000000,100.000000,,,,,,,,,,,,,,,,,,,,,,,,,,,,,,,,,,,,,,,,,,,,,,,,,,,,,,,,,,,,,,,,,,,,,,,,,,,,,,,,,,,,,,,,,,,,,,,,,,,,,,,,,,,,,,,,,,,,,,,,,,,,,,,,,
1739354761.045303,1739354761.045846,122.000000,0.000000,4300.384766,4283.461426,4333.333496,4312.051270,4268.461426,4266.666504,4270.641113,4299.102539,4265.000000,4264.102539,4567.179688,4478.717773,4414.487305,4489.487305,5026.000000,1.000000,16.000000,,,,0.000000,4.000000,4.000000,4.000000,4.000000,4.000000,4.000000,4.000000,4.000000,4.000000,4.000000,4.000000,4.000000,4.000000,4.000000,100.000000,,,,,,,,,,,,,,,,,,,,,,,,,,,,,,,,,,,,,,,,,,,,,,,,,,,,,,,,,,,,60.609741,5.468626,1.589435,0.430465,0.413219,65.420563,6.081365,1.903521,0.445766,0.495508,13.363420,1.377787,0.915958,0.398150,0.380229,22.663599,2.151713,0.865124,0.291693,0.366995,5.142164,0.983515,0.588858,0.228452,0.278693,3.197965,0.484811,0.473573,0.206400,0.253676,3.545361,0.845670,0.777489,0.284228,0.408918,0.949380,0.500730,0.288455,0.151855,0.131093,2.331342,1.947531,1.064999,0.290071,0.395675,2.342693,1.972084,1.387223,0.287776,0.354144,7.485231,1.681643,0.652136,0.340312,0.409147,15.668658,2.307988,1.305826,0.580216,0.545603,16.413542,3.708206,1.330280,0.442612,0.437070,49.985054,4.167775,1.781355,0.411764,0.492718
1739354761.053111,1739354761.053554,123.000000,0.000000,4283.205078,4269.743652,4323.461426,4301.922852,4259.615234,4252.820313,4260.897461,4289.743652,4250.641113,4251.794922,4552.179688,4465.384766,4406.538574,4481.282227,5502.000000,1.000000,16.000000,,,,0.000000,4.000000,4.000000,4.000000,4.000000,4.000000,4.000000,4.000000,4.000000,4.000000,4.000000,4.000000,4.000000,4.000000,4.000000,100.000000,,,,,,,,,,,,,,,,,,,,,,,,,,,,,,,,,,,,,,,,,,,,,,,,,,,,,,,,,,,,,,,,,,,,,,,,,,,,,,,,,,,,,,,,,,,,,,,,,,,,,,,,,,,,,,,,,,,,,,,,,,,,,,,,,
1739354761.060919,1739354761.061362,124.000000,0.000000,4264.743652,4247.948730,4306.794922,4286.153809,4245.641113,4238.846191,4239.743652,4280.897461,4229.871582,4229.358887,4535.641113,4444.871582,4394.487305,4464.615234,5579.000000,1.000000,16.000000,,,,0.000000,4.000000,4.000000,4.000000,4.000000,4.000000,4.000000,4.000000,4.000000,4.000000,4.000000,4.000000,4.000000,4.000000,4.000000,100.000000,,,,,,,,,,,,,,,,,31.000000,0.000000,0.459091,0.387146,-0.544678,0.585388,0.944940,-0.293981,0.094738,-37.242733,-29.832230,45.967510,,,,,,,,,,,,,,,,,,,,,,,,,,,,,,,,,,,,,,,,,,,,,,,,,,,,,,,,,,,,,,,,,,,,,,,,,,,,,,,,,,,,,,,,,,,,,,,,,,,,,
1739354761.068727,1739354761.069070,125.000000,0.000000,4291.025879,4270.000000,4326.153809,4310.256348,4263.077148,4255.256348,4251.410156,4288.333496,4248.333496,4245.512695,4556.794922,4463.974121,4417.179688,4485.384766,6583.000000,1.000000,16.000000,,,,0.000000,4.000000,4.000000,4.000000,4.000000,4.000000,4.000000,4.000000,4.000000,4.000000,4.000000,4.000000,4.000000,4.000000,4.000000,100.000000,,,,,,,,,,,,,,,,,,,,,,,,,,,,,,,,,,,,,,,,,,,,,,,,,,,,,,,,,,,,,,,,,,,,,,,,,,,,,,,,,,,,,,,,,,,,,,,,,,,,,,,,,,,,,,,,,,,,,,,,,,,,,,,,,
1739354761.076535,1739354761.076878,126.000000,0.000000,4315.256348,4297.563965,4347.436035,4335.769043,4281.025879,4267.436035,4269.615234,4294.871582,4271.025879,4271.282227,4577.820313,4490.384766,4436.794922,4506.282227,5026.000000,1.000000,16.000000,,,,0.000000,4.000000,4.000000,4.000000,4.000000,4.000000,4.000000,4.000000,4.000000,4.000000,4.000000,4.000000,4.000000,4.000000,4.000000,100.000000,,,,,,,,,,,,,,,,,,,,,,,,,,,,,,,,,,,,,,,,,,,,,,,,,,,,,,,,,,,,,,,,,,,,,,,,,,,,,,,,,,,,,,,,,,,,,,,,,,,,,,,,,,,,,,,,,,,,,,,,,,,,,,,,,
1739354761.084343,1739354761.084586,127.000000,0.000000,4306.538574,4287.307617,4338.077148,4325.512695,4267.948730,4250.641113,4262.563965,4287.948730,4261.410156,4262.179688,4567.051270,4486.922852,4420.000000,4493.333496,16.000000,1.000000,16.000000,,,,0.000000,4.000000,4.000000,4.000000,4.000000,4.000000,4.000000,4.000000,4.000000,4.000000,4.000000,4.000000,4.000000,4.000000,4.000000,100.000000,,,,,,,,,,,,,,,,,,,,,,,,,,,,,,,,,,,,,,,,,,,,,,,,,,,,,,,,,,,,,,,,,,,,,,,,,,,,,,,,,,,,,,,,,,,,,,,,,,,,,,,,,,,,,,,,,,,,,,,,,,,,,,,,,
1739354761.092151,1739354761.092394,0.000000,0.000000,4303.077148,4280.897461,4334.358887,4324.230957,4259.871582,4245.128418,4259.487305,4286.922852,4255.641113,4255.641113,4565.000000,4485.256348,4415.641113,4489.871582,5153.000000,1.000000,16.000000,,,,0.000000,4.000000,4.000000,4.000000,4.000000,4.000000,4.000000,4.000000,4.000000,4.000000,4.000000,4.000000,4.000000,4.000000,4.000000,100.000000,,,,,,,,,,,,,,,,,0.000000,0.000000,0.458516,0.387207,-0.544922,0.585571,0.958125,-0.273959,0.090343,-37.201794,-29.999006,45.954090,,,,,,,,,,,,,,,,,,,,,,,,,,,,,,,,,,,,,,,,,,,,,,,,,,,,,,,,,,,,,,,,,,,,,,,,,,,,,,,,,,,,,,,,,,,,,,,,,,,,,
1739354761.099959,1739354761.100102,1.000000,0.000000,4312.820313,4296.538574,4344.615234,4344.230957,4268.589844,4258.461426,4270.384766,4292.051270,4266.025879,4268.589844,4579.102539,4495.512695,4431.025879,4500.641113,5521.000000,1.000000,16.000000,,,,0.000000,4.000000,4.000000,4.000000,4.000000,4.000000,4.000000,4.000000,4.000000,4.000000,4.000000,4.000000,4.000000,4.000000,4.000000,100.000000,,,,,,,,,,,,,,,,,,,,,,,,,,,,,,,,,,,,,,,,,,,,,,,,,,,,,,,,,,,,,,,,,,,,,,,,,,,,,,,,,,,,,,,,,,,,,,,,,,,,,,,,,,,,,,,,,,,,,,,,,,,,,,,,,
1739354761.107767,1739354761.107910,2.000000,0.000000,4306.153809,4297.948730,4340.000000,4340.897461,4270.128418,4257.948730,4272.051270,4286.153809,4265.000000,4266.922852,4577.307617,4488.846191,4423.717773,4493.461426,5541.000000,1.000000,16.000000,,,,0.000000,4.000000,4.000000,4.000000,4.000000,4.000000,4.000000,4.000000,4.000000,4.000000,4.000000,4.000000,4.000000,4.000000,4.000000,100.000000,,,,,,,,,,,,,,,,,,,,,,,,,,,,,,,,,,,,,,,,,,,,,,,,,,,,,,,,,,,,,,,,,,,,,,,,,,,,,,,,,,,,,,,,,,,,,,,,,,,,,,,,,,,,,,,,,,,,,,,,,,,,,,,,,
1739354761.115575,1739354761.115619,3.000000,0.000000,4295.897461,4290.000000,4333.974121,4326.666504,4274.871582,4256.282227,4269.487305,4282.436035,4262.436035,4261.922852,4569.871582,4481.410156,4410.641113,4487.692383,5462.000000,1.000000,16.000000,,,,0.000000,4.000000,4.000000,4.000000,4.000000,4.000000,4.000000,4.000000,4.000000,4.000000,4.000000,4.000000,4.000000,4.000000,4.000000,100.000000,,,,,,,,,,,,,,,,,,,,,,,,,,,,,,,,,,,,,,,,,,,,,,,,,,,,,,,,,,,,,,,,,,,,,,,,,,,,,,,,,,,,,,,,,,,,,,,,,,,,,,,,,,,,,,,,,,,,,,,,,,,,,,,,,
1739354761.123384,1739354761.123426,4.000000,0.000000,4294.743652,4283.205078,4335.769043,4326.153809,4274.871582,4258.333496,4268.333496,4282.563965,4262.179688,4262.179688,4568.205078,4480.384766,4411.282227,4491.538574,5429.000000,1.000000,16.000000,,,,0.000000,4.000000,4.000000,4.000000,4.000000,4.000000,4.000000,4.000000,4.000000,4.000000,4.000000,4.000000,4.000000,4.000000,4.000000,100.000000,,,,,,,,,,,,,,,,,1.000000,0.000000,0.458024,0.387268,-0.545227,0.585632,0.946893,-0.295935,0.098645,-37.214947,-29.949106,45.858681,,,,,,,,,,,,,,,,,,,,,,,,,,,,,,,,,,,,,,,,,,,,,,,,,,,,,,,,,,,,,,,,,,,,,,,,,,,,,,,,,,,,,,,,,,,,,,,,,,,,,
1739354761.131192,1739354761.131135,5.000000,0.000000,4294.871582,4277.563965,4334.743652,4326.153809,4263.717773,4251.153809,4261.153809,4281.282227,4257.436035,4254.102539,4567.563965,4478.077148,4413.333496,4488.974121,5457.000000,1.000000,16.000000,,,,0.000000,4.000000,4.000000,4.000000,4.000000,4.000000,4.000000,4.000000,4.000000,4.000000,4.000000,4.000000,4.000000,4.000000,4.000000,100.000000,,,,,,,,,,,,,,,,,,,,,,,,,,,,,,,,,,,,,,,,,,,,,,,,,,,,,,,,,,,,,,,,,,,,,,,,,,,,,,,,,,,,,,,,,,,,,,,,,,,,,,,,,,,,,,,,,,,,,,,,,,,,,,,,,
1739354761.139000,1739354761.139043,6.000000,0.000000,4296.538574,4278.846191,4332.436035,4323.974121,4261.282227,4245.256348,4251.794922,4282.692383,4258.974121,4250.384766,4569.230957,4481.922852,4413.077148,4486.153809,5414.000000,1.000000,16.000000,,,,0.000000,4.000000,4.000000,4.000000,4.000000,4.000000,4.000000,4.000000,4.000000,4.000000,4.000000,4.000000,4.000000,4.000000,4.000000,100.000000,,,,,,,,,,,,,,,,,,,,,,,,,,,,,,,,,,,,,,,,,,,,,,,,,,,,,,,,,,,,,,,,,,,,,,,,,,,,,,,,,,,,,,,,,,,,,,,,,,,,,,,,,,,,,,,,,,,,,,,,,,,,,,,,,
1739354761.146808,1739354761.146851,7.000000,0.000000,4297.692383,4282.179688,4334.743652,4325.769043,4263.974121,4245.897461,4248.077148,4285.000000,4263.974121,4259.743652,4569.102539,4487.307617,4412.179688,4489.230957,2483.000000,1.000000,16.000000,,,,0.000000,4.000000,4.000000,4.000000,4.000000,4.000000,4.000000,4.000000,4.000000,4.000000,4.000000,4.000000,4.000000,4.000000,4.000000,100.000000,,,,,,,,,,,,,,,,,,,,,,,,,,,,,,,,,,,,,,,,,,,,,,,,,,,,,,,,,,,,,,,,,,,,,,,,,,,,,,,,,,,,,,,,,,,,,,,,,,,,,,,,,,,,,,,,,,,,,,,,,,,,,,,,,
1739354761.154616,1739354761.154759,8.000000,0.000000,4295.769043,4279.743652,4339.230957,4326.410156,4264.358887,4245.512695,4248.846191,4287.436035,4266.538574,4265.128418,4570.128418,4486.410156,4416.410156,4491.153809,5220.000000,1.000000,16.000000,,,,0.000000,4.000000,4.000000,4.000000,4.000000,4.000000,4.000000,4.000000,4.000000,4.000000,4.000000,4.000000,4.000000,4.000000,4.000000,100.000000,,,,,,,,,,,,,,,,,2.000000,0.000000,0.457845,0.387695,-0.545532,0.585205,0.965938,-0.300818,0.099622,-37.210121,-30.054195,45.872814,,,,,,,,,,,,,,,,,,,,,,,,,,,,,,,,,,,,,,,,,,,,,,,,,,,,,,,,,,,,,,,,,,,,,,,,,,,,,,,,,,,,,,,,,,,,,,,,,,,,,
1739354761.162424,1739354761.162567,9.000000,0.000000,4296.666504,4280.897461,4341.282227,4322.948730,4264.358887,4243.846191,4245.128418,4287.820313,4264.615234,4261.410156,4574.871582,4488.333496,4422.692383,4493.077148,5564.000000,1.000000,16.000000,,,,0.000000,4.000000,4.000000,4.000000,4.000000,4.000000,4.000000,4.000000,4.000000,4.000000,4.000000,4.000000,4.000000,4.000000,4.000000,100.000000,,,,,,,,,,,,,,,,,,,,,,,,,,,,,,,,,,,,,,,,,,,,,,,,,,,,,,,,,,,,,,,,,,,,,,,,,,,,,,,,,,,,,,,,,,,,,,,,,,,,,,,,,,,,,,,,,,,,,,,,,,,,,,,,,
1739354761.170232,1739354761.170475,10.000000,0.000000,4309.743652,4291.666504,4352.179688,4330.897461,4267.179688,4247.307617,4251.025879,4289.871582,4268.077148,4267.820313,4585.128418,4505.897461,4433.717773,4508.461426,5025.000000,1.000000,16.000000,,,,0.000000,4.000000,4.000000,4.000000,4.000000,4.000000,4.000000,4.000000,4.000000,4.000000,4.000000,4.000000,4.000000,4.000000,4.000000,100.000000,1.000000,75.000000,4.000000,3.000000,3.000000,4.000000,4.000000,4.000000,4.000000,4.000000,4.000000,4.000000,4.000000,4.000000,4.000000,3.000000,,,,,,,,,,,,,,,,,,,,,,,,,,,,,,,,,,,,,,,,,,,,68.937218,6.098431,1.895036,0.460583,0.551823,72.983566,6.333496,2.121547,0.471450,0.643876,15.059126,1.695377,1.176260,0.425804,0.501811,25.042654,2.344730,1.047655,0.315906,0.510708,5.378257,1.129869,0.576536,0.227526,0.383951,3.252113,0.667801,0.463333,0.250549,0.380036,3.755906,1.107952,0.975287,0.313604,0.572372,1.200481,0.675846,0.328076,0.235823,0.171771,2.261245,2.019299,1.166847,0.340750,0.549570,2.117848,2.278011,1.666065,0.327710,0.513842,8.363916,1.929294,0.753726,0.397025,0.539359,17.748150,2.816793,1.629329,0.619388,0.738811,17.313362,3.644387,1.272856,0.479006,0.521101,56.854137,5.041806,2.070940,0.460283,0.622566
1739354761.178040,1739354761.178283,11.000000,0.000000,4314.615234,4290.512695,4361.538574,4337.051270,4267.692383,4248.205078,4260.897461,4289.615234,4270.769043,4269.871582,4587.563965,4512.436035,4434.871582,4515.897461,5494.000000,1.000000,16.000000,,,,0.000000,4.000000,4.000000,4.000000,4.000000,4.000000,4.000000,4.000000,4.000000,4.000000,4.000000,4.000000,4.000000,4.000000,4.000000,100.000000,,,,,,,,,,,,,,,,,,,,,,,,,,,,,,,,,,,,,,,,,,,,,,,,,,,,,,,,,,,,,,,,,,,,,,,,,,,,,,,,,,,,,,,,,,,,,,,,,,,,,,,,,,,,,,,,,,,,,,,,,,,,,,,,,
1739354761.185848,1739354761.186191,12.000000,0.000000,4297.948730,4274.487305,4346.666504,4326.025879,4259.743652,4242.563965,4252.692383,4283.077148,4254.358887,4248.077148,4569.871582,4494.358887,4413.077148,4497.820313,5571.000000,1.000000,16.000000,,,,0.000000,4.000000,4.000000,4.000000,4.000000,4.000000,4.000000,4.000000,4.000000,4.000000,4.000000,4.000000,4.000000,4.000000,4.000000,100.000000,,,,,,,,,,,,,,,,,3.000000,0.000000,0.458158,0.388062,-0.545532,0.584717,0.947381,-0.272494,0.097668,-37.205776,-30.048777,45.835533,,,,,,,,,,,,,,,,,,,,,,,,,,,,,,,,,,,,,,,,,,,,,,,,,,,,,,,,,,,,,,,,,,,,,,,,,,,,,,,,,,,,,,,,,,,,,,,,,,,,,
1739354761.193656,1739354761.193999,13.000000,0.000000,4285.897461,4272.179688,4332.948730,4324.230957,4259.487305,4240.897461,4249.358887,4280.512695,4238.717773,4231.153809,4557.948730,4483.589844,4397.179688,4485.641113,6573.000000,1.000000,16.000000,,,,0.000000,4.000000,4.000000,4.000000,4.000000,4.000000,4.000000,4.000000,4.000000,4.000000,4.000000,4.000000,4.000000,4.000000,4.000000,100.000000,,,,,,,,,,,,,,,,,,,,,,,,,,,,,,,,,,,,,,,,,,,,,,,,,,,,,,,,,,,,,,,,,,,,,,,,,,,,,,,,,,,,,,,,,,,,,,,,,,,,,,,,,,,,,,,,,,,,,,,,,,,,,,,,,
1739354761.201464,1739354761.201907,14.000000,0.000000,4298.077148,4286.025879,4347.307617,4345.256348,4275.128418,4254.487305,4272.820313,4289.487305,4253.077148,4246.153809,4575.769043,4500.384766,4411.538574,4501.153809,5025.000000,1.000000,16.000000,,,,0.000000,4.000000,4.000000,4.000000,4.000000,4.000000,4.000000,4.000000,4.000000,4.000000,4.000000,4.000000,4.000000,4.000000,4.000000,100.000000,,,,,,,,,,,,,,,,,,,,,,,,,,,,,,,,,,,,,,,,,,,,,,,,,,,,,,,,,,,,,,,,,,,,,,,,,,,,,,,,,,,,,,,,,,,,,,,,,,,,,,,,,,,,,,,,,,,,,,,,,,,,,,,,,
1739354761.209273,1739354761.209715,15.000000,0.000000,4303.846191,4282.436035,4352.948730,4347.948730,4280.512695,4262.436035,4284.102539,4294.230957,4270.641113,4260.769043,4584.871582,4514.358887,4418.974121,4511.282227,5494.000000,1.000000,16.000000,,,,0.000000,4.000000,4.000000,4.000000,4.000000,4.000000,4.000000,4.000000,4.000000,4.000000,4.000000,4.000000,4.000000,4.000000,4.000000,100.000000,,,,,,,,,,,,,,,,,,,,,,,,,,,,,,,,,,,,,,,,,,,,,,,,,,,,,,,,,,,,,,,,,,,,,,,,,,,,,,,,,,,,,,,,,,,,,,,,,,,,,,,,,,,,,,,,,,,,,,,,,,,,,,,,,
1739354761.217080,1739354761.217423,16.000000,0.000000,4291.538574,4270.000000,4335.769043,4330.641113,4270.384766,4253.077148,4268.077148,4289.102539,4261.282227,4248.846191,4571.025879,4501.922852,4408.077148,4503.974121,0.000000,1.000000,16.000000,,,,0.000000,4.000000,4.000000,4.000000,4.000000,4.000000,4.000000,4.000000,4.000000,4.000000,4.000000,4.000000,4.000000,4.000000,4.000000,100.000000,,,,,,,,,,,,,,,,,4.000000,0.000000,0.458320,0.388428,-0.545593,0.584290,0.960078,-0.280308,0.104017,-37.368530,-30.177231,45.885311,,,,,,,,,,,,,,,,,,,,,,,,,,,,,,,,,,,,,,,,,,,,,,,,,,,,,,,,,,,,,,,,,,,,,,,,,,,,,,,,,,,,,,,,,,,,,,,,,,,,,
1739354761.224889,1739354761.225231,17.000000,0.000000,4302.051270,4288.589844,4340.000000,4343.974121,4276.922852,4253.974121,4263.974121,4291.666504,4257.948730,4249.230957,4579.743652,4505.512695,4423.589844,4511.410156,0.000000,1.000000,16.000000,,,,0.000000,4.000000,4.000000,4.000000,4.000000,4.000000,4.000000,4.000000,4.000000,4.000000,4.000000,4.000000,4.000000,4.000000,4.000000,100.000000,,,,,,,,,,,,,,,,,,,,,,,,,,,,,,,,,,,,,,,,,,,,,,,,,,,,,,,,,,,,,,,,,,,,,,,,,,,,,,,,,,,,,,,,,,,,,,,,,,,,,,,,,,,,,,,,,,,,,,,,,,,,,,,,,
1739354761.232697,1739354761.232939,18.000000,0.000000,4329.871582,4312.051270,4361.794922,4368.077148,4293.717773,4265.641113,4276.410156,4299.615234,4276.410156,4274.615234,4605.256348,4533.077148,4453.333496,4531.410156,0.000000,1.000000,16.000000,,,,0.000000,4.000000,4.000000,4.000000,4.000000,4.000000,4.000000,4.000000,4.000000,4.000000,4.000000,4.000000,4.000000,4.000000,4.000000,100.000000,,,,,,,,,,,,,,,,,,,,,,,,,,,,,,,,,,,,,,,,,,,,,,,,,,,,,,,,,,,,,,,,,,,,,,,,,,,,,,,,,,,,,,,,,,,,,,,,,,,,,,,,,,,,,,,,,,,,,,,,,,,,,,,,,
1739354761.240505,1739354761.240747,19.000000,0.000000,4328.974121,4302.948730,4360.128418,4365.000000,4292.820313,4265.256348,4278.461426,4299.102539,4282.692383,4281.922852,4602.307617,4539.487305,4453.846191,4531.025879,0.000000,1.000000,16.000000,,,,0.000000,4.000000,4.000000,4.000000,4.000000,4.000000,4.000000,4.000000,4.000000,4.000000,4.000000,4.000000,4.000000,4.000000,4.000000,100.000000,,,,,,,,,,,,,,,,,,,,,,,,,,,,,,,,,,,,,,,,,,,,,,,,,,,,,,,,,,,,,,,,,,,,,,,,,,,,,,,,,,,,,,,,,,,,,,,,,,,,,,,,,,,,,,,,,,,,,,,,,,,,,,,,,
1739354761.248313,1739354761.248455,20.000000,0.000000,4315.384766,4296.282227,4350.256348,4363.846191,4291.410156,4263.077148,4275.897461,4297.563965,4274.230957,4268.461426,4590.128418,4528.974121,4441.666504,4520.128418,0.000000,1.000000,16.000000,,,,0.000000,4.000000,4.000000,4.000000,4.000000,4.000000,4.000000,4.000000,4.000000,4.000000,4.000000,4.000000,4.000000,4.000000,4.000000,100.000000,,,,,,,,,,,,,,,,,5.000000,0.000000,0.458135,0.388916,-0.545532,0.584167,0.964962,-0.271518,0.104017,-37.581676,-30.276175,45.963448,,,,,,,,,,,,,,,,,,,,,,,,,,,,,,,,,,,,,,,,,,,,,,,,,,,,,,,,,,,,,,,,,,,,,,,,,,,,,,,,,,,,,,,,,,,,,,,,,,,,,
1739354761.256121,1739354761.256263,21.000000,0.000000,4329.871582,4316.282227,4361.922852,4380.641113,4302.692383,4272.179688,4284.102539,4303.333496,4278.333496,4272.948730,4603.717773,4542.051270,4451.666504,4533.077148,0.000000,1.000000,16.000000,,,,0.000000,4.000000,4.000000,4.000000,4.000000,4.000000,4.000000,4.000000,4.000000,4.000000,4.000000,4.000000,4.000000,4.000000,4.000000,100.000000,,,,,,,,,,,,,,,,,,,,,,,,,,,,,,,,,,,,,,,,,,,,,,,,,,,,,,,,,,,,,,,,,,,,,,,,,,,,,,,,,,,,,,,,,,,,,,,,,,,,,,,,,,,,,,,,,,,,,,,,,,,,,,,,,
1739354761.263929,1739354761.263971,22.000000,0.000000,4353.717773,4331.794922,4381.538574,4394.615234,4313.077148,4281.794922,4296.282227,4308.589844,4292.563965,4293.205078,4623.717773,4567.436035,4472.436035,4556.410156,0.000000,1.000000,16.000000,,,,0.000000,4.000000,4.000000,4.000000,4.000000,4.000000,4.000000,4.000000,4.000000,4.000000,4.000000,4.000000,4.000000,4.000000,4.000000,100.000000,,,,,,,,,,,,,,,,,,,,,,,,,,,,,,,,,,,,,,,,,,,,,,,,,,,,,,,,,,,,,,,,,,,,,,,,,,,,,,,,,,,,,,,,,,,,,,,,,,,,,,,,,,,,,,,,,,,,,,,,,,,,,,,,,
1739354761.271737,1739354761.271879,23.000000,0.000000,4352.436035,4326.794922,4384.102539,4396.922852,4310.128418,4277.948730,4295.128418,4305.000000,4293.974121,4297.948730,4626.922852,4572.307617,4472.563965,4558.077148,0.000000,1.000000,16.000000,,,,0.000000,4.000000,4.000000,4.000000,4.000000,4.000000,4.000000,4.000000,4.000000,4.000000,4.000000,4.000000,4.000000,4.000000,4.000000,100.000000,,,,,,,,,,,,,,,,,,,,,,,,,,,,,,,,,,,,,,,,,,,,,,,,,,,,,,,,,,,,,,,,,,,,,,,,,,,,,,,,,,,,,,,,,,,,,,,,,,,,,,,,,,,,,,,,,,,,,,,,,,,,,,,,,
1739354761.279545,1739354761.279687,24.000000,0.000000,4342.307617,4316.794922,4377.820313,4390.256348,4300.128418,4267.948730,4287.948730,4305.384766,4293.589844,4296.538574,4623.205078,4568.974121,4459.230957,4550.641113,0.000000,1.000000,16.000000,,,,0.000000,4.000000,4.000000,4.000000,4.000000,4.000000,4.000000,4.000000,4.000000,4.000000,4.000000,4.000000,4.000000,4.000000,4.000000,100.000000,,,,,,,,,,,,,,,,,6.000000,0.000000,0.457834,0.389099,-0.545654,0.584167,0.947870,-0.276401,0.109877,-37.706844,-30.298557,45.967102,,,,,,,,,,,,,,,,,,,,,,,,,,,,,,,,,,,,,,,,,,,,,,,,,,,,,,,,,,,,,,,,,,,,,,,,,,,,,,,,,,,,,,,,,,,,,,,,,,,,,
1739354761.287353,1739354761.287595,25.000000,0.000000,4340.384766,4310.641113,4373.846191,4383.461426,4297.307617,4267.692383,4287.436035,4307.948730,4297.307617,4298.717773,4622.692383,4564.487305,4456.922852,4548.205078,0.000000,1.000000,16.000000,,,,0.000000,4.000000,4.000000,4.000000,4.000000,4.000000,4.000000,4.000000,4.000000,4.000000,4.000000,4.000000,4.000000,4.000000,4.000000,100.000000,,,,,,,,,,,,,,,,,,,,,,,,,,,,,,,,,,,,,,,,,,,,,,,,,,,,,,,,,,,,,,,,,,,,,,,,,,,,,,,,,,,,,,,,,,,,,,,,,,,,,,,,,,,,,,,,,,,,,,,,,,,,,,,,,
1739354761.295161,1739354761.295404,26.000000,0.000000,4340.641113,4308.974121,4369.230957,4387.563965,4302.948730,4276.538574,4291.666504,4302.436035,4288.333496,4291.153809,4618.077148,4556.538574,4461.666504,4543.333496,0.000000,1.000000,16.000000,,,,0.000000,4.000000,4.000000,4.000000,4.000000,4.000000,4.000000,4.000000,4.000000,4.000000,4.000000,4.000000,4.000000,4.000000,4.000000,100.000000,,,,,,,,,,,,,,,,,,,,,,,,,,,,,,,,,,,,,,,,,,,,,,,,,,,,,,,,,,,,67.842812,6.144082,2.078024,0.491951,0.704380,70.568481,5.877927,2.172407,0.502269,0.799909,14.879766,1.957509,1.431067,0.454072,0.637715,24.144533,2.364534,1.181706,0.380505,0.669269,5.023538,1.303889,0.555007,0.252494,0.497441,3.009123,0.871669,0.457730,0.310220,0.529255,3.676696,1.445802,1.113976,0.368261,0.746223,1.413224,0.885964,0.403594,0.330341,0.212935,2.151845,2.009305,1.243880,0.403723,0.716265,2.074069,2.544688,1.866340,0.378647,0.702189,8.453109,2.146169,0.843204,0.456150,0.685195,17.774817,3.184588,1.906817,0.667349,0.950168,16.460627,3.404142,1.242918,0.526134,0.610557,55.903267,5.561704,2.229977,0.518886,0.758301
1739354761.302969,1739354761.303212,27.000000,0.000000,4343.717773,4313.846191,4368.077148,4398.461426,4311.025879,4284.230957,4303.461426,4301.282227,4283.846191,4286.538574,4614.230957,4562.051270,4462.179688,4544.102539,0.000000,1.000000,16.000000,,,,0.000000,4.000000,4.000000,4.000000,4.000000,4.000000,4.000000,4.000000,4.000000,4.000000,4.000000,4.000000,4.000000,4.000000,4.000000,100.000000,,,,,,,,,,,,,,,,,,,,,,,,,,,,,,,,,,,,,,,,,,,,,,,,,,,,,,,,,,,,,,,,,,,,,,,,,,,,,,,,,,,,,,,,,,,,,,,,,,,,,,,,,,,,,,,,,,,,,,,,,,,,,,,,,
1739354761.310778,1739354761.310920,28.000000,0.000000,4349.102539,4318.974121,4365.256348,4400.769043,4310.641113,4285.641113,4309.487305,4306.025879,4292.051270,4291.666504,4611.282227,4568.333496,4457.436035,4551.282227,0.000000,1.000000,16.000000,,,,0.000000,4.000000,4.000000,4.000000,4.000000,4.000000,4.000000,4.000000,4.000000,4.000000,4.000000,4.000000,4.000000,4.000000,4.000000,100.000000,,,,,,,,,,,,,,,,,7.000000,0.000000,0.457531,0.388672,-0.546082,0.584290,0.948358,-0.293981,0.100598,-37.619492,-30.218702,45.953728,,,,,,,,,,,,,,,,,,,,,,,,,,,,,,,,,,,,,,,,,,,,,,,,,,,,,,,,,,,,,,,,,,,,,,,,,,,,,,,,,,,,,,,,,,,,,,,,,,,,,
1739354761.318586,1739354761.318828,29.000000,0.000000,4354.871582,4325.512695,4362.820313,4404.102539,4309.615234,4286.153809,4302.692383,4306.922852,4297.948730,4294.743652,4613.205078,4568.974121,4457.051270,4555.384766,0.000000,1.000000,16.000000,,,,0.000000,4.000000,4.000000,4.000000,4.000000,4.000000,4.000000,4.000000,4.000000,4.000000,4.000000,4.000000,4.000000,4.000000,4.000000,100.000000,,,,,,,,,,,,,,,,,,,,,,,,,,,,,,,,,,,,,,,,,,,,,,,,,,,,,,,,,,,,,,,,,,,,,,,,,,,,,,,,,,,,,,,,,,,,,,,,,,,,,,,,,,,,,,,,,,,,,,,,,,,,,,,,,
1739354761.326394,1739354761.326636,30.000000,0.000000,4354.871582,4326.410156,4363.974121,4413.077148,4311.153809,4281.794922,4296.153809,4306.794922,4299.743652,4297.436035,4621.153809,4568.846191,4458.461426,4554.358887,0.000000,1.000000,16.000000,,,,0.000000,4.000000,4.000000,4.000000,4.000000,4.000000,4.000000,4.000000,4.000000,4.000000,4.000000,4.000000,4.000000,4.000000,4.000000,100.000000,,,,,,,,,,,,,,,,,,,,,,,,,,,,,,,,,,,,,,,,,,,,,,,,,,,,,,,,,,,,,,,,,,,,,,,,,,,,,,,,,,,,,,,,,,,,,,,,,,,,,,,,,,,,,,,,,,,,,,,,,,,,,,,,,
1739354761.334202,1739354761.334544,31.000000,0.000000,4334.358887,4302.820313,4347.563965,4400.641113,4291.025879,4258.333496,4276.666504,4299.487305,4288.589844,4285.769043,4606.025879,4542.436035,4438.974121,4534.615234,0.000000,1.000000,16.000000,,,,0.000000,4.000000,4.000000,4.000000,4.000000,4.000000,4.000000,4.000000,4.000000,4.000000,4.000000,4.000000,4.000000,4.000000,4.000000,100.000000,,,,,,,,,,,,,,,,,,,,,,,,,,,,,,,,,,,,,,,,,,,,,,,,,,,,,,,,,,,,,,,,,,,,,,,,,,,,,,,,,,,,,,,,,,,,,,,,,,,,,,,,,,,,,,,,,,,,,,,,,,,,,,,,,
1739354761.342010,1739354761.342352,32.000000,0.000000,4330.384766,4296.794922,4339.358887,4393.461426,4281.153809,4247.179688,4263.333496,4295.769043,4281.922852,4275.897461,4597.179688,4530.384766,4430.769043,4527.179688,0.000000,1.000000,16.000000,,,,0.000000,4.000000,4.000000,4.000000,4.000000,4.000000,4.000000,4.000000,4.000000,4.000000,4.000000,4.000000,4.000000,4.000000,4.000000,100.000000,,,,,,,,,,,,,,,,,8.000000,0.000000,0.457530,0.387390,-0.547058,0.584229,0.958125,-0.270052,0.089366,-37.307541,-30.296831,46.041687,,,,,,,,,,,,,,,,,,,,,,,,,,,,,,,,,,,,,,,,,,,,,,,,,,,,,,,,,,,,,,,,,,,,,,,,,,,,,,,,,,,,,,,,,,,,,,,,,,,,,
1739354761.349818,1739354761.350260,33.000000,0.000000,4353.974121,4322.948730,4359.487305,4415.128418,4301.538574,4263.589844,4281.410156,4305.384766,4290.128418,4286.794922,4617.820313,4560.000000,4452.307617,4546.794922,0.000000,1.000000,16.000000,,,,0.000000,4.000000,4.000000,4.000000,4.000000,4.000000,4.000000,4.000000,4.000000,4.000000,4.000000,4.000000,4.000000,4.000000,4.000000,100.000000,,,,,,,,,,,,,,,,,,,,,,,,,,,,,,,,,,,,,,,,,,,,,,,,,,,,,,,,,,,,,,,,,,,,,,,,,,,,,,,,,,,,,,,,,,,,,,,,,,,,,,,,,,,,,,,,,,,,,,,,,,,,,,,,,
1739354761.357626,1739354761.358068,34.000000,0.000000,4373.461426,4339.358887,4377.051270,4438.077148,4324.230957,4287.436035,4313.205078,4314.358887,4304.358887,4306.794922,4640.000000,4586.153809,4468.461426,4562.692383,0.000000,1.000000,16.000000,,,,0.000000,4.000000,4.000000,4.000000,4.000000,4.000000,4.000000,4.000000,4.000000,4.000000,4.000000,4.000000,4.000000,4.000000,4.000000,100.000000,,,,,,,,,,,,,,,,,,,,,,,,,,,,,,,,,,,,,,,,,,,,,,,,,,,,,,,,,,,,,,,,,,,,,,,,,,,,,,,,,,,,,,,,,,,,,,,,,,,,,,,,,,,,,,,,,,,,,,,,,,,,,,,,,
1739354761.365434,1739354761.365976,35.000000,0.000000,4367.692383,4331.666504,4369.230957,4433.974121,4324.358887,4292.563965,4317.563965,4308.974121,4307.051270,4308.589844,4632.948730,4574.358887,4454.871582,4553.974121,0.000000,1.000000,16.000000,,,,0.000000,4.000000,4.000000,4.000000,4.000000,4.000000,4.000000,4.000000,4.000000,4.000000,4.000000,4.000000,4.000000,4.000000,4.000000,100.000000,,,,,,,,,,,,,,,,,,,,,,,,,,,,,,,,,,,,,,,,,,,,,,,,,,,,,,,,,,,,,,,,,,,,,,,,,,,,,,,,,,,,,,,,,,,,,,,,,,,,,,,,,,,,,,,,,,,,,,,,,,,,,,,,,
1739354761.373242,1739354761.373784,36.000000,0.000000,4347.948730,4320.641113,4355.769043,4418.077148,4313.974121,4280.641113,4299.230957,4301.922852,4297.692383,4294.871582,4613.461426,4554.102539,4438.974121,4539.871582,0.000000,1.000000,16.000000,,,,0.000000,4.000000,4.000000,4.000000,4.000000,4.000000,4.000000,4.000000,4.000000,4.000000,4.000000,4.000000,4.000000,4.000000,4.000000,100.000000,,,,,,,,,,,,,,,,,9.000000,0.000000,0.457441,0.385315,-0.548401,0.584412,0.954218,-0.262727,0.113295,-37.426788,-30.450481,46.070850,,,,,,,,,,,,,,,,,,,,,,,,,,,,,,,,,,,,,,,,,,,,,,,,,,,,,,,,,,,,,,,,,,,,,,,,,,,,,,,,,,,,,,,,,,,,,,,,,,,,,
1739354761.381050,1739354761.381692,37.000000,0.000000,4354.743652,4329.615234,4362.820313,4426.794922,4321.410156,4286.282227,4303.461426,4308.717773,4304.358887,4303.205078,4624.230957,4568.461426,4455.512695,4551.538574,0.000000,1.000000,16.000000,,,,0.000000,4.000000,4.000000,4.000000,4.000000,4.000000,4.000000,4.000000,4.000000,4.000000,4.000000,4.000000,4.000000,4.000000,4.000000,100.000000,,,,,,,,,,,,,,,,,,,,,,,,,,,,,,,,,,,,,,,,,,,,,,,,,,,,,,,,,,,,,,,,,,,,,,,,,,,,,,,,,,,,,,,,,,,,,,,,,,,,,,,,,,,,,,,,,,,,,,,,,,,,,,,,,
1739354761.388858,1739354761.389500,38.000000,0.000000,4395.128418,4359.487305,4387.948730,4460.000000,4350.769043,4317.051270,4335.128418,4321.794922,4333.205078,4336.025879,4657.820313,4609.487305,4487.692383,4582.563965,0.000000,1.000000,16.000000,,,,0.000000,4.000000,4.000000,4.000000,4.000000,4.000000,4.000000,4.000000,4.000000,4.000000,4.000000,4.000000,4.000000,4.000000,4.000000,100.000000,,,,,,,,,,,,,,,,,,,,,,,,,,,,,,,,,,,,,,,,,,,,,,,,,,,,,,,,,,,,,,,,,,,,,,,,,,,,,,,,,,,,,,,,,,,,,,,,,,,,,,,,,,,,,,,,,,,,,,,,,,,,,,,,,
1739354761.396666,1739354761.397308,39.000000,0.000000,4408.846191,4362.307617,4392.436035,4467.948730,4355.641113,4321.794922,4340.769043,4320.128418,4339.487305,4342.051270,4658.461426,4614.102539,4482.307617,4584.615234,0.000000,1.000000,16.000000,,,,0.000000,4.000000,4.000000,4.000000,4.000000,4.000000,4.000000,4.000000,4.000000,4.000000,4.000000,4.000000,4.000000,4.000000,4.000000,100.000000,,,,,,,,,,,,,,,,,,,,,,,,,,,,,,,,,,,,,,,,,,,,,,,,,,,,,,,,,,,,,,,,,,,,,,,,,,,,,,,,,,,,,,,,,,,,,,,,,,,,,,,,,,,,,,,,,,,,,,,,,,,,,,,,,
1739354761.404474,1739354761.405216,40.000000,0.000000,4380.769043,4333.717773,4371.025879,4444.102539,4328.333496,4292.436035,4311.538574,4308.333496,4316.538574,4315.128418,4627.179688,4577.563965,4453.205078,4557.820313,0.000000,1.000000,16.000000,,,,0.000000,4.000000,4.000000,4.000000,4.000000,4.000000,4.000000,4.000000,4.000000,4.000000,4.000000,4.000000,4.000000,4.000000,4.000000,100.000000,,,,,,,,,,,,,,,,,10.000000,0.000000,0.456888,0.383667,-0.549561,0.584839,0.968868,-0.290563,0.111830,-37.434109,-30.455433,46.097099,,,,,,,,,,,,,,,,,,,,,,,,,,,,,,,,,,,,,,,,,,,,,,,,,,,,,,,,,,,,,,,,,,,,,,,,,,,,,,,,,,,,,,,,,,,,,,,,,,,,,
1739354761.412283,1739354761.413024,41.000000,0.000000,4387.948730,4343.205078,4379.230957,4455.769043,4337.179688,4298.974121,4315.641113,4315.256348,4328.589844,4327.051270,4638.717773,4585.256348,4473.077148,4571.282227,0.000000,1.000000,16.000000,,,,0.000000,4.000000,4.000000,4.000000,4.000000,4.000000,4.000000,4.000000,4.000000,4.000000,4.000000,4.000000,4.000000,4.000000,4.000000,100.000000,,,,,,,,,,,,,,,,,,,,,,,,,,,,,,,,,,,,,,,,,,,,,,,,,,,,,,,,,,,,,,,,,,,,,,,,,,,,,,,,,,,,,,,,,,,,,,,,,,,,,,,,,,,,,,,,,,,,,,,,,,,,,,,,,
1739354761.420091,1739354761.420932,42.000000,0.000000,4430.512695,4380.000000,4407.948730,4492.307617,4369.743652,4329.230957,4344.743652,4330.512695,4362.051270,4369.487305,4675.512695,4623.846191,4511.666504,4609.487305,0.000000,1.000000,16.000000,,,,0.000000,4.000000,4.000000,4.000000,4.000000,4.000000,4.000000,4.000000,4.000000,4.000000,4.000000,4.000000,4.000000,4.000000,4.000000,100.000000,,,,,,,,,,,,,,,,,,,,,,,,,,,,,,,,,,,,,,,,,,,,,,,,,,,,,,,,,,,,57.806339,5.609928,2.084934,0.523321,0.849472,59.062874,4.899065,2.044583,0.539069,0.938313,12.969833,2.099929,1.594192,0.478914,0.765750,20.381449,2.230668,1.256806,0.470997,0.820646,4.209543,1.484374,0.538645,0.297171,0.599771,2.525697,1.076787,0.455689,0.374865,0.674265,3.314232,1.798071,1.149253,0.428800,0.895331,1.531511,1.065533,0.498991,0.407755,0.245411,2.036452,1.942243,1.268441,0.466014,0.865889,2.275095,2.742254,1.914977,0.432856,0.889064,7.814209,2.273651,0.878314,0.499671,0.825327,15.989033,3.305406,2.038383,0.703392,1.140037,14.072192,3.001179,1.208904,0.568715,0.697808,47.637550,5.580508,2.211114,0.579932,0.879310
1739354761.427899,1739354761.428741,43.000000,0.000000,4450.384766,4391.025879,4418.333496,4500.897461,4372.692383,4331.410156,4350.128418,4333.461426,4371.153809,4385.512695,4687.307617,4636.922852,4517.692383,4623.333496,0.000000,1.000000,16.000000,,,,0.000000,4.000000,4.000000,4.000000,4.000000,4.000000,4.000000,4.000000,4.000000,4.000000,4.000000,4.000000,4.000000,4.000000,4.000000,100.000000,,,,,,,,,,,,,,,,,,,,,,,,,,,,,,,,,,,,,,,,,,,,,,,,,,,,,,,,,,,,,,,,,,,,,,,,,,,,,,,,,,,,,,,,,,,,,,,,,,,,,,,,,,,,,,,,,,,,,,,,,,,,,,,,,
1739354761.435707,1739354761.436549,44.000000,0.000000,4448.846191,4388.333496,4418.589844,4495.128418,4366.410156,4324.230957,4344.743652,4331.025879,4374.230957,4384.102539,4691.025879,4633.461426,4515.897461,4623.077148,0.000000,1.000000,16.000000,,,,0.000000,4.000000,4.000000,4.000000,4.000000,4.000000,4.000000,4.000000,4.000000,4.000000,4.000000,4.000000,4.000000,4.000000,4.000000,100.000000,,,,,,,,,,,,,,,,,11.000000,0.000000,0.456565,0.383362,-0.550171,0.584717,0.966427,-0.288121,0.087413,-37.407364,-30.459890,46.254055,,,,,,,,,,,,,,,,,,,,,,,,,,,,,,,,,,,,,,,,,,,,,,,,,,,,,,,,,,,,,,,,,,,,,,,,,,,,,,,,,,,,,,,,,,,,,,,,,,,,,
1739354761.443515,1739354761.444257,45.000000,0.000000,4441.666504,4381.922852,4414.358887,4491.666504,4368.846191,4325.384766,4341.922852,4328.846191,4374.871582,4379.615234,4686.538574,4620.128418,4513.461426,4611.794922,0.000000,1.000000,16.000000,,,,0.000000,4.000000,4.000000,4.000000,4.000000,4.000000,4.000000,4.000000,4.000000,4.000000,4.000000,4.000000,4.000000,4.000000,4.000000,100.000000,,,,,,,,,,,,,,,,,,,,,,,,,,,,,,,,,,,,,,,,,,,,,,,,,,,,,,,,,,,,,,,,,,,,,,,,,,,,,,,,,,,,,,,,,,,,,,,,,,,,,,,,,,,,,,,,,,,,,,,,,,,,,,,,,
1739354761.451323,1739354761.452065,46.000000,0.000000,4447.436035,4378.589844,4415.256348,4494.487305,4374.743652,4333.974121,4349.871582,4330.897461,4375.769043,4383.077148,4677.948730,4613.589844,4509.743652,4606.153809,0.000000,1.000000,16.000000,,,,0.000000,4.000000,4.000000,4.000000,4.000000,4.000000,4.000000,4.000000,4.000000,4.000000,4.000000,4.000000,4.000000,4.000000,4.000000,100.000000,,,,,,,,,,,,,,,,,,,,,,,,,,,,,,,,,,,,,,,,,,,,,,,,,,,,,,,,,,,,,,,,,,,,,,,,,,,,,,,,,,,,,,,,,,,,,,,,,,,,,,,,,,,,,,,,,,,,,,,,,,,,,,,,,
1739354761.459131,1739354761.459773,47.000000,0.000000,4449.230957,4371.666504,4411.794922,4490.000000,4370.769043,4336.794922,4357.051270,4328.846191,4367.179688,4379.102539,4668.205078,4609.102539,4502.179688,4603.461426,0.000000,1.000000,16.000000,,,,0.000000,4.000000,4.000000,4.000000,4.000000,4.000000,4.000000,4.000000,4.000000,4.000000,4.000000,4.000000,4.000000,4.000000,4.000000,100.000000,,,,,,,,,,,,,,,,,,,,,,,,,,,,,,,,,,,,,,,,,,,,,,,,,,,,,,,,,,,,,,,,,,,,,,,,,,,,,,,,,,,,,,,,,,,,,,,,,,,,,,,,,,,,,,,,,,,,,,,,,,,,,,,,,
1739354761.466939,1739354761.467581,48.000000,0.000000,4437.563965,4357.563965,4402.307617,4480.641113,4363.077148,4330.128418,4355.769043,4325.128418,4349.487305,4361.153809,4657.436035,4597.179688,4491.410156,4590.641113,0.000000,1.000000,16.000000,,,,0.000000,4.000000,4.000000,4.000000,4.000000,4.000000,4.000000,4.000000,4.000000,4.000000,4.000000,4.000000,4.000000,4.000000,4.000000,100.000000,,,,,,,,,,,,,,,,,12.000000,0.000000,0.455906,0.383057,-0.550476,0.585144,0.954706,-0.281773,0.104505,-37.466629,-30.513901,46.311985,,,,,,,,,,,,,,,,,,,,,,,,,,,,,,,,,,,,,,,,,,,,,,,,,,,,,,,,,,,,,,,,,,,,,,,,,,,,,,,,,,,,,,,,,,,,,,,,,,,,,
1739354761.474747,1739354761.475289,49.000000,0.000000,4436.794922,4355.128418,4405.128418,4484.487305,4362.820313,4325.384766,4354.871582,4324.615234,4341.025879,4351.666504,4654.871582,4596.153809,4490.384766,4585.769043,0.000000,1.000000,16.000000,,,,0.000000,4.000000,4.000000,4.000000,4.000000,4.000000,4.000000,4.000000,4.000000,4.000000,4.000000,4.000000,4.000000,4.000000,4.000000,100.000000,,,,,,,,,,,,,,,,,,,,,,,,,,,,,,,,,,,,,,,,,,,,,,,,,,,,,,,,,,,,,,,,,,,,,,,,,,,,,,,,,,,,,,,,,,,,,,,,,,,,,,,,,,,,,,,,,,,,,,,,,,,,,,,,,
1739354761.482555,1739354761.483097,50.000000,0.000000,4450.000000,4364.230957,4415.512695,4494.487305,4365.256348,4328.077148,4354.487305,4323.205078,4342.692383,4356.538574,4662.563965,4609.230957,4499.230957,4599.230957,0.000000,1.000000,16.000000,,,,0.000000,4.000000,4.000000,4.000000,4.000000,4.000000,4.000000,4.000000,4.000000,4.000000,4.000000,4.000000,4.000000,4.000000,4.000000,100.000000,,,,,,,,,,,,,,,,,,,,,,,,,,,,,,,,,,,,,,,,,,,,,,,,,,,,,,,,,,,,,,,,,,,,,,,,,,,,,,,,,,,,,,,,,,,,,,,,,,,,,,,,,,,,,,,,,,,,,,,,,,,,,,,,,
1739354761.490363,1739354761.490805,51.000000,0.000000,4457.820313,4371.282227,4418.717773,4496.794922,4364.615234,4331.666504,4350.897461,4321.025879,4345.897461,4361.794922,4663.717773,4614.487305,4500.384766,4610.000000,0.000000,1.000000,16.000000,,,,0.000000,4.000000,4.000000,4.000000,4.000000,4.000000,4.000000,4.000000,4.000000,4.000000,4.000000,4.000000,4.000000,4.000000,4.000000,100.000000,,,,,,,,,,,,,,,,,,,,,,,,,,,,,,,,,,,,,,,,,,,,,,,,,,,,,,,,,,,,,,,,,,,,,,,,,,,,,,,,,,,,,,,,,,,,,,,,,,,,,,,,,,,,,,,,,,,,,,,,,,,,,,,,,
1739354761.498171,1739354761.498613,52.000000,0.000000,4444.358887,4366.794922,4408.461426,4487.563965,4352.820313,4316.410156,4333.717773,4317.436035,4338.205078,4348.846191,4648.205078,4600.512695,4487.179688,4602.436035,0.000000,1.000000,16.000000,,,,0.000000,4.000000,4.000000,4.000000,4.000000,4.000000,4.000000,4.000000,4.000000,4.000000,4.000000,4.000000,4.000000,4.000000,4.000000,100.000000,,,,,,,,,,,,,,,,,13.000000,0.000000,0.455049,0.382874,-0.550598,0.585815,0.942986,-0.290074,0.113783,-37.719967,-30.495844,46.014118,,,,,,,,,,,,,,,,,,,,,,,,,,,,,,,,,,,,,,,,,,,,,,,,,,,,,,,,,,,,,,,,,,,,,,,,,,,,,,,,,,,,,,,,,,,,,,,,,,,,,
1739354761.505979,1739354761.506321,53.000000,0.000000,4432.051270,4356.794922,4397.692383,4478.717773,4337.051270,4292.563965,4310.641113,4310.128418,4327.563965,4331.666504,4641.794922,4590.128418,4483.333496,4593.974121,0.000000,1.000000,16.000000,,,,0.000000,4.000000,4.000000,4.000000,4.000000,4.000000,4.000000,4.000000,4.000000,4.000000,4.000000,4.000000,4.000000,4.000000,4.000000,100.000000,,,,,,,,,,,,,,,,,,,,,,,,,,,,,,,,,,,,,,,,,,,,,,,,,,,,,,,,,,,,,,,,,,,,,,,,,,,,,,,,,,,,,,,,,,,,,,,,,,,,,,,,,,,,,,,,,,,,,,,,,,,,,,,,,
1739354761.513788,1739354761.514229,54.000000,0.000000,4447.436035,4360.256348,4406.025879,4484.102539,4340.000000,4295.897461,4313.717773,4314.230957,4339.358887,4341.025879,4662.820313,4606.666504,4500.641113,4605.128418,0.000000,1.000000,16.000000,,,,0.000000,4.000000,4.000000,4.000000,4.000000,4.000000,4.000000,4.000000,4.000000,4.000000,4.000000,4.000000,4.000000,4.000000,4.000000,100.000000,,,,,,,,,,,,,,,,,,,,,,,,,,,,,,,,,,,,,,,,,,,,,,,,,,,,,,,,,,,,,,,,,,,,,,,,,,,,,,,,,,,,,,,,,,,,,,,,,,,,,,,,,,,,,,,,,,,,,,,,,,,,,,,,,
1739354761.521596,1739354761.522037,55.000000,0.000000,4455.897461,4367.820313,4414.102539,4482.948730,4348.589844,4307.692383,4328.333496,4327.051270,4357.820313,4358.333496,4673.589844,4618.846191,4509.743652,4614.743652,0.000000,1.000000,16.000000,,,,0.000000,4.000000,4.000000,4.000000,4.000000,4.000000,4.000000,4.000000,4.000000,4.000000,4.000000,4.000000,4.000000,4.000000,4.000000,100.000000,,,,,,,,,,,,,,,,,,,,,,,,,,,,,,,,,,,,,,,,,,,,,,,,,,,,,,,,,,,,,,,,,,,,,,,,,,,,,,,,,,,,,,,,,,,,,,,,,,,,,,,,,,,,,,,,,,,,,,,,,,,,,,,,,
1739354761.529404,1739354761.529945,56.000000,0.000000,4431.922852,4356.025879,4398.974121,4467.692383,4338.589844,4298.077148,4321.922852,4327.692383,4354.358887,4349.230957,4655.384766,4602.820313,4497.563965,4599.871582,0.000000,1.000000,16.000000,,,,0.000000,4.000000,4.000000,4.000000,4.000000,4.000000,4.000000,4.000000,4.000000,4.000000,4.000000,4.000000,4.000000,4.000000,4.000000,100.000000,,,,,,,,,,,,,,,,,14.000000,0.000000,0.454759,0.382751,-0.550598,0.586121,0.955683,-0.315957,0.108900,-37.697968,-30.496260,45.962708,,,,,,,,,,,,,,,,,,,,,,,,,,,,,,,,,,,,,,,,,,,,,,,,,,,,,,,,,,,,,,,,,,,,,,,,,,,,,,,,,,,,,,,,,,,,,,,,,,,,,
1739354761.537212,1739354761.537754,57.000000,0.000000,4422.563965,4345.128418,4390.769043,4466.922852,4333.077148,4294.358887,4317.948730,4326.282227,4348.077148,4336.794922,4648.846191,4594.615234,4488.461426,4586.025879,0.000000,1.000000,16.000000,,,,0.000000,4.000000,4.000000,4.000000,4.000000,4.000000,4.000000,4.000000,4.000000,4.000000,4.000000,4.000000,4.000000,4.000000,4.000000,100.000000,,,,,,,,,,,,,,,,,,,,,,,,,,,,,,,,,,,,,,,,,,,,,,,,,,,,,,,,,,,,,,,,,,,,,,,,,,,,,,,,,,,,,,,,,,,,,,,,,,,,,,,,,,,,,,,,,,,,,,,,,,,,,,,,,
1739354761.545020,1739354761.545661,58.000000,0.000000,4430.256348,4347.179688,4399.102539,4471.153809,4336.794922,4303.205078,4328.205078,4329.230957,4348.717773,4335.897461,4654.230957,4596.794922,4481.922852,4586.025879,0.000000,1.000000,16.000000,,,,0.000000,4.000000,4.000000,4.000000,4.000000,4.000000,4.000000,4.000000,4.000000,4.000000,4.000000,4.000000,4.000000,4.000000,4.000000,100.000000,,,,,,,,,,,,,,,,,,,,,,,,,,,,,,,,,,,,,,,,,,,,,,,,,,,,,,,,,,,,41.939709,4.732420,1.967388,0.552822,0.969439,42.059517,3.779556,1.806630,0.579059,1.039609,9.859033,2.132544,1.631527,0.495920,0.865467,14.799870,2.040564,1.301970,0.564079,0.946509,3.153653,1.642525,0.539629,0.352669,0.674443,1.954398,1.256052,0.455168,0.433381,0.785023,2.754903,2.108466,1.075681,0.482777,0.989335,1.523833,1.140673,0.580485,0.441970,0.262297,1.946384,1.850714,1.243057,0.513730,0.970745,2.771184,2.852061,1.829905,0.479169,1.043051,6.589445,2.299409,0.865774,0.514825,0.940445,12.636265,3.192738,2.036633,0.714169,1.275586,10.744975,2.515473,1.190389,0.590841,0.778396,34.629036,5.142784,2.059765,0.637970,0.969928
1739354761.552828,1739354761.553469,59.000000,0.000000,4417.692383,4344.487305,4399.230957,4457.179688,4335.641113,4303.333496,4329.487305,4328.205078,4340.897461,4324.487305,4642.948730,4588.717773,4470.000000,4580.000000,0.000000,1.000000,16.000000,,,,0.000000,4.000000,4.000000,4.000000,4.000000,4.000000,4.000000,4.000000,4.000000,4.000000,4.000000,4.000000,4.000000,4.000000,4.000000,100.000000,,,,,,,,,,,,,,,,,,,,,,,,,,,,,,,,,,,,,,,,,,,,,,,,,,,,,,,,,,,,,,,,,,,,,,,,,,,,,,,,,,,,,,,,,,,,,,,,,,,,,,,,,,,,,,,,,,,,,,,,,,,,,,,,,
1739354761.560636,1739354761.561377,60.000000,0.000000,4405.000000,4337.307617,4394.230957,4442.948730,4337.948730,4303.717773,4326.153809,4323.205078,4332.820313,4311.794922,4627.307617,4581.922852,4461.922852,4570.769043,0.000000,1.000000,16.000000,,,,0.000000,4.000000,4.000000,4.000000,4.000000,4.000000,4.000000,4.000000,4.000000,4.000000,4.000000,4.000000,4.000000,4.000000,4.000000,100.000000,,,,,,,,,,,,,,,,,15.000000,0.000000,0.454109,0.382324,-0.550781,0.586731,0.981077,-0.294470,0.113295,-37.461506,-30.496634,46.049770,,,,,,,,,,,,,,,,,,,,,,,,,,,,,,,,,,,,,,,,,,,,,,,,,,,,,,,,,,,,,,,,,,,,,,,,,,,,,,,,,,,,,,,,,,,,,,,,,,,,,
1739354761.568444,1739354761.569185,61.000000,0.000000,4411.282227,4333.846191,4394.615234,4444.102539,4337.948730,4309.230957,4328.717773,4320.512695,4330.384766,4306.922852,4623.974121,4579.102539,4459.615234,4570.256348,0.000000,1.000000,16.000000,,,,0.000000,4.000000,4.000000,4.000000,4.000000,4.000000,4.000000,4.000000,4.000000,4.000000,4.000000,4.000000,4.000000,4.000000,4.000000,100.000000,,,,,,,,,,,,,,,,,,,,,,,,,,,,,,,,,,,,,,,,,,,,,,,,,,,,,,,,,,,,,,,,,,,,,,,,,,,,,,,,,,,,,,,,,,,,,,,,,,,,,,,,,,,,,,,,,,,,,,,,,,,,,,,,,
1739354761.576252,1739354761.577093,62.000000,0.000000,4418.461426,4339.615234,4401.538574,4448.717773,4335.897461,4312.948730,4332.051270,4319.615234,4331.025879,4306.282227,4629.102539,4580.128418,4462.820313,4577.948730,0.000000,1.000000,16.000000,,,,0.000000,4.000000,4.000000,4.000000,4.000000,4.000000,4.000000,4.000000,4.000000,4.000000,4.000000,4.000000,4.000000,4.000000,4.000000,100.000000,,,,,,,,,,,,,,,,,,,,,,,,,,,,,,,,,,,,,,,,,,,,,,,,,,,,,,,,,,,,,,,,,,,,,,,,,,,,,,,,,,,,,,,,,,,,,,,,,,,,,,,,,,,,,,,,,,,,,,,,,,,,,,,,,
1739354761.584060,1739354761.584901,63.000000,0.000000,4398.205078,4329.230957,4391.282227,4421.666504,4323.974121,4298.974121,4313.717773,4309.358887,4315.256348,4290.384766,4616.666504,4567.948730,4456.282227,4562.948730,0.000000,1.000000,16.000000,,,,0.000000,4.000000,4.000000,4.000000,4.000000,4.000000,4.000000,4.000000,4.000000,4.000000,4.000000,4.000000,4.000000,4.000000,4.000000,100.000000,,,,,,,,,,,,,,,,,,,,,,,,,,,,,,,,,,,,,,,,,,,,,,,,,,,,,,,,,,,,,,,,,,,,,,,,,,,,,,,,,,,,,,,,,,,,,,,,,,,,,,,,,,,,,,,,,,,,,,,,,,,,,,,,,
1739354761.591868,1739354761.592609,64.000000,0.000000,4374.102539,4306.153809,4370.641113,4383.461426,4302.820313,4275.897461,4288.589844,4305.512695,4291.794922,4267.179688,4597.563965,4545.256348,4442.820313,4538.077148,5130.000000,1.000000,16.000000,,,,0.000000,4.000000,4.000000,4.000000,4.000000,4.000000,4.000000,4.000000,4.000000,4.000000,4.000000,4.000000,4.000000,4.000000,4.000000,100.000000,,,,,,,,,,,,,,,,,16.000000,0.000000,0.453572,0.382141,-0.551025,0.587036,0.935173,-0.298376,0.099133,-37.515354,-30.496971,45.961460,,,,,,,,,,,,,,,,,,,,,,,,,,,,,,,,,,,,,,,,,,,,,,,,,,,,,,,,,,,,,,,,,,,,,,,,,,,,,,,,,,,,,,,,,,,,,,,,,,,,,
1739354761.599676,1739354761.600417,65.000000,0.000000,4388.717773,4318.461426,4380.256348,4392.563965,4304.743652,4279.358887,4297.436035,4318.846191,4302.307617,4276.282227,4609.230957,4554.871582,4456.153809,4554.230957,5485.000000,1.000000,16.000000,,,,0.000000,4.000000,4.000000,4.000000,4.000000,4.000000,4.000000,4.000000,4.000000,4.000000,4.000000,4.000000,4.000000,4.000000,4.000000,100.000000,,,,,,,,,,,,,,,,,,,,,,,,,,,,,,,,,,,,,,,,,,,,,,,,,,,,,,,,,,,,,,,,,,,,,,,,,,,,,,,,,,,,,,,,,,,,,,,,,,,,,,,,,,,,,,,,,,,,,,,,,,,,,,,,,
1739354761.607484,1739354761.608125,66.000000,0.000000,4396.538574,4336.794922,4384.871582,4401.538574,4314.358887,4293.461426,4311.410156,4322.179688,4317.051270,4287.820313,4619.743652,4565.384766,4466.922852,4568.717773,5509.000000,1.000000,16.000000,,,,0.000000,4.000000,4.000000,4.000000,4.000000,4.000000,4.000000,4.000000,4.000000,4.000000,4.000000,4.000000,4.000000,4.000000,4.000000,100.000000,,,,,,,,,,,,,,,,,,,,,,,,,,,,,,,,,,,,,,,,,,,,,,,,,,,,,,,,,,,,,,,,,,,,,,,,,,,,,,,,,,,,,,,,,,,,,,,,,,,,,,,,,,,,,,,,,,,,,,,,,,,,,,,,,
1739354761.615293,1739354761.615933,67.000000,0.000000,4368.589844,4312.051270,4358.974121,4366.666504,4300.641113,4281.282227,4295.769043,4311.666504,4298.974121,4267.820313,4601.538574,4540.256348,4443.461426,4541.153809,5432.000000,1.000000,16.000000,,,,0.000000,4.000000,4.000000,4.000000,4.000000,4.000000,4.000000,4.000000,4.000000,4.000000,4.000000,4.000000,4.000000,4.000000,4.000000,100.000000,,,,,,,,,,,,,,,,,,,,,,,,,,,,,,,,,,,,,,,,,,,,,,,,,,,,,,,,,,,,,,,,,,,,,,,,,,,,,,,,,,,,,,,,,,,,,,,,,,,,,,,,,,,,,,,,,,,,,,,,,,,,,,,,,
1739354761.623101,1739354761.623641,68.000000,0.000000,4360.256348,4292.563965,4355.384766,4348.717773,4285.641113,4263.717773,4282.692383,4310.769043,4291.025879,4260.128418,4594.102539,4529.102539,4434.871582,4530.128418,5407.000000,1.000000,16.000000,,,,0.000000,4.000000,4.000000,4.000000,4.000000,4.000000,4.000000,4.000000,4.000000,4.000000,4.000000,4.000000,4.000000,4.000000,4.000000,100.000000,,,,,,,,,,,,,,,,,17.000000,0.000000,0.452628,0.382263,-0.551392,0.587341,0.943475,-0.293981,0.108412,-37.380486,-30.630608,45.831982,,,,,,,,,,,,,,,,,,,,,,,,,,,,,,,,,,,,,,,,,,,,,,,,,,,,,,,,,,,,,,,,,,,,,,,,,,,,,,,,,,,,,,,,,,,,,,,,,,,,,
1739354761.630909,1739354761.631449,69.000000,0.000000,4370.256348,4301.666504,4370.897461,4352.948730,4283.077148,4260.769043,4276.410156,4309.743652,4297.948730,4270.769043,4597.692383,4537.179688,4446.282227,4543.717773,5429.000000,1.000000,16.000000,,,,0.000000,4.000000,4.000000,4.000000,4.000000,4.000000,4.000000,4.000000,4.000000,4.000000,4.000000,4.000000,4.000000,4.000000,4.000000,100.000000,,,,,,,,,,,,,,,,,,,,,,,,,,,,,,,,,,,,,,,,,,,,,,,,,,,,,,,,,,,,,,,,,,,,,,,,,,,,,,,,,,,,,,,,,,,,,,,,,,,,,,,,,,,,,,,,,,,,,,,,,,,,,,,,,
1739354761.638717,1739354761.639157,70.000000,0.000000,4351.666504,4294.871582,4358.077148,4335.000000,4274.871582,4260.769043,4263.461426,4300.128418,4285.000000,4256.282227,4583.333496,4519.871582,4433.205078,4533.717773,5385.000000,1.000000,16.000000,,,,0.000000,4.000000,4.000000,4.000000,4.000000,4.000000,4.000000,4.000000,4.000000,4.000000,4.000000,4.000000,4.000000,4.000000,4.000000,100.000000,,,,,,,,,,,,,,,,,,,,,,,,,,,,,,,,,,,,,,,,,,,,,,,,,,,,,,,,,,,,,,,,,,,,,,,,,,,,,,,,,,,,,,,,,,,,,,,,,,,,,,,,,,,,,,,,,,,,,,,,,,,,,,,,,
1739354761.646525,1739354761.646965,71.000000,0.000000,4332.051270,4281.794922,4343.717773,4319.487305,4271.282227,4266.153809,4268.461426,4296.922852,4272.563965,4235.641113,4570.897461,4501.666504,4413.589844,4517.563965,2458.000000,1.000000,16.000000,,,,0.000000,4.000000,4.000000,4.000000,4.000000,4.000000,4.000000,4.000000,4.000000,4.000000,4.000000,4.000000,4.000000,4.000000,4.000000,100.000000,,,,,,,,,,,,,,,,,,,,,,,,,,,,,,,,,,,,,,,,,,,,,,,,,,,,,,,,,,,,,,,,,,,,,,,,,,,,,,,,,,,,,,,,,,,,,,,,,,,,,,,,,,,,,,,,,,,,,,,,,,,,,,,,,
1739354761.654333,1739354761.654673,72.000000,0.000000,4320.384766,4271.794922,4337.051270,4303.846191,4262.692383,4259.230957,4264.743652,4290.512695,4255.769043,4220.769043,4559.230957,4487.948730,4404.615234,4505.512695,5187.000000,1.000000,16.000000,,,,0.000000,4.000000,4.000000,4.000000,4.000000,4.000000,4.000000,4.000000,4.000000,4.000000,4.000000,4.000000,4.000000,4.000000,4.000000,100.000000,,,,,,,,,,,,,,,,,18.000000,0.000000,0.452327,0.382690,-0.551147,0.587524,0.965450,-0.289586,0.109388,-37.375771,-30.600880,45.915447,,,,,,,,,,,,,,,,,,,,,,,,,,,,,,,,,,,,,,,,,,,,,,,,,,,,,,,,,,,,,,,,,,,,,,,,,,,,,,,,,,,,,,,,,,,,,,,,,,,,,
1739354761.662141,1739354761.662481,73.000000,0.000000,4308.205078,4263.333496,4328.717773,4285.000000,4249.615234,4243.717773,4244.358887,4284.102539,4231.538574,4202.179688,4549.743652,4471.666504,4397.820313,4497.051270,5524.000000,1.000000,16.000000,,,,0.000000,4.000000,4.000000,4.000000,4.000000,4.000000,4.000000,4.000000,4.000000,4.000000,4.000000,4.000000,4.000000,4.000000,4.000000,100.000000,,,,,,,,,,,,,,,,,,,,,,,,,,,,,,,,,,,,,,,,,,,,,,,,,,,,,,,,,,,,,,,,,,,,,,,,,,,,,,,,,,,,,,,,,,,,,,,,,,,,,,,,,,,,,,,,,,,,,,,,,,,,,,,,,
1739354761.669949,1739354761.670189,74.000000,0.000000,4327.820313,4283.077148,4352.179688,4302.563965,4263.974121,4257.436035,4257.692383,4294.743652,4241.666504,4214.871582,4572.051270,4493.333496,4406.538574,4519.358887,4981.000000,1.000000,16.000000,,,,0.000000,4.000000,4.000000,4.000000,4.000000,4.000000,4.000000,4.000000,4.000000,4.000000,4.000000,4.000000,4.000000,4.000000,4.000000,100.000000,1.000000,75.000000,4.000000,4.000000,3.000000,3.000000,4.000000,4.000000,4.000000,4.000000,4.000000,4.000000,4.000000,3.000000,4.000000,4.000000,,,,,,,,,,,,,,,,,,,,,,,,,,,,,,,,,,,,,,,,,,,,26.022829,3.820114,1.805831,0.584758,1.060476,25.404350,2.865843,1.557218,0.621844,1.098827,6.824707,2.108657,1.554882,0.505912,0.926919,9.602517,1.879138,1.345911,0.640796,1.038594,2.366578,1.736046,0.558607,0.412678,0.716454,1.565367,1.384840,0.455804,0.483916,0.844759,2.285777,2.358637,0.915229,0.533394,1.018896,1.442559,1.066617,0.610987,0.421695,0.262534,1.999197,1.753911,1.169863,0.537575,1.017160,3.551548,2.858010,1.664782,0.508734,1.145716,5.390130,2.249584,0.829528,0.503028,1.022861,9.310876,2.942307,1.944646,0.710647,1.350669,7.629948,2.069578,1.188939,0.586389,0.855023,21.528246,4.439628,1.853120,0.696666,1.026977
1739354761.677757,1739354761.677997,75.000000,0.000000,4356.922852,4308.846191,4385.000000,4327.820313,4279.743652,4271.922852,4276.922852,4305.769043,4268.205078,4247.948730,4598.717773,4528.333496,4426.538574,4544.487305,5445.000000,1.000000,16.000000,,,,0.000000,4.000000,4.000000,4.000000,4.000000,4.000000,4.000000,4.000000,4.000000,4.000000,4.000000,4.000000,4.000000,4.000000,4.000000,100.000000,,,,,,,,,,,,,,,,,,,,,,,,,,,,,,,,,,,,,,,,,,,,,,,,,,,,,,,,,,,,,,,,,,,,,,,,,,,,,,,,,,,,,,,,,,,,,,,,,,,,,,,,,,,,,,,,,,,,,,,,,,,,,,,,,
1739354761.685565,1739354761.685705,76.000000,0.000000,4351.153809,4306.538574,4380.512695,4315.512695,4269.743652,4258.717773,4259.358887,4302.948730,4269.743652,4250.512695,4594.102539,4522.563965,4426.666504,4537.563965,5521.000000,1.000000,16.000000,,,,0.000000,4.000000,4.000000,4.000000,4.000000,4.000000,4.000000,4.000000,4.000000,4.000000,4.000000,4.000000,4.000000,4.000000,4.000000,100.000000,,,,,,,,,,,,,,,,,19.000000,0.000000,0.452173,0.383118,-0.550781,0.587708,0.940056,-0.295446,0.100598,-37.488194,-30.590792,45.923904,,,,,,,,,,,,,,,,,,,,,,,,,,,,,,,,,,,,,,,,,,,,,,,,,,,,,,,,,,,,,,,,,,,,,,,,,,,,,,,,,,,,,,,,,,,,,,,,,,,,,
1739354761.693373,1739354761.693513,77.000000,0.000000,4328.333496,4291.794922,4356.922852,4295.512695,4255.128418,4243.461426,4239.743652,4297.948730,4256.794922,4232.436035,4579.615234,4494.615234,4410.000000,4525.128418,6504.000000,1.000000,16.000000,,,,0.000000,4.000000,4.000000,4.000000,4.000000,4.000000,4.000000,4.000000,4.000000,4.000000,4.000000,4.000000,4.000000,4.000000,4.000000,100.000000,,,,,,,,,,,,,,,,,,,,,,,,,,,,,,,,,,,,,,,,,,,,,,,,,,,,,,,,,,,,,,,,,,,,,,,,,,,,,,,,,,,,,,,,,,,,,,,,,,,,,,,,,,,,,,,,,,,,,,,,,,,,,,,,,
1739354761.701182,1739354761.701222,78.000000,0.000000,4326.922852,4286.538574,4348.974121,4291.153809,4250.641113,4238.846191,4239.615234,4295.769043,4251.282227,4228.461426,4581.794922,4488.974121,4406.922852,4527.179688,4981.000000,1.000000,16.000000,,,,0.000000,4.000000,4.000000,4.000000,4.000000,4.000000,4.000000,4.000000,4.000000,4.000000,4.000000,4.000000,4.000000,4.000000,4.000000,100.000000,,,,,,,,,,,,,,,,,,,,,,,,,,,,,,,,,,,,,,,,,,,,,,,,,,,,,,,,,,,,,,,,,,,,,,,,,,,,,,,,,,,,,,,,,,,,,,,,,,,,,,,,,,,,,,,,,,,,,,,,,,,,,,,,,
1739354761.708990,1739354761.709130,79.000000,0.000000,4335.512695,4283.205078,4352.948730,4292.051270,4246.410156,4233.461426,4235.512695,4293.077148,4249.615234,4231.666504,4583.333496,4496.025879,4413.205078,4530.384766,5445.000000,1.000000,16.000000,,,,0.000000,4.000000,4.000000,4.000000,4.000000,4.000000,4.000000,4.000000,4.000000,4.000000,4.000000,4.000000,4.000000,4.000000,4.000000,100.000000,,,,,,,,,,,,,,,,,,,,,,,,,,,,,,,,,,,,,,,,,,,,,,,,,,,,,,,,,,,,,,,,,,,,,,,,,,,,,,,,,,,,,,,,,,,,,,,,,,,,,,,,,,,,,,,,,,,,,,,,,,,,,,,,,
1739354761.716798,1739354761.716938,80.000000,0.000000,4330.769043,4279.358887,4353.589844,4290.000000,4240.128418,4228.333496,4227.563965,4290.769043,4245.384766,4224.102539,4571.794922,4491.025879,4407.692383,4529.102539,5521.000000,1.000000,16.000000,,,,0.000000,4.000000,4.000000,4.000000,4.000000,4.000000,4.000000,4.000000,4.000000,4.000000,4.000000,4.000000,4.000000,4.000000,4.000000,100.000000,,,,,,,,,,,,,,,,,20.000000,0.000000,0.451631,0.383301,-0.550903,0.587891,0.948358,-0.296423,0.104993,-37.406040,-30.581713,45.964848,,,,,,,,,,,,,,,,,,,,,,,,,,,,,,,,,,,,,,,,,,,,,,,,,,,,,,,,,,,,,,,,,,,,,,,,,,,,,,,,,,,,,,,,,,,,,,,,,,,,,
1739354761.724606,1739354761.724846,81.000000,0.000000,4325.256348,4282.563965,4353.333496,4286.410156,4242.948730,4233.205078,4231.794922,4293.717773,4245.897461,4218.846191,4566.025879,4487.820313,4401.794922,4530.897461,6504.000000,1.000000,16.000000,,,,0.000000,4.000000,4.000000,4.000000,4.000000,4.000000,4.000000,4.000000,4.000000,4.000000,4.000000,4.000000,4.000000,4.000000,4.000000,100.000000,,,,,,,,,,,,,,,,,,,,,,,,,,,,,,,,,,,,,,,,,,,,,,,,,,,,,,,,,,,,,,,,,,,,,,,,,,,,,,,,,,,,,,,,,,,,,,,,,,,,,,,,,,,,,,,,,,,,,,,,,,,,,,,,,
1739354761.732414,1739354761.732654,82.000000,0.000000,4323.077148,4282.436035,4351.153809,4283.205078,4250.000000,4241.666504,4243.461426,4296.410156,4251.538574,4221.794922,4567.307617,4491.666504,4402.948730,4533.846191,4981.000000,1.000000,16.000000,,,,0.000000,4.000000,4.000000,4.000000,4.000000,4.000000,4.000000,4.000000,4.000000,4.000000,4.000000,4.000000,4.000000,4.000000,4.000000,100.000000,,,,,,,,,,,,,,,,,,,,,,,,,,,,,,,,,,,,,,,,,,,,,,,,,,,,,,,,,,,,,,,,,,,,,,,,,,,,,,,,,,,,,,,,,,,,,,,,,,,,,,,,,,,,,,,,,,,,,,,,,,,,,,,,,
1739354761.740222,1739354761.740562,83.000000,0.000000,4303.589844,4261.538574,4335.512695,4269.230957,4240.384766,4235.641113,4238.589844,4289.358887,4239.102539,4211.025879,4553.974121,4473.461426,4390.897461,4521.282227,5445.000000,1.000000,16.000000,,,,0.000000,4.000000,4.000000,4.000000,4.000000,4.000000,4.000000,4.000000,4.000000,4.000000,4.000000,4.000000,4.000000,4.000000,4.000000,100.000000,,,,,,,,,,,,,,,,,,,,,,,,,,,,,,,,,,,,,,,,,,,,,,,,,,,,,,,,,,,,,,,,,,,,,,,,,,,,,,,,,,,,,,,,,,,,,,,,,,,,,,,,,,,,,,,,,,,,,,,,,,,,,,,,,
1739354761.748030,1739354761.748370,84.000000,0.000000,4292.563965,4252.692383,4327.563965,4261.794922,4232.948730,4230.384766,4232.948730,4288.974121,4228.205078,4205.897461,4552.692383,4461.282227,4385.000000,4512.179688,5521.000000,1.000000,16.000000,,,,0.000000,4.000000,4.000000,4.000000,4.000000,4.000000,4.000000,4.000000,4.000000,4.000000,4.000000,4.000000,4.000000,4.000000,4.000000,100.000000,,,,,,,,,,,,,,,,,21.000000,0.000000,0.451349,0.383545,-0.550964,0.587891,0.951288,-0.300330,0.103040,-37.515438,-30.623541,45.885029,,,,,,,,,,,,,,,,,,,,,,,,,,,,,,,,,,,,,,,,,,,,,,,,,,,,,,,,,,,,,,,,,,,,,,,,,,,,,,,,,,,,,,,,,,,,,,,,,,,,,
1739354761.755838,1739354761.756277,85.000000,0.000000,4314.871582,4277.948730,4350.512695,4281.282227,4256.153809,4247.692383,4252.436035,4300.128418,4255.512695,4236.153809,4584.743652,4493.717773,4408.077148,4531.282227,6504.000000,1.000000,16.000000,,,,0.000000,4.000000,4.000000,4.000000,4.000000,4.000000,4.000000,4.000000,4.000000,4.000000,4.000000,4.000000,4.000000,4.000000,4.000000,100.000000,,,,,,,,,,,,,,,,,,,,,,,,,,,,,,,,,,,,,,,,,,,,,,,,,,,,,,,,,,,,,,,,,,,,,,,,,,,,,,,,,,,,,,,,,,,,,,,,,,,,,,,,,,,,,,,,,,,,,,,,,,,,,,,,,
