Timestamp,OriginalTimestamp,EEG.Counter,EEG.Interpolated,EEG.AF3,EEG.F7,EEG.F3,EEG.FC5,EEG.T7,EEG.P7,EEG.O1,EEG.O2,EEG.P8,EEG.T8,EEG.FC6,EEG.F4,EEG.F8,EEG.AF4,EEG.RawCq,EEG.Battery,EEG.BatteryPercent,MarkerIndex,MarkerType,MarkerValueInt,EEG.MarkerHardware,CQ.AF3,CQ.F7,CQ.F3,CQ.FC5,CQ.T7,CQ.P7,CQ.O1,CQ.O2,CQ.P8,CQ.T8,CQ.FC6,CQ.F4,CQ.F8,CQ.AF4,CQ.Overall,EQ.SampleRateQuality,EQ.OVERALL,EQ.AF3,EQ.F7,EQ.F3,EQ.FC5,EQ.T7,EQ.P7,EQ.O1,EQ.O2,EQ.P8,EQ.T8,EQ.FC6,EQ.F4,EQ.F8,EQ.AF4,MOT.CounterMems,MOT.InterpolatedMems,MOT.Q0,MOT.Q1,MOT.Q2,MOT.Q3,MOT.AccX,MOT.AccY,MOT.AccZ,MOT.MagX,MOT.MagY,MOT.MagZ,PM.Attention.IsActive,PM.Attention.Scaled,PM.Attention.Raw,PM.Attention.Min,PM.Attention.Max,PM.Engagement.IsActive,PM.Engagement.Scaled,PM.Engagement.Raw,PM.Engagement.Min,PM.Engagement.Max,PM.Excitement.IsActive,PM.Excitement.Scaled,PM.Excitement.Raw,PM.Excitement.Min,PM.Excitement.Max,PM.LongTermExcitement,PM.Stress.IsActive,PM.Stress.Scaled,PM.Stress.Raw,PM.Stress.Min,PM.Stress.Max,PM.Relaxation.IsActive,PM.Relaxation.Scaled,PM.Relaxation.Raw,PM.Relaxation.Min,PM.Relaxation.Max,PM.Interest.IsActive,PM.Interest.Scaled,PM.Interest.Raw,PM.Interest.Min,PM.Interest.Max,POW.AF3.Theta,POW.AF3.Alpha,POW.AF3.BetaL,POW.AF3.BetaH,POW.AF3.Gamma,POW.F7.Theta,POW.F7.Alpha,POW.F7.BetaL,POW.F7.BetaH,POW.F7.Gamma,POW.F3.Theta,POW.F3.Alpha,POW.F3.BetaL,POW.F3.BetaH,POW.F3.Gamma,POW.FC5.Theta,POW.FC5.Alpha,POW.FC5.BetaL,POW.FC5.BetaH,POW.FC5.Gamma,POW.T7.Theta,POW.T7.Alpha,POW.T7.BetaL,POW.T7.BetaH,POW.T7.Gamma,POW.P7.Theta,POW.P7.Alpha,POW.P7.BetaL,POW.P7.BetaH,POW.P7.Gamma,POW.O1.Theta,POW.O1.Alpha,POW.O1.BetaL,POW.O1.BetaH,POW.O1.Gamma,POW.O2.Theta,POW.O2.Alpha,POW.O2.BetaL,POW.O2.BetaH,POW.O2.Gamma,POW.P8.Theta,POW.P8.Alpha,POW.P8.BetaL,POW.P8.BetaH,POW.P8.Gamma,POW.T8.Theta,POW.T8.Alpha,POW.T8.BetaL,POW.T8.BetaH,POW.T8.Gamma,POW.FC6.Theta,POW.FC6.Alpha,POW.FC6.BetaL,POW.FC6.BetaH,POW.FC6.Gamma,POW.F4.Theta,POW.F4.Alpha,POW.F4.BetaL,POW.F4.BetaH,POW.F4.Gamma,POW.F8.Theta,POW.F8.Alpha,POW.F8.BetaL,POW.F8.BetaH,POW.F8.Gamma,POW.AF4.Theta,POW.AF4.Alpha,POW.AF4.BetaL,POW.AF4.BetaH,POW.AF4.Gamma
1739354337.503854,1739354337.504761,22.000000,0.000000,4307.820313,4320.128418,4368.717773,4345.641113,4300.256348,4347.179688,4303.717773,4253.077148,4285.384766,4343.205078,4600.512695,4632.051270,4418.077148,4440.769043,0.000000,1.000000,18.000000,,,,0.000000,4.000000,4.000000,4.000000,4.000000,4.000000,4.000000,4.000000,4.000000,4.000000,4.000000,4.000000,4.000000,4.000000,4.000000,100.000000,,,,,,,,,,,,,,,,,,,,,,,,,,,,,,,,,,,,,,,,,,,,,,,,,,,,,,,,,,,,,,,,,,,,,,,,,,,,,,,,,,,,,,,,,,,,,,,,,,,,,,,,,,,,,,,,,,,,,,,,,,,,,,,,,
1739354337.511662,1739354337.512469,23.000000,0.000000,4298.461426,4311.794922,4360.512695,4338.333496,4291.282227,4331.153809,4290.897461,4243.846191,4287.179688,4335.769043,4595.769043,4620.897461,4406.410156,4427.436035,0.000000,1.000000,18.000000,,,,0.000000,4.000000,4.000000,4.000000,4.000000,4.000000,4.000000,4.000000,4.000000,4.000000,4.000000,4.000000,4.000000,4.000000,4.000000,100.000000,,,,,,,,,,,,,,,,,,,,,,,,,,,,,,,,,,,,,,,,,,,,,,,,,,,,,,,,,,,,,,,,,,,,,,,,,,,,,,,,,,,,,,,,,,,,,,,,,,,,,,,,,,,,,,,,,,,,,,,,,,,,,,,,,
1739354337.519470,1739354337.520277,24.000000,0.000000,4291.025879,4307.307617,4349.743652,4325.641113,4288.333496,4313.846191,4273.846191,4231.922852,4282.179688,4320.769043,4587.820313,4605.897461,4398.205078,4413.974121,0.000000,1.000000,18.000000,,,,0.000000,4.000000,4.000000,4.000000,4.000000,4.000000,4.000000,4.000000,4.000000,4.000000,4.000000,4.000000,4.000000,4.000000,4.000000,100.000000,,,,,,,,,,,,,,,,,6.000000,0.000000,0.255538,0.568359,-0.386902,0.679688,0.965450,-0.260286,0.058113,-39.447220,-26.349976,45.626915,,,,,,,,,,,,,,,,,,,,,,,,,,,,,,,,,,,,,,,,,,,,,,,,,,,,,,,,,,,,,,,,,,,,,,,,,,,,,,,,,,,,,,,,,,,,,,,,,,,,,
1739354337.527279,1739354337.527985,25.000000,0.000000,4310.256348,4324.102539,4365.641113,4346.666504,4301.153809,4325.256348,4285.256348,4243.333496,4301.794922,4336.666504,4613.205078,4627.051270,4414.358887,4434.102539,0.000000,1.000000,18.000000,,,,0.000000,4.000000,4.000000,4.000000,4.000000,4.000000,4.000000,4.000000,4.000000,4.000000,4.000000,4.000000,4.000000,4.000000,4.000000,100.000000,,,,,,,,,,,,,,,,,,,,,,,,,,,,,,,,,,,,,,,,,,,,,,,,,,,,,,,,,,,,,,,,,,,,,,,,,,,,,,,,,,,,,,,,,,,,,,,,,,,,,,,,,,,,,,,,,,,,,,,,,,,,,,,,,
1739354337.535087,1739354337.535793,26.000000,0.000000,4332.692383,4343.077148,4387.179688,4373.974121,4315.128418,4349.487305,4308.589844,4254.358887,4334.487305,4368.205078,4641.794922,4651.794922,4437.820313,4457.436035,0.000000,1.000000,18.000000,,,,0.000000,4.000000,4.000000,4.000000,4.000000,4.000000,4.000000,4.000000,4.000000,4.000000,4.000000,4.000000,4.000000,4.000000,4.000000,100.000000,,,,,,,,,,,,,,,,,,,,,,,,,,,,,,,,,,,,,,,,,,,,,,,,,,,,,,,,,,,,50.292889,8.357181,5.224196,2.246646,0.922965,44.934723,9.556009,4.540714,1.670193,0.868608,49.624348,10.043864,5.310477,2.176797,0.840893,56.128593,6.743218,4.187654,1.665968,0.950676,50.415386,8.873870,4.102725,1.608007,0.742103,50.802166,9.213968,3.687809,1.580310,0.761806,50.522076,8.583540,2.559694,1.842929,0.914230,10.542508,2.495307,0.989433,0.736747,0.402876,33.755463,7.383569,3.240277,1.628843,0.867141,62.077133,9.415722,4.925478,2.195628,1.230415,61.807709,18.713547,6.098334,2.134661,1.298233,66.878616,14.212438,6.123960,3.520512,1.456207,31.873957,5.637737,3.780570,2.004221,0.807352,44.795502,8.299411,5.360309,2.006341,0.903015
1739354337.542895,1739354337.543501,27.000000,0.000000,4320.897461,4331.794922,4371.666504,4360.256348,4312.820313,4345.512695,4301.794922,4237.820313,4339.743652,4365.769043,4620.256348,4632.179688,4430.897461,4442.948730,0.000000,1.000000,18.000000,,,,0.000000,4.000000,4.000000,4.000000,4.000000,4.000000,4.000000,4.000000,4.000000,4.000000,4.000000,4.000000,4.000000,4.000000,4.000000,100.000000,,,,,,,,,,,,,,,,,,,,,,,,,,,,,,,,,,,,,,,,,,,,,,,,,,,,,,,,,,,,,,,,,,,,,,,,,,,,,,,,,,,,,,,,,,,,,,,,,,,,,,,,,,,,,,,,,,,,,,,,,,,,,,,,,
1739354337.550703,1739354337.551309,28.000000,0.000000,4307.051270,4323.077148,4352.948730,4345.256348,4306.922852,4329.230957,4290.512695,4229.743652,4334.871582,4350.000000,4598.077148,4613.589844,4414.102539,4430.000000,0.000000,1.000000,18.000000,,,,0.000000,4.000000,4.000000,4.000000,4.000000,4.000000,4.000000,4.000000,4.000000,4.000000,4.000000,4.000000,4.000000,4.000000,4.000000,100.000000,,,,,,,,,,,,,,,,,7.000000,0.000000,0.253890,0.568359,-0.388306,0.679504,0.969845,-0.252472,0.062019,-39.319164,-26.231644,45.597557,,,,,,,,,,,,,,,,,,,,,,,,,,,,,,,,,,,,,,,,,,,,,,,,,,,,,,,,,,,,,,,,,,,,,,,,,,,,,,,,,,,,,,,,,,,,,,,,,,,,,
1739354337.558511,1739354337.559017,29.000000,0.000000,4314.487305,4331.410156,4358.589844,4357.436035,4302.051270,4328.717773,4291.025879,4251.025879,4337.692383,4345.384766,4616.282227,4623.461426,4419.230957,4439.102539,0.000000,1.000000,18.000000,,,,0.000000,4.000000,4.000000,4.000000,4.000000,4.000000,4.000000,4.000000,4.000000,4.000000,4.000000,4.000000,4.000000,4.000000,4.000000,100.000000,,,,,,,,,,,,,,,,,,,,,,,,,,,,,,,,,,,,,,,,,,,,,,,,,,,,,,,,,,,,,,,,,,,,,,,,,,,,,,,,,,,,,,,,,,,,,,,,,,,,,,,,,,,,,,,,,,,,,,,,,,,,,,,,,
1739354337.566319,1739354337.566825,30.000000,0.000000,4313.846191,4327.820313,4359.743652,4364.487305,4295.000000,4325.769043,4285.641113,4261.025879,4336.794922,4335.512695,4626.282227,4618.205078,4425.000000,4441.153809,0.000000,1.000000,18.000000,,,,0.000000,4.000000,4.000000,4.000000,4.000000,4.000000,4.000000,4.000000,4.000000,4.000000,4.000000,4.000000,4.000000,4.000000,4.000000,100.000000,,,,,,,,,,,,,,,,,,,,,,,,,,,,,,,,,,,,,,,,,,,,,,,,,,,,,,,,,,,,,,,,,,,,,,,,,,,,,,,,,,,,,,,,,,,,,,,,,,,,,,,,,,,,,,,,,,,,,,,,,,,,,,,,,
1739354337.574127,1739354337.574533,31.000000,0.000000,4309.487305,4321.538574,4357.563965,4362.948730,4294.102539,4315.000000,4281.410156,4252.948730,4340.128418,4327.563965,4619.743652,4604.358887,4423.205078,4439.358887,0.000000,1.000000,18.000000,,,,0.000000,4.000000,4.000000,4.000000,4.000000,4.000000,4.000000,4.000000,4.000000,4.000000,4.000000,4.000000,4.000000,4.000000,4.000000,100.000000,,,,,,,,,,,,,,,,,,,,,,,,,,,,,,,,,,,,,,,,,,,,,,,,,,,,,,,,,,,,,,,,,,,,,,,,,,,,,,,,,,,,,,,,,,,,,,,,,,,,,,,,,,,,,,,,,,,,,,,,,,,,,,,,,
1739354337.581935,1739354337.582341,32.000000,0.000000,4309.487305,4324.230957,4359.358887,4362.692383,4293.205078,4311.025879,4278.461426,4253.077148,4344.615234,4327.307617,4619.615234,4602.563965,4422.948730,4440.000000,0.000000,1.000000,18.000000,,,,0.000000,4.000000,4.000000,4.000000,4.000000,4.000000,4.000000,4.000000,4.000000,4.000000,4.000000,4.000000,4.000000,4.000000,4.000000,100.000000,,,,,,,,,,,,,,,,,8.000000,0.000000,0.252949,0.568726,-0.389343,0.678955,0.947870,-0.276401,0.050299,-39.420582,-26.208479,45.487801,,,,,,,,,,,,,,,,,,,,,,,,,,,,,,,,,,,,,,,,,,,,,,,,,,,,,,,,,,,,,,,,,,,,,,,,,,,,,,,,,,,,,,,,,,,,,,,,,,,,,
1739354337.589743,1739354337.590049,33.000000,0.000000,4313.589844,4329.871582,4360.384766,4367.179688,4296.025879,4320.000000,4278.205078,4258.717773,4353.846191,4327.820313,4628.077148,4608.974121,4426.922852,4443.077148,0.000000,1.000000,18.000000,,,,0.000000,4.000000,4.000000,4.000000,4.000000,4.000000,4.000000,4.000000,4.000000,4.000000,4.000000,4.000000,4.000000,4.000000,4.000000,100.000000,,,,,,,,,,,,,,,,,,,,,,,,,,,,,,,,,,,,,,,,,,,,,,,,,,,,,,,,,,,,,,,,,,,,,,,,,,,,,,,,,,,,,,,,,,,,,,,,,,,,,,,,,,,,,,,,,,,,,,,,,,,,,,,,,
1739354337.597551,1739354337.597857,34.000000,0.000000,4313.333496,4325.128418,4356.282227,4367.948730,4299.102539,4321.410156,4284.102539,4255.384766,4370.128418,4331.025879,4625.897461,4602.436035,4423.717773,4440.256348,0.000000,1.000000,18.000000,,,,0.000000,4.000000,4.000000,4.000000,4.000000,4.000000,4.000000,4.000000,4.000000,4.000000,4.000000,4.000000,4.000000,4.000000,4.000000,100.000000,,,,,,,,,,,,,,,,,,,,,,,,,,,,,,,,,,,,,,,,,,,,,,,,,,,,,,,,,,,,,,,,,,,,,,,,,,,,,,,,,,,,,,,,,,,,,,,,,,,,,,,,,,,,,,,,,,,,,,,,,,,,,,,,,
1739354337.605359,1739354337.605565,35.000000,0.000000,4287.563965,4297.563965,4333.846191,4346.410156,4280.256348,4299.230957,4271.282227,4245.128418,4361.282227,4317.563965,4599.230957,4566.538574,4400.384766,4418.589844,0.000000,1.000000,18.000000,,,,0.000000,4.000000,4.000000,4.000000,4.000000,4.000000,4.000000,4.000000,4.000000,4.000000,4.000000,4.000000,4.000000,4.000000,4.000000,100.000000,,,,,,,,,,,,,,,,,,,,,,,,,,,,,,,,,,,,,,,,,,,,,,,,,,,,,,,,,,,,,,,,,,,,,,,,,,,,,,,,,,,,,,,,,,,,,,,,,,,,,,,,,,,,,,,,,,,,,,,,,,,,,,,,,
1739354337.613167,1739354337.613473,36.000000,0.000000,4271.666504,4286.153809,4326.025879,4336.410156,4272.563965,4295.641113,4262.307617,4252.179688,4358.846191,4309.743652,4592.820313,4557.820313,4396.410156,4416.410156,0.000000,1.000000,18.000000,,,,0.000000,4.000000,4.000000,4.000000,4.000000,4.000000,4.000000,4.000000,4.000000,4.000000,4.000000,4.000000,4.000000,4.000000,4.000000,100.000000,,,,,,,,,,,,,,,,,9.000000,0.000000,0.253260,0.568970,-0.389954,0.678284,0.955195,-0.283238,0.041509,-39.395187,-26.287632,45.355686,,,,,,,,,,,,,,,,,,,,,,,,,,,,,,,,,,,,,,,,,,,,,,,,,,,,,,,,,,,,,,,,,,,,,,,,,,,,,,,,,,,,,,,,,,,,,,,,,,,,,
1739354337.620975,1739354337.621282,37.000000,0.000000,4292.563965,4301.538574,4346.282227,4356.410156,4289.871582,4314.871582,4281.410156,4269.358887,4389.102539,4328.333496,4615.897461,4588.974121,4416.025879,4439.102539,0.000000,1.000000,18.000000,,,,0.000000,4.000000,4.000000,4.000000,4.000000,4.000000,4.000000,4.000000,4.000000,4.000000,4.000000,4.000000,4.000000,4.000000,4.000000,100.000000,,,,,,,,,,,,,,,,,,,,,,,,,,,,,,,,,,,,,,,,,,,,,,,,,,,,,,,,,,,,,,,,,,,,,,,,,,,,,,,,,,,,,,,,,,,,,,,,,,,,,,,,,,,,,,,,,,,,,,,,,,,,,,,,,
1739354337.628784,1739354337.629190,38.000000,0.000000,4300.256348,4302.692383,4348.846191,4359.102539,4289.358887,4310.897461,4285.384766,4270.769043,4401.153809,4337.051270,4620.512695,4595.769043,4417.948730,4439.871582,0.000000,1.000000,18.000000,,,,0.000000,4.000000,4.000000,4.000000,4.000000,4.000000,4.000000,4.000000,4.000000,4.000000,4.000000,4.000000,4.000000,4.000000,4.000000,100.000000,,,,,,,,,,,,,,,,,,,,,,,,,,,,,,,,,,,,,,,,,,,,,,,,,,,,,,,,,,,,,,,,,,,,,,,,,,,,,,,,,,,,,,,,,,,,,,,,,,,,,,,,,,,,,,,,,,,,,,,,,,,,,,,,,
1739354337.636592,1739354337.636998,39.000000,0.000000,4283.205078,4289.615234,4335.769043,4343.846191,4274.871582,4292.179688,4264.743652,4263.974121,4389.230957,4327.051270,4605.128418,4581.153809,4408.846191,4429.358887,0.000000,1.000000,18.000000,,,,0.000000,4.000000,4.000000,4.000000,4.000000,4.000000,4.000000,4.000000,4.000000,4.000000,4.000000,4.000000,4.000000,4.000000,4.000000,100.000000,,,,,,,,,,,,,,,,,,,,,,,,,,,,,,,,,,,,,,,,,,,,,,,,,,,,,,,,,,,,,,,,,,,,,,,,,,,,,,,,,,,,,,,,,,,,,,,,,,,,,,,,,,,,,,,,,,,,,,,,,,,,,,,,,
1739354337.644400,1739354337.644906,40.000000,0.000000,4278.846191,4292.948730,4338.974121,4346.153809,4275.256348,4288.333496,4259.102539,4262.436035,4387.436035,4319.102539,4597.692383,4580.641113,4406.153809,4433.717773,0.000000,1.000000,18.000000,,,,0.000000,4.000000,4.000000,4.000000,4.000000,4.000000,4.000000,4.000000,4.000000,4.000000,4.000000,4.000000,4.000000,4.000000,4.000000,100.000000,,,,,,,,,,,,,,,,,10.000000,0.000000,0.253921,0.569336,-0.390686,0.677307,0.985960,-0.262727,0.039556,-39.522339,-26.242201,45.253452,,,,,,,,,,,,,,,,,,,,,,,,,,,,,,,,,,,,,,,,,,,,,,,,,,,,,,,,,,,,,,,,,,,,,,,,,,,,,,,,,,,,,,,,,,,,,,,,,,,,,
1739354337.652208,1739354337.652714,41.000000,0.000000,4285.384766,4296.666504,4343.461426,4351.666504,4280.128418,4290.128418,4267.179688,4265.512695,4385.769043,4317.692383,4590.641113,4582.436035,4404.230957,4434.230957,0.000000,1.000000,18.000000,,,,0.000000,4.000000,4.000000,4.000000,4.000000,4.000000,4.000000,4.000000,4.000000,4.000000,4.000000,4.000000,4.000000,4.000000,4.000000,100.000000,,,,,,,,,,,,,,,,,,,,,,,,,,,,,,,,,,,,,,,,,,,,,,,,,,,,,,,,,,,,,,,,,,,,,,,,,,,,,,,,,,,,,,,,,,,,,,,,,,,,,,,,,,,,,,,,,,,,,,,,,,,,,,,,,
1739354337.660016,1739354337.660622,42.000000,0.000000,4281.538574,4285.384766,4339.743652,4345.641113,4277.307617,4284.743652,4267.179688,4267.051270,4376.794922,4318.589844,4575.384766,4580.897461,4401.282227,4426.666504,0.000000,1.000000,18.000000,,,,0.000000,4.000000,4.000000,4.000000,4.000000,4.000000,4.000000,4.000000,4.000000,4.000000,4.000000,4.000000,4.000000,4.000000,4.000000,100.000000,,,,,,,,,,,,,,,,,,,,,,,,,,,,,,,,,,,,,,,,,,,,,,,,,,,,,,,,,,,,50.122078,7.424448,4.206230,2.634366,1.070060,45.265160,8.492427,3.533202,1.988542,1.066105,47.219940,9.150651,4.275743,2.609288,0.982043,32.160110,5.203161,2.895364,2.087337,1.013621,50.208626,7.543164,3.201965,1.782720,0.886238,49.970680,7.701355,3.044056,1.944051,0.909946,50.894875,6.931805,2.070657,2.166507,1.058861,9.587375,2.276375,0.975987,0.824345,0.469380,33.800957,5.852115,2.598083,1.932242,1.067681,65.221931,7.891655,3.975072,2.484743,1.512986,42.321476,17.638357,4.901230,2.445480,1.442877,62.021847,12.847698,4.877326,4.110867,1.686995,31.268141,4.548570,2.949572,2.272883,0.948008,43.018585,7.638954,4.196908,2.377301,1.069587
1739354337.667824,1739354337.668430,43.000000,0.000000,4265.897461,4273.589844,4328.717773,4333.846191,4266.153809,4273.717773,4252.436035,4258.333496,4361.922852,4307.436035,4549.871582,4570.897461,4389.358887,4416.538574,0.000000,1.000000,18.000000,,,,0.000000,4.000000,4.000000,4.000000,4.000000,4.000000,4.000000,4.000000,4.000000,4.000000,4.000000,4.000000,4.000000,4.000000,4.000000,100.000000,,,,,,,,,,,,,,,,,,,,,,,,,,,,,,,,,,,,,,,,,,,,,,,,,,,,,,,,,,,,,,,,,,,,,,,,,,,,,,,,,,,,,,,,,,,,,,,,,,,,,,,,,,,,,,,,,,,,,,,,,,,,,,,,,
1739354337.675632,1739354337.676338,44.000000,0.000000,4260.384766,4278.846191,4319.615234,4332.948730,4259.358887,4269.102539,4244.487305,4246.666504,4349.230957,4294.230957,4531.153809,4555.128418,4375.769043,4409.615234,0.000000,1.000000,18.000000,,,,0.000000,4.000000,4.000000,4.000000,4.000000,4.000000,4.000000,4.000000,4.000000,4.000000,4.000000,4.000000,4.000000,4.000000,4.000000,100.000000,,,,,,,,,,,,,,,,,11.000000,0.000000,0.254344,0.569702,-0.391357,0.676453,0.986449,-0.246124,0.044927,-39.653435,-26.434649,45.094772,,,,,,,,,,,,,,,,,,,,,,,,,,,,,,,,,,,,,,,,,,,,,,,,,,,,,,,,,,,,,,,,,,,,,,,,,,,,,,,,,,,,,,,,,,,,,,,,,,,,,
1739354337.683440,1739354337.684146,45.000000,0.000000,4272.563965,4295.000000,4324.743652,4347.820313,4269.615234,4276.410156,4254.230957,4247.051270,4350.384766,4301.922852,4532.948730,4559.102539,4380.256348,4415.641113,0.000000,1.000000,18.000000,,,,0.000000,4.000000,4.000000,4.000000,4.000000,4.000000,4.000000,4.000000,4.000000,4.000000,4.000000,4.000000,4.000000,4.000000,4.000000,100.000000,,,,,,,,,,,,,,,,,,,,,,,,,,,,,,,,,,,,,,,,,,,,,,,,,,,,,,,,,,,,,,,,,,,,,,,,,,,,,,,,,,,,,,,,,,,,,,,,,,,,,,,,,,,,,,,,,,,,,,,,,,,,,,,,,
1739354337.691248,1739354337.691954,46.000000,0.000000,4272.051270,4292.051270,4320.769043,4344.230957,4271.025879,4271.666504,4251.794922,4248.589844,4341.153809,4302.436035,4528.717773,4561.025879,4378.589844,4416.666504,0.000000,1.000000,18.000000,,,,0.000000,4.000000,4.000000,4.000000,4.000000,4.000000,4.000000,4.000000,4.000000,4.000000,4.000000,4.000000,4.000000,4.000000,4.000000,100.000000,,,,,,,,,,,,,,,,,,,,,,,,,,,,,,,,,,,,,,,,,,,,,,,,,,,,,,,,,,,,,,,,,,,,,,,,,,,,,,,,,,,,,,,,,,,,,,,,,,,,,,,,,,,,,,,,,,,,,,,,,,,,,,,,,
1739354337.699056,1739354337.699762,47.000000,0.000000,4264.102539,4282.051270,4312.307617,4327.563965,4259.871582,4258.333496,4238.974121,4250.384766,4328.205078,4291.666504,4526.410156,4554.358887,4372.051270,4411.666504,0.000000,1.000000,18.000000,,,,0.000000,4.000000,4.000000,4.000000,4.000000,4.000000,4.000000,4.000000,4.000000,4.000000,4.000000,4.000000,4.000000,4.000000,4.000000,100.000000,,,,,,,,,,,,,,,,,,,,,,,,,,,,,,,,,,,,,,,,,,,,,,,,,,,,,,,,,,,,,,,,,,,,,,,,,,,,,,,,,,,,,,,,,,,,,,,,,,,,,,,,,,,,,,,,,,,,,,,,,,,,,,,,,
1739354337.706864,1739354337.707470,48.000000,0.000000,4278.333496,4294.871582,4327.692383,4338.205078,4264.871582,4264.487305,4246.922852,4262.563965,4342.436035,4308.846191,4552.563965,4575.256348,4388.461426,4425.000000,0.000000,1.000000,18.000000,,,,0.000000,4.000000,4.000000,4.000000,4.000000,4.000000,4.000000,4.000000,4.000000,4.000000,4.000000,4.000000,4.000000,4.000000,4.000000,100.000000,,,,,,,,,,,,,,,,,12.000000,0.000000,0.254462,0.570313,-0.391235,0.675964,0.961055,-0.220242,0.038091,-39.771427,-26.607849,45.168629,,,,,,,,,,,,,,,,,,,,,,,,,,,,,,,,,,,,,,,,,,,,,,,,,,,,,,,,,,,,,,,,,,,,,,,,,,,,,,,,,,,,,,,,,,,,,,,,,,,,,
1739354337.714672,1739354337.715278,49.000000,0.000000,4285.384766,4301.282227,4335.384766,4348.974121,4267.820313,4268.589844,4256.794922,4272.948730,4347.051270,4322.307617,4563.846191,4594.358887,4397.051270,4435.000000,0.000000,1.000000,18.000000,,,,0.000000,4.000000,4.000000,4.000000,4.000000,4.000000,4.000000,4.000000,4.000000,4.000000,4.000000,4.000000,4.000000,4.000000,4.000000,100.000000,,,,,,,,,,,,,,,,,,,,,,,,,,,,,,,,,,,,,,,,,,,,,,,,,,,,,,,,,,,,,,,,,,,,,,,,,,,,,,,,,,,,,,,,,,,,,,,,,,,,,,,,,,,,,,,,,,,,,,,,,,,,,,,,,
1739354337.722480,1739354337.722986,50.000000,0.000000,4266.794922,4284.871582,4320.000000,4332.948730,4255.897461,4257.179688,4249.487305,4272.051270,4325.512695,4300.897461,4540.512695,4577.051270,4381.025879,4421.794922,0.000000,1.000000,18.000000,,,,0.000000,4.000000,4.000000,4.000000,4.000000,4.000000,4.000000,4.000000,4.000000,4.000000,4.000000,4.000000,4.000000,4.000000,4.000000,100.000000,,,,,,,,,,,,,,,,,,,,,,,,,,,,,,,,,,,,,,,,,,,,,,,,,,,,,,,,,,,,,,,,,,,,,,,,,,,,,,,,,,,,,,,,,,,,,,,,,,,,,,,,,,,,,,,,,,,,,,,,,,,,,,,,,
1739354337.730288,1739354337.730794,51.000000,0.000000,4261.410156,4278.333496,4319.871582,4330.897461,4258.333496,4255.000000,4247.436035,4269.871582,4321.922852,4294.102539,4531.794922,4566.922852,4377.307617,4416.282227,0.000000,1.000000,18.000000,,,,0.000000,4.000000,4.000000,4.000000,4.000000,4.000000,4.000000,4.000000,4.000000,4.000000,4.000000,4.000000,4.000000,4.000000,4.000000,100.000000,,,,,,,,,,,,,,,,,,,,,,,,,,,,,,,,,,,,,,,,,,,,,,,,,,,,,,,,,,,,,,,,,,,,,,,,,,,,,,,,,,,,,,,,,,,,,,,,,,,,,,,,,,,,,,,,,,,,,,,,,,,,,,,,,
1739354337.738097,1739354337.738502,52.000000,0.000000,4269.230957,4282.820313,4325.000000,4337.820313,4263.461426,4252.563965,4247.692383,4267.307617,4327.436035,4307.820313,4534.615234,4574.615234,4385.000000,4421.538574,0.000000,1.000000,18.000000,,,,0.000000,4.000000,4.000000,4.000000,4.000000,4.000000,4.000000,4.000000,4.000000,4.000000,4.000000,4.000000,4.000000,4.000000,4.000000,100.000000,,,,,,,,,,,,,,,,,13.000000,0.000000,0.254502,0.570618,-0.390869,0.675903,0.969845,-0.239775,0.043951,-39.710949,-26.513731,45.151768,,,,,,,,,,,,,,,,,,,,,,,,,,,,,,,,,,,,,,,,,,,,,,,,,,,,,,,,,,,,,,,,,,,,,,,,,,,,,,,,,,,,,,,,,,,,,,,,,,,,,
1739354337.745905,1739354337.746410,53.000000,0.000000,4264.102539,4277.179688,4315.512695,4329.615234,4253.461426,4243.205078,4242.948730,4264.102539,4312.179688,4306.538574,4527.179688,4571.538574,4382.179688,4416.794922,0.000000,1.000000,18.000000,,,,0.000000,4.000000,4.000000,4.000000,4.000000,4.000000,4.000000,4.000000,4.000000,4.000000,4.000000,4.000000,4.000000,4.000000,4.000000,100.000000,,,,,,,,,,,,,,,,,,,,,,,,,,,,,,,,,,,,,,,,,,,,,,,,,,,,,,,,,,,,,,,,,,,,,,,,,,,,,,,,,,,,,,,,,,,,,,,,,,,,,,,,,,,,,,,,,,,,,,,,,,,,,,,,,
1739354337.753713,1739354337.754218,54.000000,0.000000,4255.256348,4272.436035,4309.615234,4328.205078,4248.846191,4245.128418,4245.769043,4264.487305,4300.256348,4293.717773,4520.000000,4567.436035,4376.794922,4411.410156,0.000000,1.000000,18.000000,,,,0.000000,4.000000,4.000000,4.000000,4.000000,4.000000,4.000000,4.000000,4.000000,4.000000,4.000000,4.000000,4.000000,4.000000,4.000000,100.000000,,,,,,,,,,,,,,,,,,,,,,,,,,,,,,,,,,,,,,,,,,,,,,,,,,,,,,,,,,,,,,,,,,,,,,,,,,,,,,,,,,,,,,,,,,,,,,,,,,,,,,,,,,,,,,,,,,,,,,,,,,,,,,,,,
1739354337.761521,1739354337.762027,55.000000,0.000000,4256.538574,4273.205078,4309.743652,4332.692383,4252.179688,4246.025879,4246.410156,4261.282227,4300.512695,4291.794922,4514.102539,4573.461426,4376.025879,4412.948730,0.000000,1.000000,18.000000,,,,0.000000,4.000000,4.000000,4.000000,4.000000,4.000000,4.000000,4.000000,4.000000,4.000000,4.000000,4.000000,4.000000,4.000000,4.000000,100.000000,,,,,,,,,,,,,,,,,,,,,,,,,,,,,,,,,,,,,,,,,,,,,,,,,,,,,,,,,,,,,,,,,,,,,,,,,,,,,,,,,,,,,,,,,,,,,,,,,,,,,,,,,,,,,,,,,,,,,,,,,,,,,,,,,
1739354337.769329,1739354337.769735,56.000000,0.000000,4262.820313,4274.358887,4313.205078,4334.615234,4252.307617,4239.102539,4243.846191,4262.436035,4303.077148,4307.179688,4510.000000,4582.692383,4378.974121,4415.256348,0.000000,1.000000,18.000000,,,,0.000000,4.000000,4.000000,4.000000,4.000000,4.000000,4.000000,4.000000,4.000000,4.000000,4.000000,4.000000,4.000000,4.000000,4.000000,100.000000,,,,,,,,,,,,,,,,,14.000000,0.000000,0.254249,0.570862,-0.389832,0.676392,0.969357,-0.251496,0.050787,-39.673187,-26.579025,45.103256,,,,,,,,,,,,,,,,,,,,,,,,,,,,,,,,,,,,,,,,,,,,,,,,,,,,,,,,,,,,,,,,,,,,,,,,,,,,,,,,,,,,,,,,,,,,,,,,,,,,,
1739354337.777137,1739354337.777543,57.000000,0.000000,4251.922852,4263.717773,4306.922852,4327.307617,4248.846191,4232.051270,4246.025879,4262.692383,4295.128418,4306.282227,4496.922852,4572.563965,4372.307617,4409.358887,0.000000,1.000000,18.000000,,,,0.000000,4.000000,4.000000,4.000000,4.000000,4.000000,4.000000,4.000000,4.000000,4.000000,4.000000,4.000000,4.000000,4.000000,4.000000,100.000000,,,,,,,,,,,,,,,,,,,,,,,,,,,,,,,,,,,,,,,,,,,,,,,,,,,,,,,,,,,,,,,,,,,,,,,,,,,,,,,,,,,,,,,,,,,,,,,,,,,,,,,,,,,,,,,,,,,,,,,,,,,,,,,,,
1739354337.784945,1739354337.785251,58.000000,0.000000,4235.641113,4250.128418,4295.512695,4316.538574,4247.948730,4232.051270,4248.846191,4252.692383,4279.615234,4282.436035,4476.153809,4554.487305,4357.948730,4399.487305,0.000000,1.000000,18.000000,,,,0.000000,4.000000,4.000000,4.000000,4.000000,4.000000,4.000000,4.000000,4.000000,4.000000,4.000000,4.000000,4.000000,4.000000,4.000000,100.000000,,,,,,,,,,,,,,,,,,,,,,,,,,,,,,,,,,,,,,,,,,,,,,,,,,,,,,,,,,,,46.031334,6.178657,3.105367,2.932578,1.240559,42.237469,7.014386,2.529795,2.222073,1.277518,40.569366,7.839811,3.173799,2.923651,1.144611,16.342150,3.837566,1.800922,2.447392,1.152640,45.302628,5.926633,2.259886,1.841523,1.037563,44.206352,6.037232,2.234737,2.187855,1.069423,46.370308,5.280274,1.502757,2.350119,1.229482,8.117479,2.010754,0.945190,0.859667,0.536812,30.741434,4.377950,1.923517,2.127857,1.260004,60.361328,6.205791,3.000301,2.607822,1.788474,27.104465,14.780631,3.466590,2.647668,1.579716,52.457630,10.779735,3.607198,4.481457,1.936688,28.037100,3.721365,2.145229,2.406332,1.103652,37.557133,6.769422,3.027551,2.630141,1.255810
1739354337.792753,1739354337.793059,59.000000,0.000000,4240.128418,4253.717773,4301.282227,4316.794922,4250.384766,4240.512695,4248.974121,4249.871582,4275.641113,4277.179688,4471.153809,4557.820313,4357.307617,4399.102539,0.000000,1.000000,18.000000,,,,0.000000,4.000000,4.000000,4.000000,4.000000,4.000000,4.000000,4.000000,4.000000,4.000000,4.000000,4.000000,4.000000,4.000000,4.000000,100.000000,,,,,,,,,,,,,,,,,,,,,,,,,,,,,,,,,,,,,,,,,,,,,,,,,,,,,,,,,,,,,,,,,,,,,,,,,,,,,,,,,,,,,,,,,,,,,,,,,,,,,,,,,,,,,,,,,,,,,,,,,,,,,,,,,
1739354337.800561,1739354337.800767,60.000000,0.000000,4251.410156,4264.615234,4317.436035,4327.307617,4252.179688,4244.230957,4254.615234,4261.922852,4282.051270,4296.922852,4481.410156,4569.871582,4370.769043,4412.563965,0.000000,1.000000,18.000000,,,,0.000000,4.000000,4.000000,4.000000,4.000000,4.000000,4.000000,4.000000,4.000000,4.000000,4.000000,4.000000,4.000000,4.000000,4.000000,100.000000,,,,,,,,,,,,,,,,,15.000000,0.000000,0.254239,0.570923,-0.388794,0.676941,0.969845,-0.244659,0.056648,-39.622536,-26.571123,45.176266,,,,,,,,,,,,,,,,,,,,,,,,,,,,,,,,,,,,,,,,,,,,,,,,,,,,,,,,,,,,,,,,,,,,,,,,,,,,,,,,,,,,,,,,,,,,,,,,,,,,,
1739354337.808369,1739354337.808675,61.000000,0.000000,4250.897461,4266.282227,4320.769043,4329.487305,4250.897461,4237.051270,4261.410156,4264.102539,4280.897461,4304.615234,4485.384766,4572.948730,4381.538574,4425.256348,0.000000,1.000000,18.000000,,,,0.000000,4.000000,4.000000,4.000000,4.000000,4.000000,4.000000,4.000000,4.000000,4.000000,4.000000,4.000000,4.000000,4.000000,4.000000,100.000000,,,,,,,,,,,,,,,,,,,,,,,,,,,,,,,,,,,,,,,,,,,,,,,,,,,,,,,,,,,,,,,,,,,,,,,,,,,,,,,,,,,,,,,,,,,,,,,,,,,,,,,,,,,,,,,,,,,,,,,,,,,,,,,,,
1739354337.816177,1739354337.816483,62.000000,0.000000,4247.820313,4264.743652,4314.487305,4318.077148,4248.077148,4231.922852,4255.384766,4253.077148,4269.358887,4294.358887,4477.563965,4569.743652,4377.820313,4423.205078,0.000000,1.000000,18.000000,,,,0.000000,4.000000,4.000000,4.000000,4.000000,4.000000,4.000000,4.000000,4.000000,4.000000,4.000000,4.000000,4.000000,4.000000,4.000000,100.000000,,,,,,,,,,,,,,,,,,,,,,,,,,,,,,,,,,,,,,,,,,,,,,,,,,,,,,,,,,,,,,,,,,,,,,,,,,,,,,,,,,,,,,,,,,,,,,,,,,,,,,,,,,,,,,,,,,,,,,,,,,,,,,,,,
1739354337.823985,1739354337.824391,63.000000,0.000000,4248.974121,4265.000000,4312.051270,4313.974121,4248.333496,4235.897461,4247.051270,4249.615234,4262.179688,4292.051270,4467.179688,4564.102539,4369.358887,4417.436035,0.000000,1.000000,18.000000,,,,0.000000,4.000000,4.000000,4.000000,4.000000,4.000000,4.000000,4.000000,4.000000,4.000000,4.000000,4.000000,4.000000,4.000000,4.000000,100.000000,,,,,,,,,,,,,,,,,,,,,,,,,,,,,,,,,,,,,,,,,,,,,,,,,,,,,,,,,,,,,,,,,,,,,,,,,,,,,,,,,,,,,,,,,,,,,,,,,,,,,,,,,,,,,,,,,,,,,,,,,,,,,,,,,
1739354337.831793,1739354337.832199,64.000000,0.000000,4248.589844,4263.461426,4311.025879,4316.922852,4246.282227,4232.820313,4246.153809,4244.358887,4259.743652,4295.897461,4457.307617,4557.563965,4371.153809,4418.974121,5073.000000,1.000000,18.000000,,,,0.000000,4.000000,4.000000,4.000000,4.000000,4.000000,4.000000,4.000000,4.000000,4.000000,4.000000,4.000000,4.000000,4.000000,4.000000,100.000000,,,,,,,,,,,,,,,,,16.000000,0.000000,0.255190,0.570801,-0.387817,0.677246,0.959590,-0.232450,0.055671,-39.593616,-26.580677,45.041969,,,,,,,,,,,,,,,,,,,,,,,,,,,,,,,,,,,,,,,,,,,,,,,,,,,,,,,,,,,,,,,,,,,,,,,,,,,,,,,,,,,,,,,,,,,,,,,,,,,,,
1739354337.839602,1739354337.840107,65.000000,0.000000,4245.384766,4264.871582,4310.256348,4315.897461,4241.922852,4225.128418,4245.641113,4234.102539,4252.307617,4292.948730,4447.948730,4553.461426,4373.461426,4420.256348,5432.000000,1.000000,18.000000,,,,0.000000,4.000000,4.000000,4.000000,4.000000,4.000000,4.000000,4.000000,4.000000,4.000000,4.000000,4.000000,4.000000,4.000000,4.000000,100.000000,,,,,,,,,,,,,,,,,,,,,,,,,,,,,,,,,,,,,,,,,,,,,,,,,,,,,,,,,,,,,,,,,,,,,,,,,,,,,,,,,,,,,,,,,,,,,,,,,,,,,,,,,,,,,,,,,,,,,,,,,,,,,,,,,
1739354337.847410,1739354337.847915,66.000000,0.000000,4244.615234,4268.205078,4310.128418,4310.897461,4240.128418,4224.487305,4242.307617,4226.922852,4248.333496,4290.512695,4441.153809,4555.512695,4366.282227,4419.615234,5455.000000,1.000000,18.000000,,,,0.000000,4.000000,4.000000,4.000000,4.000000,4.000000,4.000000,4.000000,4.000000,4.000000,4.000000,4.000000,4.000000,4.000000,4.000000,100.000000,,,,,,,,,,,,,,,,,,,,,,,,,,,,,,,,,,,,,,,,,,,,,,,,,,,,,,,,,,,,,,,,,,,,,,,,,,,,,,,,,,,,,,,,,,,,,,,,,,,,,,,,,,,,,,,,,,,,,,,,,,,,,,,,,
1739354337.855218,1739354337.855823,67.000000,0.000000,4247.948730,4261.922852,4307.436035,4314.102539,4240.512695,4222.436035,4239.102539,4226.153809,4250.000000,4295.512695,4437.692383,4557.692383,4362.692383,4419.615234,5340.000000,1.000000,18.000000,,,,0.000000,4.000000,4.000000,4.000000,4.000000,4.000000,4.000000,4.000000,4.000000,4.000000,4.000000,4.000000,4.000000,4.000000,4.000000,100.000000,,,,,,,,,,,,,,,,,,,,,,,,,,,,,,,,,,,,,,,,,,,,,,,,,,,,,,,,,,,,,,,,,,,,,,,,,,,,,,,,,,,,,,,,,,,,,,,,,,,,,,,,,,,,,,,,,,,,,,,,,,,,,,,,,
1739354337.863026,1739354337.863631,68.000000,0.000000,4239.487305,4252.307617,4296.666504,4315.128418,4232.051270,4217.436035,4235.256348,4224.743652,4241.025879,4287.563965,4428.077148,4546.666504,4355.384766,4405.384766,5335.000000,1.000000,18.000000,,,,0.000000,4.000000,4.000000,4.000000,4.000000,4.000000,4.000000,4.000000,4.000000,4.000000,4.000000,4.000000,4.000000,4.000000,4.000000,100.000000,,,,,,,,,,,,,,,,,17.000000,0.000000,0.256246,0.570618,-0.387390,0.677246,0.962520,-0.229032,0.058601,-39.667587,-26.522610,45.037773,,,,,,,,,,,,,,,,,,,,,,,,,,,,,,,,,,,,,,,,,,,,,,,,,,,,,,,,,,,,,,,,,,,,,,,,,,,,,,,,,,,,,,,,,,,,,,,,,,,,,
1739354337.870834,1739354337.871539,69.000000,0.000000,4219.487305,4244.743652,4277.051270,4298.077148,4217.820313,4212.179688,4233.077148,4221.282227,4222.948730,4267.948730,4412.692383,4526.410156,4336.666504,4383.333496,5359.000000,1.000000,18.000000,,,,0.000000,4.000000,4.000000,4.000000,4.000000,4.000000,4.000000,4.000000,4.000000,4.000000,4.000000,4.000000,4.000000,4.000000,4.000000,100.000000,,,,,,,,,,,,,,,,,,,,,,,,,,,,,,,,,,,,,,,,,,,,,,,,,,,,,,,,,,,,,,,,,,,,,,,,,,,,,,,,,,,,,,,,,,,,,,,,,,,,,,,,,,,,,,,,,,,,,,,,,,,,,,,,,
1739354337.878642,1739354337.879347,70.000000,0.000000,4211.282227,4237.051270,4265.128418,4286.666504,4215.384766,4207.563965,4233.077148,4223.333496,4217.179688,4266.666504,4406.794922,4518.846191,4330.000000,4375.128418,5313.000000,1.000000,18.000000,,,,0.000000,4.000000,4.000000,4.000000,4.000000,4.000000,4.000000,4.000000,4.000000,4.000000,4.000000,4.000000,4.000000,4.000000,4.000000,100.000000,,,,,,,,,,,,,,,,,,,,,,,,,,,,,,,,,,,,,,,,,,,,,,,,,,,,,,,,,,,,,,,,,,,,,,,,,,,,,,,,,,,,,,,,,,,,,,,,,,,,,,,,,,,,,,,,,,,,,,,,,,,,,,,,,
1739354337.886450,1739354337.887055,71.000000,0.000000,4216.153809,4232.563965,4268.589844,4291.666504,4213.205078,4203.205078,4232.948730,4228.205078,4219.871582,4276.153809,4410.000000,4524.230957,4339.615234,4377.179688,3141.000000,1.000000,18.000000,,,,0.000000,4.000000,4.000000,4.000000,4.000000,4.000000,4.000000,4.000000,4.000000,4.000000,4.000000,4.000000,4.000000,4.000000,4.000000,100.000000,,,,,,,,,,,,,,,,,,,,,,,,,,,,,,,,,,,,,,,,,,,,,,,,,,,,,,,,,,,,,,,,,,,,,,,,,,,,,,,,,,,,,,,,,,,,,,,,,,,,,,,,,,,,,,,,,,,,,,,,,,,,,,,,,
1739354337.894258,1739354337.894863,72.000000,0.000000,4218.333496,4232.820313,4275.384766,4295.128418,4204.358887,4203.205078,4234.743652,4233.077148,4216.538574,4272.692383,4409.358887,4528.717773,4342.820313,4380.000000,5121.000000,1.000000,18.000000,,,,0.000000,4.000000,4.000000,4.000000,4.000000,4.000000,4.000000,4.000000,4.000000,4.000000,4.000000,4.000000,4.000000,4.000000,4.000000,100.000000,,,,,,,,,,,,,,,,,18.000000,0.000000,0.257435,0.570435,-0.387085,0.677124,0.968380,-0.225613,0.049322,-39.584164,-26.453682,45.083996,,,,,,,,,,,,,,,,,,,,,,,,,,,,,,,,,,,,,,,,,,,,,,,,,,,,,,,,,,,,,,,,,,,,,,,,,,,,,,,,,,,,,,,,,,,,,,,,,,,,,
1739354337.902066,1739354337.902571,73.000000,0.000000,4208.589844,4222.051270,4267.820313,4282.563965,4203.461426,4203.717773,4232.051270,4229.230957,4206.153809,4259.358887,4397.179688,4520.384766,4330.897461,4374.358887,5455.000000,1.000000,18.000000,,,,0.000000,4.000000,4.000000,4.000000,4.000000,4.000000,4.000000,4.000000,4.000000,4.000000,4.000000,4.000000,4.000000,4.000000,4.000000,100.000000,,,,,,,,,,,,,,,,,,,,,,,,,,,,,,,,,,,,,,,,,,,,,,,,,,,,,,,,,,,,,,,,,,,,,,,,,,,,,,,,,,,,,,,,,,,,,,,,,,,,,,,,,,,,,,,,,,,,,,,,,,,,,,,,,
1739354337.909874,1739354337.910379,74.000000,0.000000,4186.666504,4203.077148,4245.512695,4264.102539,4197.948730,4197.307617,4220.128418,4221.282227,4194.102539,4250.512695,4380.897461,4494.871582,4316.794922,4356.025879,4989.000000,1.000000,18.000000,,,,0.000000,4.000000,4.000000,4.000000,4.000000,4.000000,4.000000,4.000000,4.000000,4.000000,4.000000,4.000000,4.000000,4.000000,4.000000,100.000000,1.000000,0.000000,1.000000,1.000000,1.000000,0.000000,0.000000,0.000000,0.000000,1.000000,1.000000,1.000000,0.000000,1.000000,1.000000,1.000000,,,,,,,,,,,,,,,,,,,,,,,,,,,,,,,,,,,,,,,,,,,,37.821712,4.938032,2.167144,3.046254,1.388567,35.824818,5.491021,1.744521,2.292010,1.454405,31.082077,6.431537,2.236419,3.020019,1.290388,8.682517,2.810361,1.076706,2.627348,1.307178,36.398434,4.307857,1.495586,1.762309,1.145576,34.684391,4.463005,1.473498,2.246077,1.194582,37.675129,3.820777,1.008572,2.337132,1.370056,6.340564,1.741199,0.914384,0.829598,0.588553,25.192545,3.199655,1.461390,2.149352,1.399243,50.571777,4.726605,2.293334,2.518985,1.991563,18.398767,11.009501,2.208220,2.665907,1.676491,40.265377,8.563354,2.576848,4.507111,2.139483,22.353619,3.317364,1.521001,2.356668,1.238175,28.786718,5.977282,2.109670,2.674062,1.409440
1739354337.917682,1739354337.918087,75.000000,0.000000,4170.512695,4195.000000,4233.333496,4258.974121,4187.692383,4196.538574,4215.000000,4223.589844,4185.256348,4242.179688,4372.820313,4478.333496,4305.000000,4344.615234,5410.000000,1.000000,18.000000,,,,0.000000,4.000000,4.000000,4.000000,4.000000,4.000000,4.000000,4.000000,4.000000,4.000000,4.000000,4.000000,4.000000,4.000000,4.000000,100.000000,,,,,,,,,,,,,,,,,,,,,,,,,,,,,,,,,,,,,,,,,,,,,,,,,,,,,,,,,,,,,,,,,,,,,,,,,,,,,,,,,,,,,,,,,,,,,,,,,,,,,,,,,,,,,,,,,,,,,,,,,,,,,,,,,
1739354337.925491,1739354337.925895,76.000000,0.000000,4171.153809,4191.538574,4241.025879,4263.205078,4193.589844,4198.589844,4221.922852,4229.487305,4179.230957,4235.128418,4370.384766,4486.025879,4295.128418,4347.948730,5591.000000,1.000000,18.000000,,,,0.000000,4.000000,4.000000,4.000000,4.000000,4.000000,4.000000,4.000000,4.000000,4.000000,4.000000,4.000000,4.000000,4.000000,4.000000,100.000000,,,,,,,,,,,,,,,,,19.000000,0.000000,0.258645,0.570374,-0.386902,0.676819,0.975217,-0.199731,0.058601,-39.492413,-26.408314,45.242264,,,,,,,,,,,,,,,,,,,,,,,,,,,,,,,,,,,,,,,,,,,,,,,,,,,,,,,,,,,,,,,,,,,,,,,,,,,,,,,,,,,,,,,,,,,,,,,,,,,,,
1739354337.933298,1739354337.933603,77.000000,0.000000,4174.871582,4188.589844,4246.794922,4261.153809,4199.102539,4191.153809,4217.820313,4227.820313,4173.974121,4232.563965,4370.256348,4491.922852,4300.256348,4350.897461,6685.000000,1.000000,18.000000,,,,0.000000,4.000000,4.000000,4.000000,4.000000,4.000000,4.000000,4.000000,4.000000,4.000000,4.000000,4.000000,4.000000,4.000000,4.000000,100.000000,,,,,,,,,,,,,,,,,,,,,,,,,,,,,,,,,,,,,,,,,,,,,,,,,,,,,,,,,,,,,,,,,,,,,,,,,,,,,,,,,,,,,,,,,,,,,,,,,,,,,,,,,,,,,,,,,,,,,,,,,,,,,,,,,
1739354337.941106,1739354337.941411,78.000000,0.000000,4169.487305,4183.077148,4235.256348,4249.871582,4185.384766,4182.563965,4203.974121,4225.256348,4168.077148,4230.384766,4372.563965,4482.179688,4311.666504,4346.794922,4989.000000,1.000000,18.000000,,,,0.000000,4.000000,4.000000,4.000000,4.000000,4.000000,4.000000,4.000000,4.000000,4.000000,4.000000,4.000000,4.000000,4.000000,4.000000,100.000000,,,,,,,,,,,,,,,,,,,,,,,,,,,,,,,,,,,,,,,,,,,,,,,,,,,,,,,,,,,,,,,,,,,,,,,,,,,,,,,,,,,,,,,,,,,,,,,,,,,,,,,,,,,,,,,,,,,,,,,,,,,,,,,,,
1739354337.948915,1739354337.949119,79.000000,0.000000,4167.948730,4169.358887,4230.897461,4243.846191,4178.077148,4185.641113,4209.615234,4232.179688,4169.871582,4238.717773,4378.461426,4478.205078,4316.282227,4348.846191,5410.000000,1.000000,18.000000,,,,0.000000,4.000000,4.000000,4.000000,4.000000,4.000000,4.000000,4.000000,4.000000,4.000000,4.000000,4.000000,4.000000,4.000000,4.000000,100.000000,,,,,,,,,,,,,,,,,,,,,,,,,,,,,,,,,,,,,,,,,,,,,,,,,,,,,,,,,,,,,,,,,,,,,,,,,,,,,,,,,,,,,,,,,,,,,,,,,,,,,,,,,,,,,,,,,,,,,,,,,,,,,,,,,
1739354337.956723,1739354337.957027,80.000000,0.000000,4169.615234,4159.102539,4240.000000,4241.794922,4178.717773,4185.384766,4220.384766,4236.922852,4175.128418,4247.436035,4379.230957,4483.461426,4316.153809,4352.563965,5591.000000,1.000000,18.000000,,,,0.000000,4.000000,4.000000,4.000000,4.000000,4.000000,4.000000,4.000000,4.000000,4.000000,4.000000,4.000000,4.000000,4.000000,4.000000,100.000000,,,,,,,,,,,,,,,,,20.000000,0.000000,0.259242,0.570496,-0.386536,0.676697,0.975217,-0.209498,0.050299,-39.643173,-26.434149,45.351372,,,,,,,,,,,,,,,,,,,,,,,,,,,,,,,,,,,,,,,,,,,,,,,,,,,,,,,,,,,,,,,,,,,,,,,,,,,,,,,,,,,,,,,,,,,,,,,,,,,,,
1739354337.964531,1739354337.964835,81.000000,0.000000,4155.256348,4150.641113,4231.922852,4228.077148,4162.820313,4167.820313,4203.205078,4230.512695,4166.153809,4235.256348,4367.436035,4474.871582,4309.871582,4343.461426,6685.000000,1.000000,18.000000,,,,0.000000,4.000000,4.000000,4.000000,4.000000,4.000000,4.000000,4.000000,4.000000,4.000000,4.000000,4.000000,4.000000,4.000000,4.000000,100.000000,,,,,,,,,,,,,,,,,,,,,,,,,,,,,,,,,,,,,,,,,,,,,,,,,,,,,,,,,,,,,,,,,,,,,,,,,,,,,,,,,,,,,,,,,,,,,,,,,,,,,,,,,,,,,,,,,,,,,,,,,,,,,,,,,
1739354337.972339,1739354337.972644,82.000000,0.000000,4140.384766,4139.102539,4214.358887,4213.717773,4148.974121,4153.589844,4181.538574,4224.487305,4151.922852,4221.410156,4357.692383,4458.461426,4298.589844,4330.128418,4989.000000,1.000000,18.000000,,,,0.000000,4.000000,4.000000,4.000000,4.000000,4.000000,4.000000,4.000000,4.000000,4.000000,4.000000,4.000000,4.000000,4.000000,4.000000,100.000000,,,,,,,,,,,,,,,,,,,,,,,,,,,,,,,,,,,,,,,,,,,,,,,,,,,,,,,,,,,,,,,,,,,,,,,,,,,,,,,,,,,,,,,,,,,,,,,,,,,,,,,,,,,,,,,,,,,,,,,,,,,,,,,,,
1739354337.980147,1739354337.980352,83.000000,0.000000,4146.410156,4137.179688,4213.974121,4220.512695,4154.102539,4157.820313,4184.358887,4225.000000,4150.512695,4224.871582,4362.692383,4458.974121,4299.871582,4328.974121,5410.000000,1.000000,18.000000,,,,0.000000,4.000000,4.000000,4.000000,4.000000,4.000000,4.000000,4.000000,4.000000,4.000000,4.000000,4.000000,4.000000,4.000000,4.000000,100.000000,,,,,,,,,,,,,,,,,,,,,,,,,,,,,,,,,,,,,,,,,,,,,,,,,,,,,,,,,,,,,,,,,,,,,,,,,,,,,,,,,,,,,,,,,,,,,,,,,,,,,,,,,,,,,,,,,,,,,,,,,,,,,,,,,
1739354337.987955,1739354337.988260,84.000000,0.000000,4153.589844,4143.077148,4220.897461,4233.846191,4154.358887,4157.948730,4183.974121,4224.743652,4150.769043,4224.230957,4360.641113,4461.282227,4307.307617,4333.846191,5591.000000,1.000000,18.000000,,,,0.000000,4.000000,4.000000,4.000000,4.000000,4.000000,4.000000,4.000000,4.000000,4.000000,4.000000,4.000000,4.000000,4.000000,4.000000,100.000000,,,,,,,,,,,,,,,,,21.000000,0.000000,0.259262,0.570435,-0.386292,0.676880,0.992309,-0.220242,0.060554,-39.645519,-26.540733,45.332901,,,,,,,,,,,,,,,,,,,,,,,,,,,,,,,,,,,,,,,,,,,,,,,,,,,,,,,,,,,,,,,,,,,,,,,,,,,,,,,,,,,,,,,,,,,,,,,,,,,,,
1739354337.995763,1739354337.996068,85.000000,0.000000,4145.000000,4139.102539,4217.948730,4227.051270,4140.897461,4141.666504,4169.230957,4217.948730,4140.384766,4215.000000,4347.563965,4451.538574,4296.538574,4330.000000,6685.000000,1.000000,18.000000,,,,0.000000,4.000000,4.000000,4.000000,4.000000,4.000000,4.000000,4.000000,4.000000,4.000000,4.000000,4.000000,4.000000,4.000000,4.000000,100.000000,,,,,,,,,,,,,,,,,,,,,,,,,,,,,,,,,,,,,,,,,,,,,,,,,,,,,,,,,,,,,,,,,,,,,,,,,,,,,,,,,,,,,,,,,,,,,,,,,,,,,,,,,,,,,,,,,,,,,,,,,,,,,,,,,
1739354338.003571,1739354338.003976,86.000000,0.000000,4139.871582,4133.846191,4215.512695,4215.256348,4136.025879,4134.487305,4164.871582,4214.871582,4133.589844,4211.922852,4346.410156,4447.179688,4289.487305,4324.102539,4989.000000,1.000000,18.000000,,,,0.000000,4.000000,4.000000,4.000000,4.000000,4.000000,4.000000,4.000000,4.000000,4.000000,4.000000,4.000000,4.000000,4.000000,4.000000,100.000000,,,,,,,,,,,,,,,,,,,,,,,,,,,,,,,,,,,,,,,,,,,,,,,,,,,,,,,,,,,,,,,,,,,,,,,,,,,,,,,,,,,,,,,,,,,,,,,,,,,,,,,,,,,,,,,,,,,,,,,,,,,,,,,,,
1739354338.011379,1739354338.011784,87.000000,0.000000,4145.641113,4135.256348,4216.282227,4220.256348,4141.025879,4139.871582,4165.256348,4215.641113,4130.641113,4206.282227,4348.333496,4447.179688,4296.282227,4322.051270,5410.000000,1.000000,18.000000,,,,0.000000,4.000000,4.000000,4.000000,4.000000,4.000000,4.000000,4.000000,4.000000,4.000000,4.000000,4.000000,4.000000,4.000000,4.000000,100.000000,,,,,,,,,,,,,,,,,,,,,,,,,,,,,,,,,,,,,,,,,,,,,,,,,,,,,,,,,,,,,,,,,,,,,,,,,,,,,,,,,,,,,,,,,,,,,,,,,,,,,,,,,,,,,,,,,,,,,,,,,,,,,,,,,
1739354338.019187,1739354338.019692,88.000000,0.000000,4148.205078,4136.410156,4215.769043,4230.641113,4138.333496,4137.179688,4160.897461,4214.102539,4125.256348,4200.769043,4345.769043,4448.205078,4295.256348,4322.179688,5591.000000,1.000000,18.000000,,,,0.000000,4.000000,4.000000,4.000000,4.000000,4.000000,4.000000,4.000000,4.000000,4.000000,4.000000,4.000000,4.000000,4.000000,4.000000,100.000000,,,,,,,,,,,,,,,,,22.000000,0.000000,0.259882,0.570068,-0.385559,0.677368,1.007447,-0.219753,0.057624,-39.597637,-26.453327,45.299610,,,,,,,,,,,,,,,,,,,,,,,,,,,,,,,,,,,,,,,,,,,,,,,,,,,,,,,,,,,,,,,,,,,,,,,,,,,,,,,,,,,,,,,,,,,,,,,,,,,,,
1739354338.026995,1739354338.027501,89.000000,0.000000,4151.794922,4140.000000,4221.410156,4236.794922,4137.563965,4134.102539,4164.743652,4216.282227,4128.717773,4203.717773,4352.179688,4453.974121,4294.230957,4330.512695,6685.000000,1.000000,18.000000,,,,0.000000,4.000000,4.000000,4.000000,4.000000,4.000000,4.000000,4.000000,4.000000,4.000000,4.000000,4.000000,4.000000,4.000000,4.000000,100.000000,,,,,,,,,,,,,,,,,,,,,,,,,,,,,,,,,,,,,,,,,,,,,,,,,,,,,,,,,,,,,,,,,,,,,,,,,,,,,,,,,,,,,,,,,,,,,,,,,,,,,,,,,,,,,,,,,,,,,,,,,,,,,,,,,
1739354338.034804,1739354338.035409,90.000000,0.000000,4153.205078,4140.641113,4222.948730,4235.512695,4141.922852,4138.077148,4169.615234,4217.307617,4131.410156,4202.692383,4354.871582,4449.743652,4295.128418,4330.256348,4989.000000,1.000000,18.000000,,,,0.000000,4.000000,4.000000,4.000000,4.000000,4.000000,4.000000,4.000000,4.000000,4.000000,4.000000,4.000000,4.000000,4.000000,4.000000,100.000000,,,,,,,,,,,,,,,,,,,,,,,,,,,,,,,,,,,,,,,,,,,,,,,,,,,,,,,,,,,,27.703705,3.929704,1.527300,2.922544,1.472588,27.298119,4.207780,1.263592,2.172377,1.550058,21.127794,5.205250,1.584276,2.855695,1.382481,5.751730,2.109511,0.710091,2.559433,1.413663,25.728930,2.927826,1.024993,1.555908,1.174335,23.668243,3.144718,0.914719,2.104870,1.250624,27.074394,2.639978,0.682229,2.124610,1.434894,4.676884,1.494587,0.891259,0.740670,0.612743,18.138887,2.417808,1.334489,1.984460,1.454200,36.427547,3.664194,2.005110,2.233798,2.073040,14.298142,7.437907,1.431734,2.485771,1.711608,27.724033,6.653367,1.911271,4.159222,2.240010,15.712099,3.287250,1.131007,2.128520,1.317939,19.732456,5.444204,1.546305,2.483713,1.485349
1739354338.042611,1739354338.043217,91.000000,0.000000,4146.666504,4137.820313,4216.794922,4230.384766,4140.641113,4139.487305,4165.000000,4215.512695,4125.897461,4198.333496,4347.436035,4440.769043,4292.692383,4321.153809,5410.000000,1.000000,18.000000,,,,0.000000,4.000000,4.000000,4.000000,4.000000,4.000000,4.000000,4.000000,4.000000,4.000000,4.000000,4.000000,4.000000,4.000000,4.000000,100.000000,,,,,,,,,,,,,,,,,,,,,,,,,,,,,,,,,,,,,,,,,,,,,,,,,,,,,,,,,,,,,,,,,,,,,,,,,,,,,,,,,,,,,,,,,,,,,,,,,,,,,,,,,,,,,,,,,,,,,,,,,,,,,,,,,
1739354338.050420,1739354338.051124,92.000000,0.000000,4147.820313,4138.974121,4216.794922,4232.307617,4139.230957,4138.077148,4162.179688,4218.461426,4125.384766,4203.461426,4347.051270,4445.128418,4293.846191,4325.128418,5591.000000,1.000000,18.000000,,,,0.000000,4.000000,4.000000,4.000000,4.000000,4.000000,4.000000,4.000000,4.000000,4.000000,4.000000,4.000000,4.000000,4.000000,4.000000,100.000000,,,,,,,,,,,,,,,,,23.000000,0.000000,0.260793,0.569702,-0.384949,0.677673,0.992797,-0.214382,0.062508,-39.571205,-26.391329,45.369648,,,,,,,,,,,,,,,,,,,,,,,,,,,,,,,,,,,,,,,,,,,,,,,,,,,,,,,,,,,,,,,,,,,,,,,,,,,,,,,,,,,,,,,,,,,,,,,,,,,,,
1739354338.058228,1739354338.058932,93.000000,0.000000,4152.179688,4138.205078,4220.000000,4230.128418,4140.641113,4136.666504,4161.153809,4214.102539,4123.077148,4202.307617,4350.128418,4444.358887,4293.077148,4331.282227,6685.000000,1.000000,18.000000,,,,0.000000,4.000000,4.000000,4.000000,4.000000,4.000000,4.000000,4.000000,4.000000,4.000000,4.000000,4.000000,4.000000,4.000000,4.000000,100.000000,,,,,,,,,,,,,,,,,,,,,,,,,,,,,,,,,,,,,,,,,,,,,,,,,,,,,,,,,,,,,,,,,,,,,,,,,,,,,,,,,,,,,,,,,,,,,,,,,,,,,,,,,,,,,,,,,,,,,,,,,,,,,,,,,
1739354338.066036,1739354338.066740,94.000000,0.000000,4151.410156,4141.153809,4222.692383,4226.922852,4146.025879,4141.922852,4161.538574,4212.692383,4117.820313,4196.282227,4352.563965,4442.820313,4290.256348,4331.666504,4989.000000,1.000000,18.000000,,,,0.000000,4.000000,4.000000,4.000000,4.000000,4.000000,4.000000,4.000000,4.000000,4.000000,4.000000,4.000000,4.000000,4.000000,4.000000,100.000000,,,,,,,,,,,,,,,,,,,,,,,,,,,,,,,,,,,,,,,,,,,,,,,,,,,,,,,,,,,,,,,,,,,,,,,,,,,,,,,,,,,,,,,,,,,,,,,,,,,,,,,,,,,,,,,,,,,,,,,,,,,,,,,,,
1739354338.073844,1739354338.074548,95.000000,0.000000,4160.128418,4155.128418,4234.615234,4236.794922,4155.256348,4152.563965,4169.487305,4227.820313,4128.589844,4205.897461,4362.179688,4460.897461,4299.230957,4342.820313,5410.000000,1.000000,18.000000,,,,0.000000,4.000000,4.000000,4.000000,4.000000,4.000000,4.000000,4.000000,4.000000,4.000000,4.000000,4.000000,4.000000,4.000000,4.000000,100.000000,,,,,,,,,,,,,,,,,,,,,,,,,,,,,,,,,,,,,,,,,,,,,,,,,,,,,,,,,,,,,,,,,,,,,,,,,,,,,,,,,,,,,,,,,,,,,,,,,,,,,,,,,,,,,,,,,,,,,,,,,,,,,,,,,
1739354338.081652,1739354338.082256,96.000000,0.000000,4168.974121,4162.692383,4240.256348,4244.487305,4159.743652,4154.615234,4174.615234,4234.487305,4137.948730,4214.871582,4370.384766,4467.436035,4309.358887,4349.102539,5591.000000,1.000000,18.000000,,,,0.000000,4.000000,4.000000,4.000000,4.000000,4.000000,4.000000,4.000000,4.000000,4.000000,4.000000,4.000000,4.000000,4.000000,4.000000,100.000000,,,,,,,,,,,,,,,,,24.000000,0.000000,0.261767,0.569214,-0.385010,0.677673,0.966915,-0.206080,0.049322,-39.430752,-26.452194,45.416019,,,,,,,,,,,,,,,,,,,,,,,,,,,,,,,,,,,,,,,,,,,,,,,,,,,,,,,,,,,,,,,,,,,,,,,,,,,,,,,,,,,,,,,,,,,,,,,,,,,,,
1739354338.089460,1739354338.090064,97.000000,0.000000,4154.743652,4151.282227,4223.974121,4233.589844,4152.179688,4149.230957,4165.384766,4222.051270,4126.282227,4206.794922,4364.358887,4447.436035,4299.615234,4332.692383,6685.000000,1.000000,18.000000,,,,0.000000,4.000000,4.000000,4.000000,4.000000,4.000000,4.000000,4.000000,4.000000,4.000000,4.000000,4.000000,4.000000,4.000000,4.000000,100.000000,,,,,,,,,,,,,,,,,,,,,,,,,,,,,,,,,,,,,,,,,,,,,,,,,,,,,,,,,,,,,,,,,,,,,,,,,,,,,,,,,,,,,,,,,,,,,,,,,,,,,,,,,,,,,,,,,,,,,,,,,,,,,,,,,
1739354338.097268,1739354338.097772,98.000000,0.000000,4133.717773,4138.717773,4211.282227,4217.948730,4142.436035,4148.974121,4153.589844,4215.128418,4117.307617,4195.256348,4353.589844,4428.717773,4287.436035,4317.948730,4989.000000,1.000000,18.000000,,,,0.000000,4.000000,4.000000,4.000000,4.000000,4.000000,4.000000,4.000000,4.000000,4.000000,4.000000,4.000000,4.000000,4.000000,4.000000,100.000000,,,,,,,,,,,,,,,,,,,,,,,,,,,,,,,,,,,,,,,,,,,,,,,,,,,,,,,,,,,,,,,,,,,,,,,,,,,,,,,,,,,,,,,,,,,,,,,,,,,,,,,,,,,,,,,,,,,,,,,,,,,,,,,,,
1739354338.105076,1739354338.105580,99.000000,0.000000,4133.333496,4137.948730,4214.230957,4217.051270,4144.230957,4151.538574,4156.922852,4215.897461,4120.641113,4190.256348,4355.512695,4426.282227,4287.563965,4318.589844,5410.000000,1.000000,18.000000,,,,0.000000,4.000000,4.000000,4.000000,4.000000,4.000000,4.000000,4.000000,4.000000,4.000000,4.000000,4.000000,4.000000,4.000000,4.000000,100.000000,,,,,,,,,,,,,,,,,,,,,,,,,,,,,,,,,,,,,,,,,,,,,,,,,,,,,,,,,,,,,,,,,,,,,,,,,,,,,,,,,,,,,,,,,,,,,,,,,,,,,,,,,,,,,,,,,,,,,,,,,,,,,,,,,
1739354338.112884,1739354338.113288,100.000000,0.000000,4144.487305,4143.589844,4217.179688,4225.641113,4152.179688,4153.717773,4170.000000,4213.461426,4121.025879,4192.948730,4371.282227,4434.743652,4291.153809,4323.077148,5591.000000,1.000000,18.000000,,,,0.000000,4.000000,4.000000,4.000000,4.000000,4.000000,4.000000,4.000000,4.000000,4.000000,4.000000,4.000000,4.000000,4.000000,4.000000,100.000000,,,,,,,,,,,,,,,,,25.000000,0.000000,0.262685,0.568481,-0.385681,0.677551,0.946893,-0.201196,0.045416,-39.487675,-26.373642,45.407749,,,,,,,,,,,,,,,,,,,,,,,,,,,,,,,,,,,,,,,,,,,,,,,,,,,,,,,,,,,,,,,,,,,,,,,,,,,,,,,,,,,,,,,,,,,,,,,,,,,,,
1739354338.120692,1739354338.121096,101.000000,0.000000,4151.794922,4150.512695,4217.948730,4232.307617,4155.128418,4154.871582,4174.230957,4213.589844,4126.282227,4207.948730,4389.487305,4444.102539,4297.563965,4328.589844,6685.000000,1.000000,18.000000,,,,0.000000,4.000000,4.000000,4.000000,4.000000,4.000000,4.000000,4.000000,4.000000,4.000000,4.000000,4.000000,4.000000,4.000000,4.000000,100.000000,,,,,,,,,,,,,,,,,,,,,,,,,,,,,,,,,,,,,,,,,,,,,,,,,,,,,,,,,,,,,,,,,,,,,,,,,,,,,,,,,,,,,,,,,,,,,,,,,,,,,,,,,,,,,,,,,,,,,,,,,,,,,,,,,
1739354338.128500,1739354338.128804,102.000000,0.000000,4152.692383,4154.102539,4220.897461,4233.205078,4153.846191,4156.410156,4171.025879,4213.077148,4138.974121,4218.461426,4397.820313,4445.000000,4301.538574,4332.820313,4989.000000,1.000000,18.000000,,,,0.000000,4.000000,4.000000,4.000000,4.000000,4.000000,4.000000,4.000000,4.000000,4.000000,4.000000,4.000000,4.000000,4.000000,4.000000,100.000000,,,,,,,,,,,,,,,,,,,,,,,,,,,,,,,,,,,,,,,,,,,,,,,,,,,,,,,,,,,,,,,,,,,,,,,,,,,,,,,,,,,,,,,,,,,,,,,,,,,,,,,,,,,,,,,,,,,,,,,,,,,,,,,,,
1739354338.136309,1739354338.136612,103.000000,0.000000,4153.974121,4154.743652,4221.666504,4232.563965,4158.077148,4164.487305,4179.487305,4212.820313,4139.102539,4217.692383,4398.974121,4445.769043,4298.333496,4338.461426,5410.000000,1.000000,18.000000,,,,0.000000,4.000000,4.000000,4.000000,4.000000,4.000000,4.000000,4.000000,4.000000,4.000000,4.000000,4.000000,4.000000,4.000000,4.000000,100.000000,,,,,,,,,,,,,,,,,,,,,,,,,,,,,,,,,,,,,,,,,,,,,,,,,,,,,,,,,,,,,,,,,,,,,,,,,,,,,,,,,,,,,,,,,,,,,,,,,,,,,,,,,,,,,,,,,,,,,,,,,,,,,,,,,
1739354338.144117,1739354338.144321,104.000000,0.000000,4152.436035,4150.769043,4217.051270,4232.307617,4162.051270,4168.461426,4186.025879,4212.179688,4126.282227,4213.461426,4392.436035,4444.230957,4290.256348,4339.487305,5591.000000,1.000000,18.000000,,,,0.000000,4.000000,4.000000,4.000000,4.000000,4.000000,4.000000,4.000000,4.000000,4.000000,4.000000,4.000000,4.000000,4.000000,4.000000,100.000000,,,,,,,,,,,,,,,,,26.000000,0.000000,0.264038,0.567200,-0.386536,0.677612,0.958613,-0.205591,0.062019,-39.388908,-26.286278,45.416973,,,,,,,,,,,,,,,,,,,,,,,,,,,,,,,,,,,,,,,,,,,,,,,,,,,,,,,,,,,,,,,,,,,,,,,,,,,,,,,,,,,,,,,,,,,,,,,,,,,,,
1739354338.151925,1739354338.152129,105.000000,0.000000,4143.461426,4143.333496,4212.820313,4225.897461,4157.307617,4161.025879,4174.871582,4206.153809,4120.512695,4206.410156,4384.358887,4435.897461,4285.641113,4332.307617,6685.000000,1.000000,18.000000,,,,0.000000,4.000000,4.000000,4.000000,4.000000,4.000000,4.000000,4.000000,4.000000,4.000000,4.000000,4.000000,4.000000,4.000000,4.000000,100.000000,,,,,,,,,,,,,,,,,,,,,,,,,,,,,,,,,,,,,,,,,,,,,,,,,,,,,,,,,,,,,,,,,,,,,,,,,,,,,,,,,,,,,,,,,,,,,,,,,,,,,,,,,,,,,,,,,,,,,,,,,,,,,,,,,
1739354338.159733,1739354338.159837,106.000000,0.000000,4145.769043,4147.436035,4221.282227,4231.153809,4154.358887,4155.000000,4166.025879,4207.307617,4129.487305,4206.794922,4390.769043,4442.948730,4293.589844,4339.871582,4989.000000,1.000000,18.000000,,,,0.000000,4.000000,4.000000,4.000000,4.000000,4.000000,4.000000,4.000000,4.000000,4.000000,4.000000,4.000000,4.000000,4.000000,4.000000,100.000000,,,,,,,,,,,,,,,,,,,,,,,,,,,,,,,,,,,,,,,,,,,,,,,,,,,,,,,,,,,,17.994663,3.230273,1.176361,2.581351,1.469649,18.694876,3.277831,1.023505,1.898994,1.536104,13.028811,4.303205,1.209688,2.468833,1.395376,4.188763,1.642868,0.554154,2.256522,1.433863,15.986504,1.912701,0.827352,1.263274,1.115780,14.077410,2.152630,0.613744,1.805710,1.225057,17.572214,1.763753,0.543367,1.763545,1.403985,3.358695,1.303865,0.878853,0.616081,0.604312,11.790336,2.001493,1.489722,1.680291,1.414982,23.906900,3.048028,2.074544,1.826265,2.015502,13.281517,4.955128,1.186080,2.163049,1.675938,18.926613,5.310887,1.573393,3.527320,2.208275,9.927382,3.460106,0.946218,1.784598,1.321130,12.031940,5.179830,1.282808,2.113894,1.460413
1739354338.167541,1739354338.167645,107.000000,0.000000,4162.051270,4161.410156,4234.487305,4245.128418,4160.769043,4156.538574,4167.692383,4214.615234,4135.897461,4218.461426,4401.794922,4461.794922,4305.641113,4358.846191,5410.000000,1.000000,18.000000,,,,0.000000,4.000000,4.000000,4.000000,4.000000,4.000000,4.000000,4.000000,4.000000,4.000000,4.000000,4.000000,4.000000,4.000000,4.000000,100.000000,,,,,,,,,,,,,,,,,,,,,,,,,,,,,,,,,,,,,,,,,,,,,,,,,,,,,,,,,,,,,,,,,,,,,,,,,,,,,,,,,,,,,,,,,,,,,,,,,,,,,,,,,,,,,,,,,,,,,,,,,,,,,,,,,
1739354338.175349,1739354338.175353,108.000000,0.000000,4171.282227,4165.512695,4237.051270,4250.256348,4169.102539,4162.307617,4167.820313,4216.666504,4137.436035,4227.948730,4402.948730,4466.282227,4309.743652,4363.589844,5591.000000,1.000000,18.000000,,,,0.000000,4.000000,4.000000,4.000000,4.000000,4.000000,4.000000,4.000000,4.000000,4.000000,4.000000,4.000000,4.000000,4.000000,4.000000,100.000000,,,,,,,,,,,,,,,,,27.000000,0.000000,0.264916,0.565674,-0.387207,0.678162,0.985960,-0.225125,0.069344,-39.400017,-26.257650,45.541943,,,,,,,,,,,,,,,,,,,,,,,,,,,,,,,,,,,,,,,,,,,,,,,,,,,,,,,,,,,,,,,,,,,,,,,,,,,,,,,,,,,,,,,,,,,,,,,,,,,,,
1739354338.183157,1739354338.183261,109.000000,0.000000,4166.153809,4159.871582,4232.436035,4246.025879,4170.769043,4167.948730,4167.436035,4215.769043,4138.205078,4225.000000,4394.615234,4457.051270,4306.410156,4358.333496,6685.000000,1.000000,18.000000,,,,0.000000,4.000000,4.000000,4.000000,4.000000,4.000000,4.000000,4.000000,4.000000,4.000000,4.000000,4.000000,4.000000,4.000000,4.000000,100.000000,,,,,,,,,,,,,,,,,,,,,,,,,,,,,,,,,,,,,,,,,,,,,,,,,,,,,,,,,,,,,,,,,,,,,,,,,,,,,,,,,,,,,,,,,,,,,,,,,,,,,,,,,,,,,,,,,,,,,,,,,,,,,,,,,
1739354338.190965,1739354338.191069,110.000000,0.000000,4156.025879,4156.410156,4227.051270,4237.563965,4167.436035,4169.102539,4170.512695,4213.846191,4128.461426,4216.794922,4384.871582,4448.461426,4301.538574,4354.358887,4989.000000,1.000000,18.000000,,,,0.000000,4.000000,4.000000,4.000000,4.000000,4.000000,4.000000,4.000000,4.000000,4.000000,4.000000,4.000000,4.000000,4.000000,4.000000,100.000000,,,,,,,,,,,,,,,,,,,,,,,,,,,,,,,,,,,,,,,,,,,,,,,,,,,,,,,,,,,,,,,,,,,,,,,,,,,,,,,,,,,,,,,,,,,,,,,,,,,,,,,,,,,,,,,,,,,,,,,,,,,,,,,,,
1739354338.198773,1739354338.198977,111.000000,0.000000,4152.179688,4153.077148,4218.974121,4233.846191,4166.025879,4167.179688,4168.333496,4210.512695,4118.461426,4211.282227,4378.589844,4443.846191,4295.128418,4345.256348,5410.000000,1.000000,18.000000,,,,0.000000,4.000000,4.000000,4.000000,4.000000,4.000000,4.000000,4.000000,4.000000,4.000000,4.000000,4.000000,4.000000,4.000000,4.000000,100.000000,,,,,,,,,,,,,,,,,,,,,,,,,,,,,,,,,,,,,,,,,,,,,,,,,,,,,,,,,,,,,,,,,,,,,,,,,,,,,,,,,,,,,,,,,,,,,,,,,,,,,,,,,,,,,,,,,,,,,,,,,,,,,,,,,
1739354338.206581,1739354338.206785,112.000000,0.000000,4152.436035,4148.846191,4215.000000,4231.922852,4167.179688,4167.179688,4169.871582,4211.922852,4125.769043,4212.436035,4378.461426,4441.282227,4291.282227,4339.102539,5591.000000,1.000000,18.000000,,,,0.000000,4.000000,4.000000,4.000000,4.000000,4.000000,4.000000,4.000000,4.000000,4.000000,4.000000,4.000000,4.000000,4.000000,4.000000,100.000000,,,,,,,,,,,,,,,,,28.000000,0.000000,0.265211,0.565002,-0.387451,0.678467,0.977170,-0.207057,0.078623,-39.426682,-26.265219,45.587749,,,,,,,,,,,,,,,,,,,,,,,,,,,,,,,,,,,,,,,,,,,,,,,,,,,,,,,,,,,,,,,,,,,,,,,,,,,,,,,,,,,,,,,,,,,,,,,,,,,,,
1739354338.214389,1739354338.214693,113.000000,0.000000,4153.589844,4149.743652,4222.563965,4231.666504,4167.563965,4170.641113,4177.436035,4217.563965,4140.384766,4223.077148,4381.153809,4449.102539,4299.358887,4347.436035,6685.000000,1.000000,18.000000,,,,0.000000,4.000000,4.000000,4.000000,4.000000,4.000000,4.000000,4.000000,4.000000,4.000000,4.000000,4.000000,4.000000,4.000000,4.000000,100.000000,,,,,,,,,,,,,,,,,,,,,,,,,,,,,,,,,,,,,,,,,,,,,,,,,,,,,,,,,,,,,,,,,,,,,,,,,,,,,,,,,,,,,,,,,,,,,,,,,,,,,,,,,,,,,,,,,,,,,,,,,,,,,,,,,
1739354338.222197,1739354338.222502,114.000000,0.000000,4161.538574,4153.846191,4230.384766,4239.102539,4171.666504,4174.615234,4177.820313,4217.179688,4149.358887,4231.666504,4380.256348,4458.205078,4307.692383,4355.512695,4989.000000,1.000000,18.000000,,,,0.000000,4.000000,4.000000,4.000000,4.000000,4.000000,4.000000,4.000000,4.000000,4.000000,4.000000,4.000000,4.000000,4.000000,4.000000,100.000000,,,,,,,,,,,,,,,,,,,,,,,,,,,,,,,,,,,,,,,,,,,,,,,,,,,,,,,,,,,,,,,,,,,,,,,,,,,,,,,,,,,,,,,,,,,,,,,,,,,,,,,,,,,,,,,,,,,,,,,,,,,,,,,,,
1739354338.230005,1739354338.230410,115.000000,0.000000,4171.025879,4158.846191,4230.769043,4248.974121,4181.025879,4173.333496,4175.512695,4211.794922,4153.717773,4233.974121,4380.128418,4453.461426,4304.615234,4355.769043,5410.000000,1.000000,18.000000,,,,0.000000,4.000000,4.000000,4.000000,4.000000,4.000000,4.000000,4.000000,4.000000,4.000000,4.000000,4.000000,4.000000,4.000000,4.000000,100.000000,,,,,,,,,,,,,,,,,,,,,,,,,,,,,,,,,,,,,,,,,,,,,,,,,,,,,,,,,,,,,,,,,,,,,,,,,,,,,,,,,,,,,,,,,,,,,,,,,,,,,,,,,,,,,,,,,,,,,,,,,,,,,,,,,
1739354338.237814,1739354338.238218,116.000000,0.000000,4170.512695,4162.307617,4230.256348,4247.436035,4184.230957,4170.769043,4180.128418,4209.615234,4155.128418,4238.077148,4379.871582,4447.307617,4301.666504,4356.794922,5591.000000,1.000000,18.000000,,,,0.000000,4.000000,4.000000,4.000000,4.000000,4.000000,4.000000,4.000000,4.000000,4.000000,4.000000,4.000000,4.000000,4.000000,4.000000,100.000000,,,,,,,,,,,,,,,,,29.000000,0.000000,0.265348,0.564026,-0.387817,0.679016,0.995239,-0.213405,0.070321,-39.334015,-26.438696,45.628975,,,,,,,,,,,,,,,,,,,,,,,,,,,,,,,,,,,,,,,,,,,,,,,,,,,,,,,,,,,,,,,,,,,,,,,,,,,,,,,,,,,,,,,,,,,,,,,,,,,,,
1739354338.245622,1739354338.246126,117.000000,0.000000,4175.000000,4166.410156,4232.307617,4247.307617,4183.846191,4179.615234,4186.153809,4214.487305,4158.974121,4245.897461,4381.282227,4456.922852,4307.563965,4362.820313,6685.000000,1.000000,18.000000,,,,0.000000,4.000000,4.000000,4.000000,4.000000,4.000000,4.000000,4.000000,4.000000,4.000000,4.000000,4.000000,4.000000,4.000000,4.000000,100.000000,,,,,,,,,,,,,,,,,,,,,,,,,,,,,,,,,,,,,,,,,,,,,,,,,,,,,,,,,,,,,,,,,,,,,,,,,,,,,,,,,,,,,,,,,,,,,,,,,,,,,,,,,,,,,,,,,,,,,,,,,,,,,,,,,
1739354338.253430,1739354338.253934,118.000000,0.000000,4187.179688,4177.563965,4234.615234,4259.743652,4186.666504,4188.205078,4186.410156,4216.025879,4165.512695,4247.692383,4389.615234,4463.077148,4311.153809,4366.922852,4989.000000,1.000000,18.000000,,,,0.000000,4.000000,4.000000,4.000000,4.000000,4.000000,4.000000,4.000000,4.000000,4.000000,4.000000,4.000000,4.000000,4.000000,4.000000,100.000000,,,,,,,,,,,,,,,,,,,,,,,,,,,,,,,,,,,,,,,,,,,,,,,,,,,,,,,,,,,,,,,,,,,,,,,,,,,,,,,,,,,,,,,,,,,,,,,,,,,,,,,,,,,,,,,,,,,,,,,,,,,,,,,,,
1739354338.261238,1739354338.261842,119.000000,0.000000,4190.128418,4185.384766,4238.974121,4265.128418,4186.922852,4184.871582,4183.461426,4213.461426,4167.307617,4252.820313,4392.051270,4458.461426,4312.179688,4370.641113,5410.000000,1.000000,18.000000,,,,0.000000,4.000000,4.000000,4.000000,4.000000,4.000000,4.000000,4.000000,4.000000,4.000000,4.000000,4.000000,4.000000,4.000000,4.000000,100.000000,,,,,,,,,,,,,,,,,,,,,,,,,,,,,,,,,,,,,,,,,,,,,,,,,,,,,,,,,,,,,,,,,,,,,,,,,,,,,,,,,,,,,,,,,,,,,,,,,,,,,,,,,,,,,,,,,,,,,,,,,,,,,,,,,
1739354338.269046,1739354338.269650,120.000000,0.000000,4188.461426,4179.102539,4243.846191,4262.563965,4185.512695,4180.897461,4182.179688,4218.205078,4167.436035,4263.077148,4383.077148,4460.897461,4317.563965,4374.615234,5591.000000,1.000000,18.000000,,,,0.000000,4.000000,4.000000,4.000000,4.000000,4.000000,4.000000,4.000000,4.000000,4.000000,4.000000,4.000000,4.000000,4.000000,4.000000,100.000000,,,,,,,,,,,,,,,,,30.000000,0.000000,0.265006,0.563293,-0.387939,0.679688,0.979612,-0.231474,0.070321,-39.317280,-26.494827,45.682743,,,,,,,,,,,,,,,,,,,,,,,,,,,,,,,,,,,,,,,,,,,,,,,,,,,,,,,,,,,,,,,,,,,,,,,,,,,,,,,,,,,,,,,,,,,,,,,,,,,,,
1739354338.276854,1739354338.277557,121.000000,0.000000,4187.692383,4169.487305,4237.051270,4257.307617,4186.666504,4181.922852,4181.410156,4222.563965,4167.820313,4260.256348,4379.487305,4459.102539,4316.410156,4367.436035,6685.000000,1.000000,18.000000,,,,0.000000,4.000000,4.000000,4.000000,4.000000,4.000000,4.000000,4.000000,4.000000,4.000000,4.000000,4.000000,4.000000,4.000000,4.000000,100.000000,,,,,,,,,,,,,,,,,,,,,,,,,,,,,,,,,,,,,,,,,,,,,,,,,,,,,,,,,,,,,,,,,,,,,,,,,,,,,,,,,,,,,,,,,,,,,,,,,,,,,,,,,,,,,,,,,,,,,,,,,,,,,,,,,
1739354338.284662,1739354338.285365,122.000000,0.000000,4178.717773,4169.871582,4222.692383,4248.846191,4183.589844,4180.769043,4177.307617,4218.717773,4167.692383,4252.051270,4378.846191,4442.563965,4304.230957,4353.461426,4989.000000,1.000000,18.000000,,,,0.000000,4.000000,4.000000,4.000000,4.000000,4.000000,4.000000,4.000000,4.000000,4.000000,4.000000,4.000000,4.000000,4.000000,4.000000,100.000000,,,,,,,,,,,,,,,,,,,,,,,,,,,,,,,,,,,,,,,,,,,,,,,,,,,,,,,,,,,,10.149685,2.816583,1.007193,2.119748,1.381894,11.197865,2.703531,0.899391,1.555936,1.413264,7.207742,3.728552,1.014223,1.969970,1.325256,2.314028,1.362182,0.473942,1.813730,1.364357,8.212348,1.327795,0.785781,0.948639,0.990127,6.665456,1.557276,0.514168,1.427177,1.129183,9.734056,1.243824,0.540982,1.341098,1.287866,2.372151,1.195889,0.879324,0.485922,0.566168,6.813861,1.922120,1.765037,1.324667,1.295304,13.089084,2.853929,2.316308,1.403705,1.837856,12.125170,3.913349,1.330025,1.799438,1.571708,12.455050,4.559527,1.439226,2.790297,2.048874,5.632831,3.679134,0.901083,1.426322,1.243953,6.714525,5.083977,1.178626,1.679615,1.340687
1739354338.292470,1739354338.293073,123.000000,0.000000,4166.282227,4169.358887,4212.692383,4242.820313,4177.692383,4176.922852,4169.615234,4214.230957,4166.666504,4249.230957,4364.102539,4425.897461,4296.282227,4344.743652,5410.000000,1.000000,18.000000,,,,0.000000,4.000000,4.000000,4.000000,4.000000,4.000000,4.000000,4.000000,4.000000,4.000000,4.000000,4.000000,4.000000,4.000000,4.000000,100.000000,,,,,,,,,,,,,,,,,,,,,,,,,,,,,,,,,,,,,,,,,,,,,,,,,,,,,,,,,,,,,,,,,,,,,,,,,,,,,,,,,,,,,,,,,,,,,,,,,,,,,,,,,,,,,,,,,,,,,,,,,,,,,,,,,
1739354338.300278,1739354338.300881,124.000000,0.000000,4166.794922,4166.153809,4213.717773,4245.769043,4181.410156,4181.410156,4174.487305,4213.974121,4165.769043,4249.487305,4359.615234,4425.769043,4300.128418,4346.538574,5591.000000,1.000000,18.000000,,,,0.000000,4.000000,4.000000,4.000000,4.000000,4.000000,4.000000,4.000000,4.000000,4.000000,4.000000,4.000000,4.000000,4.000000,4.000000,100.000000,,,,,,,,,,,,,,,,,31.000000,0.000000,0.264948,0.562805,-0.387939,0.680115,0.969357,-0.232939,0.071786,-39.385551,-26.628677,45.647804,,,,,,,,,,,,,,,,,,,,,,,,,,,,,,,,,,,,,,,,,,,,,,,,,,,,,,,,,,,,,,,,,,,,,,,,,,,,,,,,,,,,,,,,,,,,,,,,,,,,,
1739354338.308086,1739354338.308590,125.000000,0.000000,4180.128418,4173.461426,4223.205078,4254.615234,4195.256348,4194.743652,4191.538574,4213.717773,4168.077148,4254.743652,4376.025879,4438.974121,4307.051270,4354.230957,6685.000000,1.000000,18.000000,,,,0.000000,4.000000,4.000000,4.000000,4.000000,4.000000,4.000000,4.000000,4.000000,4.000000,4.000000,4.000000,4.000000,4.000000,4.000000,100.000000,,,,,,,,,,,,,,,,,,,,,,,,,,,,,,,,,,,,,,,,,,,,,,,,,,,,,,,,,,,,,,,,,,,,,,,,,,,,,,,,,,,,,,,,,,,,,,,,,,,,,,,,,,,,,,,,,,,,,,,,,,,,,,,,,
1739354338.315894,1739354338.316498,126.000000,0.000000,4193.461426,4188.333496,4234.358887,4263.333496,4204.102539,4203.974121,4201.025879,4213.205078,4170.897461,4259.615234,4382.820313,4447.820313,4308.717773,4362.051270,4989.000000,1.000000,18.000000,,,,0.000000,4.000000,4.000000,4.000000,4.000000,4.000000,4.000000,4.000000,4.000000,4.000000,4.000000,4.000000,4.000000,4.000000,4.000000,100.000000,,,,,,,,,,,,,,,,,,,,,,,,,,,,,,,,,,,,,,,,,,,,,,,,,,,,,,,,,,,,,,,,,,,,,,,,,,,,,,,,,,,,,,,,,,,,,,,,,,,,,,,,,,,,,,,,,,,,,,,,,,,,,,,,,
1739354338.323702,1739354338.324306,127.000000,0.000000,4202.179688,4199.743652,4246.153809,4273.205078,4204.358887,4208.589844,4205.384766,4219.102539,4175.128418,4263.333496,4385.256348,4453.333496,4316.153809,4372.692383,18.000000,1.000000,18.000000,,,,0.000000,4.000000,4.000000,4.000000,4.000000,4.000000,4.000000,4.000000,4.000000,4.000000,4.000000,4.000000,4.000000,4.000000,4.000000,100.000000,,,,,,,,,,,,,,,,,,,,,,,,,,,,,,,,,,,,,,,,,,,,,,,,,,,,,,,,,,,,,,,,,,,,,,,,,,,,,,,,,,,,,,,,,,,,,,,,,,,,,,,,,,,,,,,,,,,,,,,,,,,,,,,,,
1739354338.331510,1739354338.332214,0.000000,0.000000,4211.538574,4202.436035,4259.358887,4280.256348,4208.717773,4213.846191,4217.051270,4228.333496,4183.333496,4272.948730,4399.230957,4467.820313,4330.256348,4389.871582,5096.000000,1.000000,18.000000,,,,0.000000,4.000000,4.000000,4.000000,4.000000,4.000000,4.000000,4.000000,4.000000,4.000000,4.000000,4.000000,4.000000,4.000000,4.000000,100.000000,,,,,,,,,,,,,,,,,0.000000,0.000000,0.265530,0.562256,-0.387695,0.680481,0.966427,-0.227078,0.083506,-39.396996,-26.749144,45.699688,,,,,,,,,,,,,,,,,,,,,,,,,,,,,,,,,,,,,,,,,,,,,,,,,,,,,,,,,,,,,,,,,,,,,,,,,,,,,,,,,,,,,,,,,,,,,,,,,,,,,
1739354338.339318,1739354338.340022,1.000000,0.000000,4218.589844,4202.436035,4264.615234,4280.384766,4216.153809,4211.922852,4218.589844,4231.794922,4186.410156,4279.615234,4403.974121,4479.743652,4331.025879,4404.487305,5467.000000,1.000000,18.000000,,,,0.000000,4.000000,4.000000,4.000000,4.000000,4.000000,4.000000,4.000000,4.000000,4.000000,4.000000,4.000000,4.000000,4.000000,4.000000,100.000000,,,,,,,,,,,,,,,,,,,,,,,,,,,,,,,,,,,,,,,,,,,,,,,,,,,,,,,,,,,,,,,,,,,,,,,,,,,,,,,,,,,,,,,,,,,,,,,,,,,,,,,,,,,,,,,,,,,,,,,,,,,,,,,,,
1739354338.347127,1739354338.347830,2.000000,0.000000,4217.692383,4206.153809,4264.487305,4283.333496,4216.666504,4205.000000,4204.743652,4231.153809,4185.641113,4273.974121,4399.743652,4474.230957,4323.589844,4408.077148,5482.000000,1.000000,18.000000,,,,0.000000,4.000000,4.000000,4.000000,4.000000,4.000000,4.000000,4.000000,4.000000,4.000000,4.000000,4.000000,4.000000,4.000000,4.000000,100.000000,,,,,,,,,,,,,,,,,,,,,,,,,,,,,,,,,,,,,,,,,,,,,,,,,,,,,,,,,,,,,,,,,,,,,,,,,,,,,,,,,,,,,,,,,,,,,,,,,,,,,,,,,,,,,,,,,,,,,,,,,,,,,,,,,
1739354338.354935,1739354338.355538,3.000000,0.000000,4215.384766,4215.512695,4264.871582,4290.384766,4212.436035,4200.897461,4198.717773,4232.692383,4182.307617,4266.538574,4398.589844,4463.846191,4325.897461,4404.615234,5380.000000,1.000000,18.000000,,,,0.000000,4.000000,4.000000,4.000000,4.000000,4.000000,4.000000,4.000000,4.000000,4.000000,4.000000,4.000000,4.000000,4.000000,4.000000,100.000000,,,,,,,,,,,,,,,,,,,,,,,,,,,,,,,,,,,,,,,,,,,,,,,,,,,,,,,,,,,,,,,,,,,,,,,,,,,,,,,,,,,,,,,,,,,,,,,,,,,,,,,,,,,,,,,,,,,,,,,,,,,,,,,,,
1739354338.362743,1739354338.363346,4.000000,0.000000,4213.589844,4215.384766,4259.358887,4286.410156,4209.871582,4199.102539,4201.025879,4227.051270,4171.666504,4264.743652,4388.974121,4458.333496,4324.615234,4398.333496,5350.000000,1.000000,18.000000,,,,0.000000,4.000000,4.000000,4.000000,4.000000,4.000000,4.000000,4.000000,4.000000,4.000000,4.000000,4.000000,4.000000,4.000000,4.000000,100.000000,,,,,,,,,,,,,,,,,1.000000,0.000000,0.265877,0.561584,-0.387573,0.680969,0.977658,-0.217312,0.080088,-39.423965,-26.740896,45.729721,,,,,,,,,,,,,,,,,,,,,,,,,,,,,,,,,,,,,,,,,,,,,,,,,,,,,,,,,,,,,,,,,,,,,,,,,,,,,,,,,,,,,,,,,,,,,,,,,,,,,
1739354338.370551,1739354338.371054,5.000000,0.000000,4209.102539,4202.051270,4250.897461,4274.743652,4209.358887,4204.358887,4199.487305,4220.384766,4170.384766,4262.307617,4381.410156,4455.384766,4314.102539,4394.358887,5379.000000,1.000000,18.000000,,,,0.000000,4.000000,4.000000,4.000000,4.000000,4.000000,4.000000,4.000000,4.000000,4.000000,4.000000,4.000000,4.000000,4.000000,4.000000,100.000000,,,,,,,,,,,,,,,,,,,,,,,,,,,,,,,,,,,,,,,,,,,,,,,,,,,,,,,,,,,,,,,,,,,,,,,,,,,,,,,,,,,,,,,,,,,,,,,,,,,,,,,,,,,,,,,,,,,,,,,,,,,,,,,,,
1739354338.378359,1739354338.378862,6.000000,0.000000,4210.256348,4204.102539,4254.102539,4280.641113,4214.871582,4214.230957,4201.025879,4225.897461,4180.128418,4263.205078,4394.230957,4459.487305,4315.897461,4396.922852,5337.000000,1.000000,18.000000,,,,0.000000,4.000000,4.000000,4.000000,4.000000,4.000000,4.000000,4.000000,4.000000,4.000000,4.000000,4.000000,4.000000,4.000000,4.000000,100.000000,,,,,,,,,,,,,,,,,,,,,,,,,,,,,,,,,,,,,,,,,,,,,,,,,,,,,,,,,,,,,,,,,,,,,,,,,,,,,,,,,,,,,,,,,,,,,,,,,,,,,,,,,,,,,,,,,,,,,,,,,,,,,,,,,
1739354338.386167,1739354338.386571,7.000000,0.000000,4225.897461,4227.307617,4269.615234,4300.512695,4226.410156,4216.410156,4209.102539,4231.922852,4186.282227,4273.717773,4411.410156,4470.512695,4331.922852,4407.563965,3149.000000,1.000000,18.000000,,,,0.000000,4.000000,4.000000,4.000000,4.000000,4.000000,4.000000,4.000000,4.000000,4.000000,4.000000,4.000000,4.000000,4.000000,4.000000,100.000000,,,,,,,,,,,,,,,,,,,,,,,,,,,,,,,,,,,,,,,,,,,,,,,,,,,,,,,,,,,,,,,,,,,,,,,,,,,,,,,,,,,,,,,,,,,,,,,,,,,,,,,,,,,,,,,,,,,,,,,,,,,,,,,,,
1739354338.393975,1739354338.394378,8.000000,0.000000,4240.512695,4243.846191,4280.256348,4312.179688,4232.436035,4219.871582,4215.384766,4231.282227,4191.282227,4285.000000,4418.589844,4481.153809,4338.974121,4421.666504,5145.000000,1.000000,18.000000,,,,0.000000,4.000000,4.000000,4.000000,4.000000,4.000000,4.000000,4.000000,4.000000,4.000000,4.000000,4.000000,4.000000,4.000000,4.000000,100.000000,,,,,,,,,,,,,,,,,2.000000,0.000000,0.265712,0.561218,-0.387573,0.681335,0.977658,-0.221707,0.090831,-39.448235,-26.816807,45.790081,,,,,,,,,,,,,,,,,,,,,,,,,,,,,,,,,,,,,,,,,,,,,,,,,,,,,,,,,,,,,,,,,,,,,,,,,,,,,,,,,,,,,,,,,,,,,,,,,,,,,
1739354338.401783,1739354338.402087,9.000000,0.000000,4240.256348,4243.077148,4280.000000,4309.871582,4231.794922,4228.205078,4219.743652,4229.871582,4199.743652,4289.743652,4421.538574,4485.128418,4336.410156,4422.051270,5490.000000,1.000000,18.000000,,,,0.000000,4.000000,4.000000,4.000000,4.000000,4.000000,4.000000,4.000000,4.000000,4.000000,4.000000,4.000000,4.000000,4.000000,4.000000,100.000000,,,,,,,,,,,,,,,,,,,,,,,,,,,,,,,,,,,,,,,,,,,,,,,,,,,,,,,,,,,,,,,,,,,,,,,,,,,,,,,,,,,,,,,,,,,,,,,,,,,,,,,,,,,,,,,,,,,,,,,,,,,,,,,,,
1739354338.409591,1739354338.409995,10.000000,0.000000,4241.282227,4245.512695,4286.922852,4308.205078,4239.487305,4235.897461,4232.820313,4236.794922,4213.974121,4299.871582,4433.974121,4491.025879,4340.769043,4418.333496,5006.000000,1.000000,18.000000,,,,0.000000,4.000000,4.000000,4.000000,4.000000,4.000000,4.000000,4.000000,4.000000,4.000000,4.000000,4.000000,4.000000,4.000000,4.000000,100.000000,1.000000,0.000000,1.000000,1.000000,1.000000,0.000000,1.000000,0.000000,1.000000,3.000000,1.000000,1.000000,0.000000,1.000000,3.000000,3.000000,,,,,,,,,,,,,,,,,,,,,,,,,,,,,,,,,,,,,,,,,,,,6.065331,2.525139,0.874109,1.667104,1.229413,7.083712,2.316052,0.757607,1.235501,1.209502,4.481187,3.332856,0.860681,1.491409,1.187110,1.616605,1.150123,0.380974,1.361630,1.223982,4.232886,1.070465,0.762145,0.673259,0.830534,3.120807,1.275264,0.497468,1.053005,0.986603,5.658787,1.024477,0.579547,0.947901,1.115777,1.901184,1.155206,0.878446,0.377048,0.506483,4.425556,2.047159,1.942292,1.006187,1.123148,7.494498,2.879169,2.458864,1.063195,1.582954,10.532592,3.871083,1.578487,1.496855,1.407968,9.983990,4.139209,1.335041,2.140016,1.793761,3.727577,3.759694,0.899138,1.146670,1.100004,4.254774,4.946760,1.079206,1.300089,1.153625
1739354338.417399,1739354338.417803,11.000000,0.000000,4252.051270,4253.077148,4296.538574,4313.589844,4253.077148,4239.743652,4244.871582,4245.897461,4222.692383,4309.102539,4444.230957,4499.358887,4347.563965,4425.769043,5422.000000,1.000000,18.000000,,,,0.000000,4.000000,4.000000,4.000000,4.000000,4.000000,4.000000,4.000000,4.000000,4.000000,4.000000,4.000000,4.000000,4.000000,4.000000,100.000000,,,,,,,,,,,,,,,,,,,,,,,,,,,,,,,,,,,,,,,,,,,,,,,,,,,,,,,,,,,,,,,,,,,,,,,,,,,,,,,,,,,,,,,,,,,,,,,,,,,,,,,,,,,,,,,,,,,,,,,,,,,,,,,,,
1739354338.425207,1739354338.425711,12.000000,0.000000,4247.179688,4251.410156,4288.461426,4312.051270,4249.358887,4238.205078,4239.487305,4242.436035,4211.282227,4300.256348,4433.461426,4488.461426,4341.025879,4422.820313,5604.000000,1.000000,18.000000,,,,0.000000,4.000000,4.000000,4.000000,4.000000,4.000000,4.000000,4.000000,4.000000,4.000000,4.000000,4.000000,4.000000,4.000000,4.000000,100.000000,,,,,,,,,,,,,,,,,3.000000,0.000000,0.265018,0.561218,-0.387512,0.681641,0.959101,-0.232450,0.081065,-39.420078,-26.735125,45.911072,,,,,,,,,,,,,,,,,,,,,,,,,,,,,,,,,,,,,,,,,,,,,,,,,,,,,,,,,,,,,,,,,,,,,,,,,,,,,,,,,,,,,,,,,,,,,,,,,,,,,
1739354338.433015,1739354338.433519,13.000000,0.000000,4232.051270,4243.589844,4275.128418,4304.358887,4237.436035,4238.205078,4228.846191,4232.179688,4194.871582,4286.410156,4421.025879,4470.000000,4333.461426,4408.717773,6720.000000,1.000000,18.000000,,,,0.000000,4.000000,4.000000,4.000000,4.000000,4.000000,4.000000,4.000000,4.000000,4.000000,4.000000,4.000000,4.000000,4.000000,4.000000,100.000000,,,,,,,,,,,,,,,,,,,,,,,,,,,,,,,,,,,,,,,,,,,,,,,,,,,,,,,,,,,,,,,,,,,,,,,,,,,,,,,,,,,,,,,,,,,,,,,,,,,,,,,,,,,,,,,,,,,,,,,,,,,,,,,,,
1739354338.440823,1739354338.441427,14.000000,0.000000,4237.563965,4247.436035,4277.692383,4307.692383,4242.563965,4241.922852,4231.025879,4231.025879,4197.436035,4288.846191,4425.769043,4469.487305,4341.410156,4412.820313,5006.000000,1.000000,18.000000,,,,0.000000,4.000000,4.000000,4.000000,4.000000,4.000000,4.000000,4.000000,4.000000,4.000000,4.000000,4.000000,4.000000,4.000000,4.000000,100.000000,,,,,,,,,,,,,,,,,,,,,,,,,,,,,,,,,,,,,,,,,,,,,,,,,,,,,,,,,,,,,,,,,,,,,,,,,,,,,,,,,,,,,,,,,,,,,,,,,,,,,,,,,,,,,,,,,,,,,,,,,,,,,,,,,
1739354338.448632,1739354338.449335,15.000000,0.000000,4249.871582,4260.641113,4283.717773,4316.410156,4247.692383,4239.102539,4231.282227,4235.128418,4203.717773,4301.794922,4429.102539,4476.794922,4351.538574,4427.051270,5422.000000,1.000000,18.000000,,,,0.000000,4.000000,4.000000,4.000000,4.000000,4.000000,4.000000,4.000000,4.000000,4.000000,4.000000,4.000000,4.000000,4.000000,4.000000,100.000000,,,,,,,,,,,,,,,,,,,,,,,,,,,,,,,,,,,,,,,,,,,,,,,,,,,,,,,,,,,,,,,,,,,,,,,,,,,,,,,,,,,,,,,,,,,,,,,,,,,,,,,,,,,,,,,,,,,,,,,,,,,,,,,,,
1739354338.456440,1739354338.457143,16.000000,0.000000,4252.948730,4265.512695,4291.410156,4325.128418,4243.461426,4232.436035,4226.794922,4232.948730,4203.589844,4310.641113,4431.025879,4484.615234,4358.077148,4434.487305,0.000000,1.000000,18.000000,,,,0.000000,4.000000,4.000000,4.000000,4.000000,4.000000,4.000000,4.000000,4.000000,4.000000,4.000000,4.000000,4.000000,4.000000,4.000000,100.000000,,,,,,,,,,,,,,,,,4.000000,0.000000,0.264546,0.561218,-0.387512,0.681824,0.966427,-0.246612,0.079600,-39.344734,-26.628279,46.103298,,,,,,,,,,,,,,,,,,,,,,,,,,,,,,,,,,,,,,,,,,,,,,,,,,,,,,,,,,,,,,,,,,,,,,,,,,,,,,,,,,,,,,,,,,,,,,,,,,,,,
1739354338.464248,1739354338.464952,17.000000,0.000000,4254.743652,4262.307617,4295.641113,4326.922852,4241.922852,4234.743652,4228.717773,4231.410156,4204.358887,4306.922852,4437.692383,4489.102539,4359.230957,4433.717773,0.000000,1.000000,18.000000,,,,0.000000,4.000000,4.000000,4.000000,4.000000,4.000000,4.000000,4.000000,4.000000,4.000000,4.000000,4.000000,4.000000,4.000000,4.000000,100.000000,,,,,,,,,,,,,,,,,,,,,,,,,,,,,,,,,,,,,,,,,,,,,,,,,,,,,,,,,,,,,,,,,,,,,,,,,,,,,,,,,,,,,,,,,,,,,,,,,,,,,,,,,,,,,,,,,,,,,,,,,,,,,,,,,
1739354338.472056,1739354338.472660,18.000000,0.000000,4251.922852,4258.974121,4282.307617,4318.717773,4240.384766,4239.615234,4229.871582,4231.922852,4200.384766,4297.820313,4435.000000,4476.922852,4350.897461,4423.461426,0.000000,1.000000,18.000000,,,,0.000000,4.000000,4.000000,4.000000,4.000000,4.000000,4.000000,4.000000,4.000000,4.000000,4.000000,4.000000,4.000000,4.000000,4.000000,100.000000,,,,,,,,,,,,,,,,,,,,,,,,,,,,,,,,,,,,,,,,,,,,,,,,,,,,,,,,,,,,,,,,,,,,,,,,,,,,,,,,,,,,,,,,,,,,,,,,,,,,,,,,,,,,,,,,,,,,,,,,,,,,,,,,,
1739354338.479864,1739354338.480468,19.000000,0.000000,4245.384766,4260.256348,4274.102539,4316.410156,4241.282227,4242.563965,4227.051270,4231.025879,4197.820313,4296.410156,4432.436035,4464.487305,4352.051270,4418.205078,0.000000,1.000000,18.000000,,,,0.000000,4.000000,4.000000,4.000000,4.000000,4.000000,4.000000,4.000000,4.000000,4.000000,4.000000,4.000000,4.000000,4.000000,4.000000,100.000000,,,,,,,,,,,,,,,,,,,,,,,,,,,,,,,,,,,,,,,,,,,,,,,,,,,,,,,,,,,,,,,,,,,,,,,,,,,,,,,,,,,,,,,,,,,,,,,,,,,,,,,,,,,,,,,,,,,,,,,,,,,,,,,,,
1739354338.487672,1739354338.488176,20.000000,0.000000,4247.563965,4261.666504,4284.743652,4326.153809,4247.307617,4248.589844,4231.538574,4229.487305,4202.179688,4297.179688,4442.436035,4471.794922,4361.153809,4422.179688,0.000000,1.000000,18.000000,,,,0.000000,4.000000,4.000000,4.000000,4.000000,4.000000,4.000000,4.000000,4.000000,4.000000,4.000000,4.000000,4.000000,4.000000,4.000000,100.000000,,,,,,,,,,,,,,,,,5.000000,0.000000,0.263656,0.561340,-0.387512,0.682068,0.965450,-0.255891,0.079111,-39.543594,-26.482119,46.076302,,,,,,,,,,,,,,,,,,,,,,,,,,,,,,,,,,,,,,,,,,,,,,,,,,,,,,,,,,,,,,,,,,,,,,,,,,,,,,,,,,,,,,,,,,,,,,,,,,,,,
1739354338.495480,1739354338.495984,21.000000,0.000000,4257.307617,4264.487305,4293.333496,4334.102539,4251.922852,4255.512695,4243.717773,4233.461426,4210.256348,4302.179688,4453.077148,4482.436035,4358.717773,4422.692383,0.000000,1.000000,18.000000,,,,0.000000,4.000000,4.000000,4.000000,4.000000,4.000000,4.000000,4.000000,4.000000,4.000000,4.000000,4.000000,4.000000,4.000000,4.000000,100.000000,,,,,,,,,,,,,,,,,,,,,,,,,,,,,,,,,,,,,,,,,,,,,,,,,,,,,,,,,,,,,,,,,,,,,,,,,,,,,,,,,,,,,,,,,,,,,,,,,,,,,,,,,,,,,,,,,,,,,,,,,,,,,,,,,
1739354338.503288,1739354338.503692,22.000000,0.000000,4267.563965,4273.077148,4296.794922,4337.820313,4255.384766,4260.256348,4251.922852,4238.717773,4216.794922,4315.384766,4466.794922,4487.820313,4357.948730,4430.897461,0.000000,1.000000,18.000000,,,,0.000000,4.000000,4.000000,4.000000,4.000000,4.000000,4.000000,4.000000,4.000000,4.000000,4.000000,4.000000,4.000000,4.000000,4.000000,100.000000,,,,,,,,,,,,,,,,,,,,,,,,,,,,,,,,,,,,,,,,,,,,,,,,,,,,,,,,,,,,,,,,,,,,,,,,,,,,,,,,,,,,,,,,,,,,,,,,,,,,,,,,,,,,,,,,,,,,,,,,,,,,,,,,,
1739354338.511096,1739354338.511500,23.000000,0.000000,4277.563965,4279.615234,4305.897461,4345.128418,4261.410156,4261.282227,4252.820313,4236.153809,4219.102539,4320.641113,4481.410156,4493.461426,4369.871582,4447.051270,0.000000,1.000000,18.000000,,,,0.000000,4.000000,4.000000,4.000000,4.000000,4.000000,4.000000,4.000000,4.000000,4.000000,4.000000,4.000000,4.000000,4.000000,4.000000,100.000000,,,,,,,,,,,,,,,,,,,,,,,,,,,,,,,,,,,,,,,,,,,,,,,,,,,,,,,,,,,,,,,,,,,,,,,,,,,,,,,,,,,,,,,,,,,,,,,,,,,,,,,,,,,,,,,,,,,,,,,,,,,,,,,,,
1739354338.518904,1739354338.519208,24.000000,0.000000,4281.153809,4281.025879,4313.717773,4354.615234,4264.230957,4263.077148,4251.794922,4235.256348,4225.897461,4322.051270,4486.666504,4497.436035,4376.410156,4451.922852,0.000000,1.000000,18.000000,,,,0.000000,4.000000,4.000000,4.000000,4.000000,4.000000,4.000000,4.000000,4.000000,4.000000,4.000000,4.000000,4.000000,4.000000,4.000000,100.000000,,,,,,,,,,,,,,,,,6.000000,0.000000,0.262810,0.561462,-0.387695,0.682190,0.982053,-0.237334,0.084483,-39.522568,-26.583906,46.102005,,,,,,,,,,,,,,,,,,,,,,,,,,,,,,,,,,,,,,,,,,,,,,,,,,,,,,,,,,,,,,,,,,,,,,,,,,,,,,,,,,,,,,,,,,,,,,,,,,,,,
1739354338.526712,1739354338.527016,25.000000,0.000000,4280.641113,4284.102539,4312.436035,4358.205078,4262.820313,4260.256348,4251.794922,4237.563965,4230.000000,4328.205078,4489.615234,4498.205078,4371.538574,4446.922852,0.000000,1.000000,18.000000,,,,0.000000,4.000000,4.000000,4.000000,4.000000,4.000000,4.000000,4.000000,4.000000,4.000000,4.000000,4.000000,4.000000,4.000000,4.000000,100.000000,,,,,,,,,,,,,,,,,,,,,,,,,,,,,,,,,,,,,,,,,,,,,,,,,,,,,,,,,,,,,,,,,,,,,,,,,,,,,,,,,,,,,,,,,,,,,,,,,,,,,,,,,,,,,,,,,,,,,,,,,,,,,,,,,
1739354338.534521,1739354338.534724,26.000000,0.000000,4284.615234,4285.384766,4308.974121,4356.282227,4263.205078,4255.512695,4250.000000,4239.615234,4232.179688,4329.615234,4496.025879,4498.974121,4371.666504,4445.641113,0.000000,1.000000,18.000000,,,,0.000000,4.000000,4.000000,4.000000,4.000000,4.000000,4.000000,4.000000,4.000000,4.000000,4.000000,4.000000,4.000000,4.000000,4.000000,100.000000,,,,,,,,,,,,,,,,,,,,,,,,,,,,,,,,,,,,,,,,,,,,,,,,,,,,,,,,,,,,3.923263,2.184324,0.742383,1.331126,1.041038,4.754484,1.918021,0.604327,1.000284,0.967852,3.057487,2.916088,0.715116,1.136770,1.007536,1.338558,0.925952,0.305184,1.008381,1.042376,2.041781,0.931347,0.697899,0.473357,0.668078,1.540965,1.098780,0.483832,0.742625,0.822693,3.154541,0.937202,0.602719,0.646847,0.922848,1.613123,1.123557,0.864007,0.303849,0.435127,3.221275,2.142623,1.896788,0.783567,0.929271,4.232801,2.817194,2.357972,0.858096,1.299968,10.016850,4.112782,1.763737,1.315030,1.200123,8.299696,3.686805,1.214792,1.706079,1.490529,2.970308,3.540915,0.900184,0.994636,0.915422,2.982647,4.586805,0.944381,1.053153,0.936337
1739354338.542328,1739354338.542532,27.000000,0.000000,4290.769043,4283.589844,4311.922852,4354.871582,4262.563965,4255.769043,4245.641113,4245.384766,4242.563965,4328.589844,4494.358887,4502.820313,4377.436035,4450.641113,0.000000,1.000000,18.000000,,,,0.000000,4.000000,4.000000,4.000000,4.000000,4.000000,4.000000,4.000000,4.000000,4.000000,4.000000,4.000000,4.000000,4.000000,4.000000,100.000000,,,,,,,,,,,,,,,,,,,,,,,,,,,,,,,,,,,,,,,,,,,,,,,,,,,,,,,,,,,,,,,,,,,,,,,,,,,,,,,,,,,,,,,,,,,,,,,,,,,,,,,,,,,,,,,,,,,,,,,,,,,,,,,,,
1739354338.550137,1739354338.550240,28.000000,0.000000,4293.589844,4286.153809,4320.256348,4357.051270,4258.717773,4252.563965,4240.769043,4246.025879,4241.538574,4328.205078,4491.666504,4507.820313,4379.358887,4460.384766,0.000000,1.000000,18.000000,,,,0.000000,4.000000,4.000000,4.000000,4.000000,4.000000,4.000000,4.000000,4.000000,4.000000,4.000000,4.000000,4.000000,4.000000,4.000000,100.000000,,,,,,,,,,,,,,,,,7.000000,0.000000,0.261914,0.561829,-0.387878,0.682129,0.983030,-0.241240,0.076181,-39.436977,-26.525517,46.158470,,,,,,,,,,,,,,,,,,,,,,,,,,,,,,,,,,,,,,,,,,,,,,,,,,,,,,,,,,,,,,,,,,,,,,,,,,,,,,,,,,,,,,,,,,,,,,,,,,,,,
1739354338.557945,1739354338.558048,29.000000,0.000000,4300.512695,4294.230957,4330.256348,4363.461426,4260.000000,4251.153809,4240.256348,4240.769043,4234.230957,4325.128418,4502.179688,4514.615234,4381.538574,4469.230957,0.000000,1.000000,18.000000,,,,0.000000,4.000000,4.000000,4.000000,4.000000,4.000000,4.000000,4.000000,4.000000,4.000000,4.000000,4.000000,4.000000,4.000000,4.000000,100.000000,,,,,,,,,,,,,,,,,,,,,,,,,,,,,,,,,,,,,,,,,,,,,,,,,,,,,,,,,,,,,,,,,,,,,,,,,,,,,,,,,,,,,,,,,,,,,,,,,,,,,,,,,,,,,,,,,,,,,,,,,,,,,,,,,
1739354338.565753,1739354338.565756,30.000000,0.000000,4318.717773,4307.307617,4343.333496,4379.743652,4275.641113,4265.256348,4253.205078,4246.153809,4253.333496,4342.563965,4523.846191,4531.282227,4393.974121,4478.077148,0.000000,1.000000,18.000000,,,,0.000000,4.000000,4.000000,4.000000,4.000000,4.000000,4.000000,4.000000,4.000000,4.000000,4.000000,4.000000,4.000000,4.000000,4.000000,100.000000,,,,,,,,,,,,,,,,,,,,,,,,,,,,,,,,,,,,,,,,,,,,,,,,,,,,,,,,,,,,,,,,,,,,,,,,,,,,,,,,,,,,,,,,,,,,,,,,,,,,,,,,,,,,,,,,,,,,,,,,,,,,,,,,,
1739354338.573561,1739354338.573664,31.000000,0.000000,4319.743652,4306.922852,4341.922852,4382.307617,4283.589844,4277.563965,4267.563965,4253.717773,4266.538574,4359.230957,4532.436035,4533.205078,4395.897461,4475.256348,0.000000,1.000000,18.000000,,,,0.000000,4.000000,4.000000,4.000000,4.000000,4.000000,4.000000,4.000000,4.000000,4.000000,4.000000,4.000000,4.000000,4.000000,4.000000,100.000000,,,,,,,,,,,,,,,,,,,,,,,,,,,,,,,,,,,,,,,,,,,,,,,,,,,,,,,,,,,,,,,,,,,,,,,,,,,,,,,,,,,,,,,,,,,,,,,,,,,,,,,,,,,,,,,,,,,,,,,,,,,,,,,,,
1739354338.581369,1739354338.581472,32.000000,0.000000,4285.512695,4276.666504,4314.102539,4355.256348,4267.563965,4272.820313,4262.948730,4241.410156,4236.666504,4328.205078,4514.230957,4498.717773,4367.307617,4446.666504,0.000000,1.000000,18.000000,,,,0.000000,4.000000,4.000000,4.000000,4.000000,4.000000,4.000000,4.000000,4.000000,4.000000,4.000000,4.000000,4.000000,4.000000,4.000000,100.000000,,,,,,,,,,,,,,,,,8.000000,0.000000,0.261237,0.562134,-0.388000,0.682068,0.965938,-0.251496,0.069833,-39.376614,-26.589630,46.059292,,,,,,,,,,,,,,,,,,,,,,,,,,,,,,,,,,,,,,,,,,,,,,,,,,,,,,,,,,,,,,,,,,,,,,,,,,,,,,,,,,,,,,,,,,,,,,,,,,,,,
1739354338.589177,1739354338.589280,33.000000,0.000000,4269.487305,4264.358887,4302.948730,4348.846191,4266.153809,4273.205078,4262.820313,4239.102539,4223.461426,4304.102539,4510.128418,4483.205078,4355.897461,4435.000000,0.000000,1.000000,18.000000,,,,0.000000,4.000000,4.000000,4.000000,4.000000,4.000000,4.000000,4.000000,4.000000,4.000000,4.000000,4.000000,4.000000,4.000000,4.000000,100.000000,,,,,,,,,,,,,,,,,,,,,,,,,,,,,,,,,,,,,,,,,,,,,,,,,,,,,,,,,,,,,,,,,,,,,,,,,,,,,,,,,,,,,,,,,,,,,,,,,,,,,,,,,,,,,,,,,,,,,,,,,,,,,,,,,
1739354338.596985,1739354338.596988,34.000000,0.000000,4286.025879,4281.282227,4320.000000,4368.077148,4279.743652,4281.794922,4274.871582,4256.025879,4239.230957,4320.128418,4530.384766,4502.307617,4369.743652,4450.897461,0.000000,1.000000,18.000000,,,,0.000000,4.000000,4.000000,4.000000,4.000000,4.000000,4.000000,4.000000,4.000000,4.000000,4.000000,4.000000,4.000000,4.000000,4.000000,100.000000,,,,,,,,,,,,,,,,,,,,,,,,,,,,,,,,,,,,,,,,,,,,,,,,,,,,,,,,,,,,,,,,,,,,,,,,,,,,,,,,,,,,,,,,,,,,,,,,,,,,,,,,,,,,,,,,,,,,,,,,,,,,,,,,,
1739354338.604793,1739354338.604897,35.000000,0.000000,4292.179688,4285.512695,4327.563965,4369.358887,4274.615234,4281.538574,4274.102539,4262.948730,4236.666504,4325.769043,4538.077148,4509.487305,4369.487305,4452.692383,0.000000,1.000000,18.000000,,,,0.000000,4.000000,4.000000,4.000000,4.000000,4.000000,4.000000,4.000000,4.000000,4.000000,4.000000,4.000000,4.000000,4.000000,4.000000,100.000000,,,,,,,,,,,,,,,,,,,,,,,,,,,,,,,,,,,,,,,,,,,,,,,,,,,,,,,,,,,,,,,,,,,,,,,,,,,,,,,,,,,,,,,,,,,,,,,,,,,,,,,,,,,,,,,,,,,,,,,,,,,,,,,,,
1739354338.612601,1739354338.612705,36.000000,0.000000,4291.794922,4284.487305,4329.743652,4368.846191,4271.025879,4277.692383,4271.538574,4261.666504,4236.538574,4329.102539,4542.436035,4511.153809,4367.436035,4448.717773,0.000000,1.000000,18.000000,,,,0.000000,4.000000,4.000000,4.000000,4.000000,4.000000,4.000000,4.000000,4.000000,4.000000,4.000000,4.000000,4.000000,4.000000,4.000000,100.000000,,,,,,,,,,,,,,,,,9.000000,0.000000,0.260780,0.562378,-0.388062,0.682007,0.961543,-0.235869,0.057136,-39.405621,-26.597334,46.053364,,,,,,,,,,,,,,,,,,,,,,,,,,,,,,,,,,,,,,,,,,,,,,,,,,,,,,,,,,,,,,,,,,,,,,,,,,,,,,,,,,,,,,,,,,,,,,,,,,,,,
1739354338.620409,1739354338.620613,37.000000,0.000000,4300.256348,4293.205078,4337.948730,4381.153809,4285.256348,4278.461426,4278.846191,4261.153809,4248.717773,4345.641113,4558.077148,4524.230957,4379.230957,4460.512695,0.000000,1.000000,18.000000,,,,0.000000,4.000000,4.000000,4.000000,4.000000,4.000000,4.000000,4.000000,4.000000,4.000000,4.000000,4.000000,4.000000,4.000000,4.000000,100.000000,,,,,,,,,,,,,,,,,,,,,,,,,,,,,,,,,,,,,,,,,,,,,,,,,,,,,,,,,,,,,,,,,,,,,,,,,,,,,,,,,,,,,,,,,,,,,,,,,,,,,,,,,,,,,,,,,,,,,,,,,,,,,,,,,
1739354338.628217,1739354338.628421,38.000000,0.000000,4310.769043,4299.358887,4344.871582,4388.974121,4293.589844,4285.384766,4280.000000,4263.205078,4252.692383,4345.384766,4572.436035,4535.256348,4388.846191,4474.871582,0.000000,1.000000,18.000000,,,,0.000000,4.000000,4.000000,4.000000,4.000000,4.000000,4.000000,4.000000,4.000000,4.000000,4.000000,4.000000,4.000000,4.000000,4.000000,100.000000,,,,,,,,,,,,,,,,,,,,,,,,,,,,,,,,,,,,,,,,,,,,,,,,,,,,,,,,,,,,,,,,,,,,,,,,,,,,,,,,,,,,,,,,,,,,,,,,,,,,,,,,,,,,,,,,,,,,,,,,,,,,,,,,,
1739354338.636025,1739354338.636329,39.000000,0.000000,4320.256348,4303.461426,4353.846191,4391.538574,4292.307617,4290.128418,4277.563965,4272.179688,4256.153809,4345.769043,4581.282227,4548.974121,4391.922852,4480.641113,0.000000,1.000000,18.000000,,,,0.000000,4.000000,4.000000,4.000000,4.000000,4.000000,4.000000,4.000000,4.000000,4.000000,4.000000,4.000000,4.000000,4.000000,4.000000,100.000000,,,,,,,,,,,,,,,,,,,,,,,,,,,,,,,,,,,,,,,,,,,,,,,,,,,,,,,,,,,,,,,,,,,,,,,,,,,,,,,,,,,,,,,,,,,,,,,,,,,,,,,,,,,,,,,,,,,,,,,,,,,,,,,,,
1739354338.643834,1739354338.644136,40.000000,0.000000,4330.897461,4313.846191,4362.179688,4401.538574,4292.307617,4289.743652,4281.922852,4280.000000,4268.205078,4366.538574,4590.641113,4563.974121,4404.358887,4488.077148,0.000000,1.000000,18.000000,,,,0.000000,4.000000,4.000000,4.000000,4.000000,4.000000,4.000000,4.000000,4.000000,4.000000,4.000000,4.000000,4.000000,4.000000,4.000000,100.000000,,,,,,,,,,,,,,,,,10.000000,0.000000,0.260531,0.562683,-0.388000,0.681885,0.953241,-0.237822,0.060554,-39.431725,-26.570934,46.131359,,,,,,,,,,,,,,,,,,,,,,,,,,,,,,,,,,,,,,,,,,,,,,,,,,,,,,,,,,,,,,,,,,,,,,,,,,,,,,,,,,,,,,,,,,,,,,,,,,,,,
1739354338.651641,1739354338.652044,41.000000,0.000000,4334.487305,4322.436035,4361.282227,4410.641113,4293.717773,4290.769043,4282.179688,4278.205078,4277.051270,4376.538574,4593.846191,4563.205078,4418.205078,4497.563965,0.000000,1.000000,18.000000,,,,0.000000,4.000000,4.000000,4.000000,4.000000,4.000000,4.000000,4.000000,4.000000,4.000000,4.000000,4.000000,4.000000,4.000000,4.000000,100.000000,,,,,,,,,,,,,,,,,,,,,,,,,,,,,,,,,,,,,,,,,,,,,,,,,,,,,,,,,,,,,,,,,,,,,,,,,,,,,,,,,,,,,,,,,,,,,,,,,,,,,,,,,,,,,,,,,,,,,,,,,,,,,,,,,
1739354338.659450,1739354338.659852,42.000000,0.000000,4333.077148,4321.666504,4357.051270,4410.512695,4298.846191,4294.743652,4278.846191,4277.563965,4280.000000,4367.948730,4586.794922,4554.102539,4413.205078,4497.051270,0.000000,1.000000,18.000000,,,,0.000000,4.000000,4.000000,4.000000,4.000000,4.000000,4.000000,4.000000,4.000000,4.000000,4.000000,4.000000,4.000000,4.000000,4.000000,100.000000,,,,,,,,,,,,,,,,,,,,,,,,,,,,,,,,,,,,,,,,,,,,,,,,,,,,,,,,,,,,3.147061,1.798761,0.667600,1.149764,0.841877,3.870867,1.479277,0.511916,0.861457,0.728987,2.359723,2.444128,0.624983,0.940173,0.813369,1.360890,0.733789,0.291393,0.800034,0.847182,1.140637,0.802942,0.592262,0.351882,0.521518,1.014581,0.925869,0.445445,0.518852,0.656588,1.917518,0.919739,0.591754,0.455610,0.736158,1.516343,1.052121,0.827709,0.265061,0.359597,2.787274,2.092485,1.629287,0.669414,0.735298,2.681412,2.557206,2.012402,0.787090,1.024556,7.352881,4.149059,1.810691,1.244109,0.964858,6.473484,3.091275,1.126124,1.506032,1.181028,2.647573,3.030887,0.901702,0.957191,0.718240,2.366492,4.041212,0.829481,0.948975,0.720849
1739354338.667258,1739354338.667560,43.000000,0.000000,4324.871582,4313.717773,4352.307617,4406.153809,4304.871582,4297.948730,4281.538574,4276.538574,4273.974121,4361.025879,4573.974121,4547.307617,4397.692383,4486.025879,0.000000,1.000000,18.000000,,,,0.000000,4.000000,4.000000,4.000000,4.000000,4.000000,4.000000,4.000000,4.000000,4.000000,4.000000,4.000000,4.000000,4.000000,4.000000,100.000000,,,,,,,,,,,,,,,,,,,,,,,,,,,,,,,,,,,,,,,,,,,,,,,,,,,,,,,,,,,,,,,,,,,,,,,,,,,,,,,,,,,,,,,,,,,,,,,,,,,,,,,,,,,,,,,,,,,,,,,,,,,,,,,,,
1739354338.675066,1739354338.675368,44.000000,0.000000,4314.230957,4307.948730,4349.230957,4402.692383,4307.948730,4303.717773,4287.179688,4274.102539,4264.487305,4358.333496,4569.102539,4545.641113,4396.410156,4482.563965,0.000000,1.000000,18.000000,,,,0.000000,4.000000,4.000000,4.000000,4.000000,4.000000,4.000000,4.000000,4.000000,4.000000,4.000000,4.000000,4.000000,4.000000,4.000000,100.000000,,,,,,,,,,,,,,,,,11.000000,0.000000,0.260399,0.562744,-0.388000,0.681885,0.962031,-0.242705,0.060554,-39.421886,-26.547174,46.201557,,,,,,,,,,,,,,,,,,,,,,,,,,,,,,,,,,,,,,,,,,,,,,,,,,,,,,,,,,,,,,,,,,,,,,,,,,,,,,,,,,,,,,,,,,,,,,,,,,,,,
1739354338.682874,1739354338.683076,45.000000,0.000000,4320.256348,4315.256348,4353.589844,4406.282227,4310.384766,4311.282227,4297.948730,4275.769043,4267.948730,4362.820313,4577.563965,4553.974121,4405.512695,4490.256348,0.000000,1.000000,18.000000,,,,0.000000,4.000000,4.000000,4.000000,4.000000,4.000000,4.000000,4.000000,4.000000,4.000000,4.000000,4.000000,4.000000,4.000000,4.000000,100.000000,,,,,,,,,,,,,,,,,,,,,,,,,,,,,,,,,,,,,,,,,,,,,,,,,,,,,,,,,,,,,,,,,,,,,,,,,,,,,,,,,,,,,,,,,,,,,,,,,,,,,,,,,,,,,,,,,,,,,,,,,,,,,,,,,
1739354338.690682,1739354338.690884,46.000000,0.000000,4323.333496,4318.846191,4351.410156,4405.897461,4308.461426,4308.717773,4303.717773,4268.974121,4263.205078,4362.179688,4572.436035,4550.384766,4398.333496,4482.307617,0.000000,1.000000,18.000000,,,,0.000000,4.000000,4.000000,4.000000,4.000000,4.000000,4.000000,4.000000,4.000000,4.000000,4.000000,4.000000,4.000000,4.000000,4.000000,100.000000,,,,,,,,,,,,,,,,,,,,,,,,,,,,,,,,,,,,,,,,,,,,,,,,,,,,,,,,,,,,,,,,,,,,,,,,,,,,,,,,,,,,,,,,,,,,,,,,,,,,,,,,,,,,,,,,,,,,,,,,,,,,,,,,,
1739354338.698490,1739354338.698592,47.000000,0.000000,4327.436035,4324.615234,4356.538574,4415.384766,4314.487305,4313.717773,4309.102539,4267.563965,4263.333496,4366.794922,4574.102539,4553.974121,4400.384766,4482.051270,0.000000,1.000000,18.000000,,,,0.000000,4.000000,4.000000,4.000000,4.000000,4.000000,4.000000,4.000000,4.000000,4.000000,4.000000,4.000000,4.000000,4.000000,4.000000,100.000000,,,,,,,,,,,,,,,,,,,,,,,,,,,,,,,,,,,,,,,,,,,,,,,,,,,,,,,,,,,,,,,,,,,,,,,,,,,,,,,,,,,,,,,,,,,,,,,,,,,,,,,,,,,,,,,,,,,,,,,,,,,,,,,,,
1739354338.706298,1739354338.706400,48.000000,0.000000,4351.410156,4339.358887,4381.410156,4436.025879,4327.948730,4331.282227,4324.358887,4282.692383,4290.256348,4389.871582,4600.512695,4586.025879,4423.717773,4507.563965,0.000000,1.000000,18.000000,,,,0.000000,4.000000,4.000000,4.000000,4.000000,4.000000,4.000000,4.000000,4.000000,4.000000,4.000000,4.000000,4.000000,4.000000,4.000000,100.000000,,,,,,,,,,,,,,,,,12.000000,0.000000,0.260302,0.562683,-0.387939,0.682007,0.962031,-0.247100,0.067391,-39.563030,-26.492456,46.331402,,,,,,,,,,,,,,,,,,,,,,,,,,,,,,,,,,,,,,,,,,,,,,,,,,,,,,,,,,,,,,,,,,,,,,,,,,,,,,,,,,,,,,,,,,,,,,,,,,,,,
1739354338.714106,1739354338.714109,49.000000,0.000000,4368.461426,4344.358887,4398.461426,4444.487305,4328.846191,4333.717773,4332.692383,4290.769043,4303.589844,4401.538574,4612.179688,4609.743652,4434.487305,4526.538574,0.000000,1.000000,18.000000,,,,0.000000,4.000000,4.000000,4.000000,4.000000,4.000000,4.000000,4.000000,4.000000,4.000000,4.000000,4.000000,4.000000,4.000000,4.000000,100.000000,,,,,,,,,,,,,,,,,,,,,,,,,,,,,,,,,,,,,,,,,,,,,,,,,,,,,,,,,,,,,,,,,,,,,,,,,,,,,,,,,,,,,,,,,,,,,,,,,,,,,,,,,,,,,,,,,,,,,,,,,,,,,,,,,
1739354338.721914,1739354338.721916,50.000000,0.000000,4369.102539,4345.641113,4397.692383,4448.461426,4325.897461,4323.461426,4326.410156,4289.743652,4295.897461,4394.102539,4608.589844,4606.410156,4431.666504,4531.025879,0.000000,1.000000,18.000000,,,,0.000000,4.000000,4.000000,4.000000,4.000000,4.000000,4.000000,4.000000,4.000000,4.000000,4.000000,4.000000,4.000000,4.000000,4.000000,100.000000,,,,,,,,,,,,,,,,,,,,,,,,,,,,,,,,,,,,,,,,,,,,,,,,,,,,,,,,,,,,,,,,,,,,,,,,,,,,,,,,,,,,,,,,,,,,,,,,,,,,,,,,,,,,,,,,,,,,,,,,,,,,,,,,,
1739354338.729722,1739354338.729625,51.000000,0.000000,4375.000000,4355.897461,4398.205078,4457.820313,4336.410156,4325.897461,4324.871582,4296.922852,4303.333496,4399.743652,4617.692383,4608.333496,4435.769043,4538.717773,0.000000,1.000000,18.000000,,,,0.000000,4.000000,4.000000,4.000000,4.000000,4.000000,4.000000,4.000000,4.000000,4.000000,4.000000,4.000000,4.000000,4.000000,4.000000,100.000000,,,,,,,,,,,,,,,,,,,,,,,,,,,,,,,,,,,,,,,,,,,,,,,,,,,,,,,,,,,,,,,,,,,,,,,,,,,,,,,,,,,,,,,,,,,,,,,,,,,,,,,,,,,,,,,,,,,,,,,,,,,,,,,,,
1739354338.737530,1739354338.737433,52.000000,0.000000,4377.948730,4360.000000,4400.000000,4457.948730,4343.461426,4332.436035,4327.948730,4301.410156,4313.077148,4410.256348,4629.102539,4616.922852,4439.743652,4541.282227,0.000000,1.000000,18.000000,,,,0.000000,4.000000,4.000000,4.000000,4.000000,4.000000,4.000000,4.000000,4.000000,4.000000,4.000000,4.000000,4.000000,4.000000,4.000000,100.000000,,,,,,,,,,,,,,,,,13.000000,0.000000,0.260488,0.562439,-0.388062,0.682068,0.963497,-0.244170,0.073739,-39.456726,-26.476545,46.248260,,,,,,,,,,,,,,,,,,,,,,,,,,,,,,,,,,,,,,,,,,,,,,,,,,,,,,,,,,,,,,,,,,,,,,,,,,,,,,,,,,,,,,,,,,,,,,,,,,,,,
1739354338.745339,1739354338.745141,53.000000,0.000000,4367.051270,4353.077148,4392.820313,4447.436035,4335.384766,4327.179688,4320.641113,4295.769043,4306.025879,4406.410156,4632.307617,4608.846191,4440.641113,4531.282227,0.000000,1.000000,18.000000,,,,0.000000,4.000000,4.000000,4.000000,4.000000,4.000000,4.000000,4.000000,4.000000,4.000000,4.000000,4.000000,4.000000,4.000000,4.000000,100.000000,,,,,,,,,,,,,,,,,,,,,,,,,,,,,,,,,,,,,,,,,,,,,,,,,,,,,,,,,,,,,,,,,,,,,,,,,,,,,,,,,,,,,,,,,,,,,,,,,,,,,,,,,,,,,,,,,,,,,,,,,,,,,,,,,
1739354338.753147,1739354338.753049,54.000000,0.000000,4368.333496,4356.153809,4391.538574,4450.769043,4334.102539,4327.692383,4323.205078,4299.871582,4312.948730,4412.307617,4647.436035,4604.871582,4450.128418,4534.615234,0.000000,1.000000,18.000000,,,,0.000000,4.000000,4.000000,4.000000,4.000000,4.000000,4.000000,4.000000,4.000000,4.000000,4.000000,4.000000,4.000000,4.000000,4.000000,100.000000,,,,,,,,,,,,,,,,,,,,,,,,,,,,,,,,,,,,,,,,,,,,,,,,,,,,,,,,,,,,,,,,,,,,,,,,,,,,,,,,,,,,,,,,,,,,,,,,,,,,,,,,,,,,,,,,,,,,,,,,,,,,,,,,,
1739354338.760955,1739354338.760857,55.000000,0.000000,4367.307617,4352.307617,4387.563965,4453.333496,4337.436035,4327.948730,4326.153809,4305.512695,4315.769043,4413.461426,4655.128418,4606.538574,4443.974121,4535.384766,0.000000,1.000000,18.000000,,,,0.000000,4.000000,4.000000,4.000000,4.000000,4.000000,4.000000,4.000000,4.000000,4.000000,4.000000,4.000000,4.000000,4.000000,4.000000,100.000000,,,,,,,,,,,,,,,,,,,,,,,,,,,,,,,,,,,,,,,,,,,,,,,,,,,,,,,,,,,,,,,,,,,,,,,,,,,,,,,,,,,,,,,,,,,,,,,,,,,,,,,,,,,,,,,,,,,,,,,,,,,,,,,,,
1739354338.768763,1739354338.768765,56.000000,0.000000,4354.358887,4345.641113,4381.410156,4447.051270,4334.487305,4322.179688,4319.743652,4302.051270,4309.615234,4399.358887,4652.820313,4602.307617,4432.051270,4525.128418,0.000000,1.000000,18.000000,,,,0.000000,4.000000,4.000000,4.000000,4.000000,4.000000,4.000000,4.000000,4.000000,4.000000,4.000000,4.000000,4.000000,4.000000,4.000000,100.000000,,,,,,,,,,,,,,,,,14.000000,0.000000,0.260576,0.562134,-0.388123,0.682251,0.981077,-0.236357,0.076670,-39.444389,-26.462223,46.090103,,,,,,,,,,,,,,,,,,,,,,,,,,,,,,,,,,,,,,,,,,,,,,,,,,,,,,,,,,,,,,,,,,,,,,,,,,,,,,,,,,,,,,,,,,,,,,,,,,,,,
1739354338.776571,1739354338.776573,57.000000,0.000000,4360.256348,4359.230957,4391.922852,4457.436035,4341.282227,4335.512695,4333.846191,4298.974121,4326.666504,4407.436035,4659.615234,4602.436035,4444.487305,4531.922852,0.000000,1.000000,18.000000,,,,0.000000,4.000000,4.000000,4.000000,4.000000,4.000000,4.000000,4.000000,4.000000,4.000000,4.000000,4.000000,4.000000,4.000000,4.000000,100.000000,,,,,,,,,,,,,,,,,,,,,,,,,,,,,,,,,,,,,,,,,,,,,,,,,,,,,,,,,,,,,,,,,,,,,,,,,,,,,,,,,,,,,,,,,,,,,,,,,,,,,,,,,,,,,,,,,,,,,,,,,,,,,,,,,
1739354338.784379,1739354338.784481,58.000000,0.000000,4362.051270,4357.563965,4393.717773,4458.077148,4352.948730,4350.897461,4347.307617,4294.102539,4328.461426,4412.436035,4657.563965,4594.743652,4445.769043,4532.307617,0.000000,1.000000,18.000000,,,,0.000000,4.000000,4.000000,4.000000,4.000000,4.000000,4.000000,4.000000,4.000000,4.000000,4.000000,4.000000,4.000000,4.000000,4.000000,100.000000,,,,,,,,,,,,,,,,,,,,,,,,,,,,,,,,,,,,,,,,,,,,,,,,,,,,,,,,,,,,2.957278,1.489648,0.740487,1.092716,0.650519,3.652129,1.111198,0.559581,0.791993,0.522220,2.108855,2.036083,0.681067,0.869892,0.626472,1.811246,0.639986,0.385724,0.716231,0.659864,0.782845,0.721691,0.497597,0.285951,0.397830,0.977672,0.798234,0.407931,0.370108,0.500296,1.246690,1.031011,0.575338,0.351923,0.570244,1.442683,0.935161,0.773705,0.246756,0.285419,2.514601,1.911534,1.270911,0.636781,0.555328,1.828308,2.180828,1.580076,0.805425,0.776573,6.042583,3.888081,1.789971,1.229292,0.723024,4.795687,2.509201,1.190314,1.463592,0.894085,2.462461,2.377394,0.935722,0.975510,0.533658,2.134839,3.497578,0.834706,0.945411,0.528813
1739354338.792187,1739354338.792290,59.000000,0.000000,4339.230957,4330.769043,4375.512695,4438.461426,4347.948730,4342.820313,4337.307617,4291.282227,4306.025879,4385.641113,4656.153809,4580.000000,4423.333496,4514.230957,0.000000,1.000000,18.000000,,,,0.000000,4.000000,4.000000,4.000000,4.000000,4.000000,4.000000,4.000000,4.000000,4.000000,4.000000,4.000000,4.000000,4.000000,4.000000,100.000000,,,,,,,,,,,,,,,,,,,,,,,,,,,,,,,,,,,,,,,,,,,,,,,,,,,,,,,,,,,,,,,,,,,,,,,,,,,,,,,,,,,,,,,,,,,,,,,,,,,,,,,,,,,,,,,,,,,,,,,,,,,,,,,,,
1739354338.799995,1739354338.800198,60.000000,0.000000,4338.461426,4330.897461,4380.512695,4450.769043,4348.077148,4343.846191,4343.589844,4302.948730,4314.615234,4378.205078,4683.974121,4585.897461,4423.589844,4517.307617,0.000000,1.000000,18.000000,,,,0.000000,4.000000,4.000000,4.000000,4.000000,4.000000,4.000000,4.000000,4.000000,4.000000,4.000000,4.000000,4.000000,4.000000,4.000000,100.000000,,,,,,,,,,,,,,,,,15.000000,0.000000,0.261030,0.561829,-0.388367,0.682190,0.978635,-0.251496,0.083506,-39.466618,-26.366001,46.031090,,,,,,,,,,,,,,,,,,,,,,,,,,,,,,,,,,,,,,,,,,,,,,,,,,,,,,,,,,,,,,,,,,,,,,,,,,,,,,,,,,,,,,,,,,,,,,,,,,,,,
1739354338.807803,1739354338.808006,61.000000,0.000000,4369.871582,4356.538574,4409.487305,4481.282227,4363.974121,4366.025879,4372.820313,4314.743652,4343.846191,4408.461426,4727.692383,4615.256348,4447.820313,4542.820313,0.000000,1.000000,18.000000,,,,0.000000,4.000000,4.000000,4.000000,4.000000,4.000000,4.000000,4.000000,4.000000,4.000000,4.000000,4.000000,4.000000,4.000000,4.000000,100.000000,,,,,,,,,,,,,,,,,,,,,,,,,,,,,,,,,,,,,,,,,,,,,,,,,,,,,,,,,,,,,,,,,,,,,,,,,,,,,,,,,,,,,,,,,,,,,,,,,,,,,,,,,,,,,,,,,,,,,,,,,,,,,,,,,
1739354338.815611,1739354338.815914,62.000000,0.000000,4385.128418,4364.487305,4420.128418,4473.846191,4367.051270,4372.563965,4376.410156,4311.282227,4345.384766,4420.769043,4764.487305,4630.000000,4461.538574,4553.717773,0.000000,1.000000,18.000000,,,,0.000000,4.000000,4.000000,4.000000,4.000000,4.000000,4.000000,4.000000,4.000000,4.000000,4.000000,4.000000,4.000000,4.000000,4.000000,100.000000,,,,,,,,,,,,,,,,,,,,,,,,,,,,,,,,,,,,,,,,,,,,,,,,,,,,,,,,,,,,,,,,,,,,,,,,,,,,,,,,,,,,,,,,,,,,,,,,,,,,,,,,,,,,,,,,,,,,,,,,,,,,,,,,,
1739354338.823419,1739354338.823722,63.000000,0.000000,4395.512695,4374.871582,4428.205078,4475.256348,4373.974121,4371.666504,4365.897461,4311.410156,4348.717773,4425.000000,4802.563965,4640.128418,4475.769043,4565.512695,0.000000,1.000000,18.000000,,,,0.000000,4.000000,4.000000,4.000000,4.000000,4.000000,4.000000,4.000000,4.000000,4.000000,4.000000,4.000000,4.000000,4.000000,4.000000,100.000000,,,,,,,,,,,,,,,,,,,,,,,,,,,,,,,,,,,,,,,,,,,,,,,,,,,,,,,,,,,,,,,,,,,,,,,,,,,,,,,,,,,,,,,,,,,,,,,,,,,,,,,,,,,,,,,,,,,,,,,,,,,,,,,,,
1739354338.831227,1739354338.831630,64.000000,0.000000,4418.333496,4402.051270,4444.230957,4510.897461,4398.974121,4384.487305,4374.743652,4323.205078,4373.589844,4446.666504,4845.641113,4660.897461,4495.128418,4586.666504,5078.000000,1.000000,18.000000,,,,0.000000,4.000000,4.000000,4.000000,4.000000,4.000000,4.000000,4.000000,4.000000,4.000000,4.000000,4.000000,4.000000,4.000000,4.000000,100.000000,,,,,,,,,,,,,,,,,16.000000,0.000000,0.261186,0.561768,-0.388672,0.682007,0.968868,-0.229520,0.070321,-39.319954,-26.446068,45.977982,,,,,,,,,,,,,,,,,,,,,,,,,,,,,,,,,,,,,,,,,,,,,,,,,,,,,,,,,,,,,,,,,,,,,,,,,,,,,,,,,,,,,,,,,,,,,,,,,,,,,
1739354338.839035,1739354338.839438,65.000000,0.000000,4431.666504,4416.025879,4449.358887,4526.153809,4404.102539,4393.077148,4392.820313,4339.743652,4393.205078,4461.282227,4902.820313,4680.128418,4510.000000,4596.282227,5427.000000,1.000000,18.000000,,,,0.000000,4.000000,4.000000,4.000000,4.000000,4.000000,4.000000,4.000000,4.000000,4.000000,4.000000,4.000000,4.000000,4.000000,4.000000,100.000000,,,,,,,,,,,,,,,,,,,,,,,,,,,,,,,,,,,,,,,,,,,,,,,,,,,,,,,,,,,,,,,,,,,,,,,,,,,,,,,,,,,,,,,,,,,,,,,,,,,,,,,,,,,,,,,,,,,,,,,,,,,,,,,,,
1739354338.846844,1739354338.847246,66.000000,0.000000,4431.153809,4411.025879,4450.384766,4524.615234,4390.128418,4395.641113,4401.794922,4348.974121,4408.589844,4472.563965,4962.820313,4690.897461,4520.128418,4599.102539,5450.000000,1.000000,18.000000,,,,0.000000,4.000000,4.000000,4.000000,4.000000,4.000000,4.000000,4.000000,4.000000,4.000000,4.000000,4.000000,4.000000,4.000000,4.000000,100.000000,,,,,,,,,,,,,,,,,,,,,,,,,,,,,,,,,,,,,,,,,,,,,,,,,,,,,,,,,,,,,,,,,,,,,,,,,,,,,,,,,,,,,,,,,,,,,,,,,,,,,,,,,,,,,,,,,,,,,,,,,,,,,,,,,
1739354338.854652,1739354338.855053,67.000000,0.000000,4417.692383,4397.051270,4442.563965,4533.205078,4383.974121,4388.205078,4385.641113,4335.769043,4402.051270,4475.256348,4987.820313,4671.794922,4510.512695,4586.025879,5360.000000,1.000000,18.000000,,,,0.000000,4.000000,4.000000,4.000000,4.000000,4.000000,4.000000,4.000000,4.000000,4.000000,4.000000,4.000000,4.000000,4.000000,4.000000,100.000000,,,,,,,,,,,,,,,,,,,,,,,,,,,,,,,,,,,,,,,,,,,,,,,,,,,,,,,,,,,,,,,,,,,,,,,,,,,,,,,,,,,,,,,,,,,,,,,,,,,,,,,,,,,,,,,,,,,,,,,,,,,,,,,,,
1739354338.862460,1739354338.862762,68.000000,0.000000,4417.307617,4407.179688,4443.846191,4572.179688,4402.820313,4390.897461,4384.230957,4329.102539,4396.922852,4476.922852,5034.743652,4662.179688,4509.102539,4583.333496,5347.000000,1.000000,18.000000,,,,0.000000,4.000000,4.000000,4.000000,4.000000,4.000000,4.000000,4.000000,4.000000,4.000000,4.000000,4.000000,4.000000,4.000000,4.000000,100.000000,,,,,,,,,,,,,,,,,17.000000,0.000000,0.261187,0.561768,-0.389099,0.681763,0.975705,-0.224637,0.055183,-39.471291,-26.401461,45.963516,,,,,,,,,,,,,,,,,,,,,,,,,,,,,,,,,,,,,,,,,,,,,,,,,,,,,,,,,,,,,,,,,,,,,,,,,,,,,,,,,,,,,,,,,,,,,,,,,,,,,
1739354338.870268,1739354338.870570,69.000000,0.000000,4444.743652,4443.333496,4467.307617,4647.051270,4440.128418,4423.589844,4424.871582,4345.769043,4415.897461,4486.025879,5135.897461,4695.256348,4531.794922,4612.179688,5362.000000,1.000000,18.000000,,,,0.000000,4.000000,4.000000,4.000000,4.000000,4.000000,4.000000,4.000000,4.000000,4.000000,4.000000,4.000000,4.000000,4.000000,4.000000,100.000000,,,,,,,,,,,,,,,,,,,,,,,,,,,,,,,,,,,,,,,,,,,,,,,,,,,,,,,,,,,,,,,,,,,,,,,,,,,,,,,,,,,,,,,,,,,,,,,,,,,,,,,,,,,,,,,,,,,,,,,,,,,,,,,,,
1739354338.878076,1739354338.878278,70.000000,0.000000,4469.230957,4464.871582,4485.000000,4726.025879,4465.769043,4458.589844,4461.282227,4357.051270,4432.820313,4495.000000,5221.794922,4723.589844,4549.230957,4633.589844,5320.000000,1.000000,18.000000,,,,0.000000,4.000000,4.000000,4.000000,4.000000,4.000000,4.000000,4.000000,4.000000,4.000000,4.000000,4.000000,4.000000,4.000000,4.000000,100.000000,,,,,,,,,,,,,,,,,,,,,,,,,,,,,,,,,,,,,,,,,,,,,,,,,,,,,,,,,,,,,,,,,,,,,,,,,,,,,,,,,,,,,,,,,,,,,,,,,,,,,,,,,,,,,,,,,,,,,,,,,,,,,,,,,
1739354338.885884,1739354338.886186,71.000000,0.000000,4474.358887,4465.128418,4486.666504,4783.589844,4463.974121,4470.384766,4472.692383,4357.692383,4442.179688,4507.436035,5284.871582,4725.897461,4556.025879,4635.128418,3141.000000,1.000000,18.000000,,,,0.000000,4.000000,4.000000,4.000000,4.000000,4.000000,4.000000,4.000000,4.000000,4.000000,4.000000,4.000000,4.000000,4.000000,4.000000,100.000000,,,,,,,,,,,,,,,,,,,,,,,,,,,,,,,,,,,,,,,,,,,,,,,,,,,,,,,,,,,,,,,,,,,,,,,,,,,,,,,,,,,,,,,,,,,,,,,,,,,,,,,,,,,,,,,,,,,,,,,,,,,,,,,,,
1739354338.893692,1739354338.893994,72.000000,0.000000,4477.307617,4473.974121,4490.897461,4831.410156,4460.128418,4469.358887,4480.897461,4366.922852,4451.666504,4515.384766,5365.000000,4730.897461,4564.487305,4640.897461,5118.000000,1.000000,18.000000,,,,0.000000,4.000000,4.000000,4.000000,4.000000,4.000000,4.000000,4.000000,4.000000,4.000000,4.000000,4.000000,4.000000,4.000000,4.000000,100.000000,,,,,,,,,,,,,,,,,18.000000,0.000000,0.261402,0.561890,-0.389099,0.681580,0.961543,-0.243194,0.061531,-39.407497,-26.427982,46.000500,,,,,,,,,,,,,,,,,,,,,,,,,,,,,,,,,,,,,,,,,,,,,,,,,,,,,,,,,,,,,,,,,,,,,,,,,,,,,,,,,,,,,,,,,,,,,,,,,,,,,
1739354338.901500,1739354338.901902,73.000000,0.000000,4502.692383,4507.179688,4510.769043,4896.282227,4483.589844,4487.820313,4498.077148,4384.358887,4468.846191,4527.051270,5450.256348,4760.256348,4582.179688,4666.794922,5447.000000,1.000000,18.000000,,,,0.000000,4.000000,4.000000,4.000000,4.000000,4.000000,4.000000,4.000000,4.000000,4.000000,4.000000,4.000000,4.000000,4.000000,4.000000,100.000000,,,,,,,,,,,,,,,,,,,,,,,,,,,,,,,,,,,,,,,,,,,,,,,,,,,,,,,,,,,,,,,,,,,,,,,,,,,,,,,,,,,,,,,,,,,,,,,,,,,,,,,,,,,,,,,,,,,,,,,,,,,,,,,,,
1739354338.909308,1739354338.909710,74.000000,0.000000,4543.461426,4541.410156,4541.922852,4968.333496,4516.282227,4517.051270,4511.666504,4398.589844,4502.948730,4563.974121,5522.820313,4800.769043,4613.974121,4700.769043,4968.000000,1.000000,18.000000,,,,0.000000,4.000000,4.000000,4.000000,4.000000,4.000000,4.000000,4.000000,4.000000,4.000000,4.000000,4.000000,4.000000,4.000000,4.000000,100.000000,1.000000,0.000000,1.000000,1.000000,1.000000,0.000000,1.000000,0.000000,1.000000,3.000000,1.000000,1.000000,0.000000,1.000000,3.000000,1.000000,,,,,,,,,,,,,,,,,,,,,,,,,,,,,,,,,,,,,,,,,,,,2.776119,1.369546,0.999501,1.099862,0.485837,3.421660,0.903494,0.756251,0.759754,0.366223,1.993863,1.795411,0.912051,0.874062,0.466941,1.858828,0.671791,0.590465,0.705332,0.499050,0.667051,0.718495,0.453105,0.250082,0.300954,1.089857,0.778571,0.403756,0.273235,0.363984,0.911922,1.321129,0.581401,0.299775,0.433386,1.354831,0.795687,0.702211,0.233692,0.220119,2.274104,1.695279,0.963994,0.648555,0.405669,1.238656,1.833627,1.218822,0.865551,0.571933,4.331385,3.447883,1.761759,1.211977,0.506390,2.987016,2.132912,1.463336,1.479887,0.656057,2.069489,1.781756,1.012364,0.990406,0.384324,2.054726,3.122091,0.995577,0.989857,0.376537
1739354338.917116,1739354338.917518,75.000000,0.000000,4573.717773,4559.102539,4567.820313,5021.410156,4532.692383,4524.615234,4519.871582,4401.666504,4536.794922,4603.333496,5588.077148,4830.897461,4643.846191,4723.974121,5374.000000,1.000000,18.000000,,,,0.000000,4.000000,4.000000,4.000000,4.000000,4.000000,4.000000,4.000000,4.000000,4.000000,4.000000,4.000000,4.000000,4.000000,4.000000,100.000000,,,,,,,,,,,,,,,,,,,,,,,,,,,,,,,,,,,,,,,,,,,,,,,,,,,,,,,,,,,,,,,,,,,,,,,,,,,,,,,,,,,,,,,,,,,,,,,,,,,,,,,,,,,,,,,,,,,,,,,,,,,,,,,,,
1739354338.924924,1739354338.925226,76.000000,0.000000,4591.025879,4573.846191,4580.000000,5058.589844,4541.794922,4527.051270,4529.358887,4397.820313,4535.128418,4604.615234,5637.948730,4845.769043,4653.077148,4733.461426,5482.000000,1.000000,18.000000,,,,0.000000,4.000000,4.000000,4.000000,4.000000,4.000000,4.000000,4.000000,4.000000,4.000000,4.000000,4.000000,4.000000,4.000000,4.000000,100.000000,,,,,,,,,,,,,,,,,19.000000,0.000000,0.261713,0.562073,-0.389160,0.681274,0.952265,-0.225125,0.070809,-39.416748,-26.435183,45.933781,,,,,,,,,,,,,,,,,,,,,,,,,,,,,,,,,,,,,,,,,,,,,,,,,,,,,,,,,,,,,,,,,,,,,,,,,,,,,,,,,,,,,,,,,,,,,,,,,,,,,
1739354338.932732,1739354338.933034,77.000000,0.000000,4617.563965,4595.769043,4598.589844,5104.358887,4556.153809,4549.743652,4541.410156,4408.333496,4536.538574,4602.820313,5680.384766,4871.025879,4666.282227,4753.974121,6646.000000,1.000000,18.000000,,,,0.000000,4.000000,4.000000,4.000000,4.000000,4.000000,4.000000,4.000000,4.000000,4.000000,4.000000,4.000000,4.000000,4.000000,4.000000,100.000000,,,,,,,,,,,,,,,,,,,,,,,,,,,,,,,,,,,,,,,,,,,,,,,,,,,,,,,,,,,,,,,,,,,,,,,,,,,,,,,,,,,,,,,,,,,,,,,,,,,,,,,,,,,,,,,,,,,,,,,,,,,,,,,,,
1739354338.940540,1739354338.940743,78.000000,0.000000,4620.769043,4592.563965,4603.846191,5126.922852,4552.436035,4556.794922,4540.641113,4416.153809,4555.256348,4615.897461,5710.000000,4883.333496,4672.051270,4764.871582,4968.000000,1.000000,18.000000,,,,0.000000,4.000000,4.000000,4.000000,4.000000,4.000000,4.000000,4.000000,4.000000,4.000000,4.000000,4.000000,4.000000,4.000000,4.000000,100.000000,,,,,,,,,,,,,,,,,,,,,,,,,,,,,,,,,,,,,,,,,,,,,,,,,,,,,,,,,,,,,,,,,,,,,,,,,,,,,,,,,,,,,,,,,,,,,,,,,,,,,,,,,,,,,,,,,,,,,,,,,,,,,,,,,
1739354338.948348,1739354338.948651,79.000000,0.000000,4605.641113,4577.307617,4589.230957,5120.384766,4551.794922,4548.461426,4540.897461,4413.205078,4560.641113,4627.692383,5736.922852,4870.641113,4663.974121,4754.615234,5374.000000,1.000000,18.000000,,,,0.000000,4.000000,4.000000,4.000000,4.000000,4.000000,4.000000,4.000000,4.000000,4.000000,4.000000,4.000000,4.000000,4.000000,4.000000,100.000000,,,,,,,,,,,,,,,,,,,,,,,,,,,,,,,,,,,,,,,,,,,,,,,,,,,,,,,,,,,,,,,,,,,,,,,,,,,,,,,,,,,,,,,,,,,,,,,,,,,,,,,,,,,,,,,,,,,,,,,,,,,,,,,,,
1739354338.956157,1739354338.956459,80.000000,0.000000,4631.282227,4604.230957,4604.871582,5141.538574,4591.922852,4579.615234,4576.666504,4426.538574,4580.256348,4657.563965,5804.743652,4890.769043,4684.743652,4771.794922,5482.000000,1.000000,18.000000,,,,0.000000,4.000000,4.000000,4.000000,4.000000,4.000000,4.000000,4.000000,4.000000,4.000000,4.000000,4.000000,4.000000,4.000000,4.000000,100.000000,,,,,,,,,,,,,,,,,20.000000,0.000000,0.261708,0.562012,-0.389465,0.681152,0.986449,-0.237334,0.061043,-39.325073,-26.341665,45.773739,,,,,,,,,,,,,,,,,,,,,,,,,,,,,,,,,,,,,,,,,,,,,,,,,,,,,,,,,,,,,,,,,,,,,,,,,,,,,,,,,,,,,,,,,,,,,,,,,,,,,
1739354338.963965,1739354338.964367,81.000000,0.000000,4666.025879,4636.410156,4638.205078,5168.077148,4619.230957,4617.307617,4617.436035,4439.871582,4608.205078,4683.333496,5890.641113,4929.615234,4715.128418,4803.974121,6646.000000,1.000000,18.000000,,,,0.000000,4.000000,4.000000,4.000000,4.000000,4.000000,4.000000,4.000000,4.000000,4.000000,4.000000,4.000000,4.000000,4.000000,4.000000,100.000000,,,,,,,,,,,,,,,,,,,,,,,,,,,,,,,,,,,,,,,,,,,,,,,,,,,,,,,,,,,,,,,,,,,,,,,,,,,,,,,,,,,,,,,,,,,,,,,,,,,,,,,,,,,,,,,,,,,,,,,,,,,,,,,,,
1739354338.971773,1739354338.972175,82.000000,0.000000,4661.025879,4629.230957,4636.025879,5151.922852,4607.179688,4617.436035,4623.205078,4436.410156,4603.461426,4671.282227,5941.666504,4927.692383,4709.615234,4804.102539,4968.000000,1.000000,18.000000,,,,0.000000,4.000000,4.000000,4.000000,4.000000,4.000000,4.000000,4.000000,4.000000,4.000000,4.000000,4.000000,4.000000,4.000000,4.000000,100.000000,,,,,,,,,,,,,,,,,,,,,,,,,,,,,,,,,,,,,,,,,,,,,,,,,,,,,,,,,,,,,,,,,,,,,,,,,,,,,,,,,,,,,,,,,,,,,,,,,,,,,,,,,,,,,,,,,,,,,,,,,,,,,,,,,
1739354338.979581,1739354338.980083,83.000000,0.000000,4647.563965,4618.205078,4620.897461,5121.410156,4603.846191,4611.025879,4615.128418,4434.743652,4591.794922,4656.922852,5979.358887,4909.487305,4696.794922,4792.820313,5374.000000,1.000000,18.000000,,,,0.000000,4.000000,4.000000,4.000000,4.000000,4.000000,4.000000,4.000000,4.000000,4.000000,4.000000,4.000000,4.000000,4.000000,4.000000,100.000000,,,,,,,,,,,,,,,,,,,,,,,,,,,,,,,,,,,,,,,,,,,,,,,,,,,,,,,,,,,,,,,,,,,,,,,,,,,,,,,,,,,,,,,,,,,,,,,,,,,,,,,,,,,,,,,,,,,,,,,,,,,,,,,,,
1739354338.987389,1739354338.987891,84.000000,0.000000,4663.717773,4632.820313,4637.051270,5118.461426,4622.820313,4618.333496,4626.666504,4445.769043,4606.922852,4675.641113,6037.692383,4929.358887,4712.436035,4811.794922,5482.000000,1.000000,18.000000,,,,0.000000,4.000000,4.000000,4.000000,4.000000,4.000000,4.000000,4.000000,4.000000,4.000000,4.000000,4.000000,4.000000,4.000000,4.000000,100.000000,,,,,,,,,,,,,,,,,21.000000,0.000000,0.261957,0.562012,-0.389832,0.680847,0.964473,-0.249054,0.071298,-39.409233,-26.374165,45.713032,,,,,,,,,,,,,,,,,,,,,,,,,,,,,,,,,,,,,,,,,,,,,,,,,,,,,,,,,,,,,,,,,,,,,,,,,,,,,,,,,,,,,,,,,,,,,,,,,,,,,
1739354338.995197,1739354338.995799,85.000000,0.000000,4685.897461,4648.846191,4658.333496,5121.025879,4629.871582,4625.897461,4643.205078,4454.487305,4616.538574,4695.641113,6077.948730,4961.666504,4731.025879,4837.692383,6646.000000,1.000000,18.000000,,,,0.000000,4.000000,4.000000,4.000000,4.000000,4.000000,4.000000,4.000000,4.000000,4.000000,4.000000,4.000000,4.000000,4.000000,4.000000,100.000000,,,,,,,,,,,,,,,,,,,,,,,,,,,,,,,,,,,,,,,,,,,,,,,,,,,,,,,,,,,,,,,,,,,,,,,,,,,,,,,,,,,,,,,,,,,,,,,,,,,,,,,,,,,,,,,,,,,,,,,,,,,,,,,,,
1739354339.003005,1739354339.003607,86.000000,0.000000,4697.179688,4656.153809,4663.717773,5107.179688,4623.974121,4627.948730,4641.666504,4458.974121,4622.563965,4705.256348,6086.282227,4973.077148,4741.410156,4850.512695,4968.000000,1.000000,18.000000,,,,0.000000,4.000000,4.000000,4.000000,4.000000,4.000000,4.000000,4.000000,4.000000,4.000000,4.000000,4.000000,4.000000,4.000000,4.000000,100.000000,,,,,,,,,,,,,,,,,,,,,,,,,,,,,,,,,,,,,,,,,,,,,,,,,,,,,,,,,,,,,,,,,,,,,,,,,,,,,,,,,,,,,,,,,,,,,,,,,,,,,,,,,,,,,,,,,,,,,,,,,,,,,,,,,
1739354339.010813,1739354339.011515,87.000000,0.000000,4712.692383,4668.333496,4676.153809,5100.512695,4627.051270,4632.692383,4645.256348,4465.384766,4644.615234,4724.743652,6094.358887,4987.307617,4756.794922,4865.641113,5374.000000,1.000000,18.000000,,,,0.000000,4.000000,4.000000,4.000000,4.000000,4.000000,4.000000,4.000000,4.000000,4.000000,4.000000,4.000000,4.000000,4.000000,4.000000,100.000000,,,,,,,,,,,,,,,,,,,,,,,,,,,,,,,,,,,,,,,,,,,,,,,,,,,,,,,,,,,,,,,,,,,,,,,,,,,,,,,,,,,,,,,,,,,,,,,,,,,,,,,,,,,,,,,,,,,,,,,,,,,,,,,,,
1739354339.018621,1739354339.019423,88.000000,0.000000,4715.769043,4672.436035,4679.615234,5087.307617,4630.897461,4627.051270,4644.358887,4459.871582,4638.846191,4728.846191,6084.102539,4989.358887,4758.974121,4864.871582,5482.000000,1.000000,18.000000,,,,0.000000,4.000000,4.000000,4.000000,4.000000,4.000000,4.000000,4.000000,4.000000,4.000000,4.000000,4.000000,4.000000,4.000000,4.000000,100.000000,,,,,,,,,,,,,,,,,22.000000,0.000000,0.262466,0.561890,-0.390198,0.680542,0.956660,-0.261262,0.062508,-39.334976,-26.336748,45.758392,,,,,,,,,,,,,,,,,,,,,,,,,,,,,,,,,,,,,,,,,,,,,,,,,,,,,,,,,,,,,,,,,,,,,,,,,,,,,,,,,,,,,,,,,,,,,,,,,,,,,
1739354339.026429,1739354339.027232,89.000000,0.000000,4697.948730,4655.641113,4661.410156,5053.717773,4618.974121,4609.358887,4623.846191,4452.307617,4602.563965,4704.358887,6048.717773,4969.230957,4742.307617,4844.743652,6646.000000,1.000000,18.000000,,,,0.000000,4.000000,4.000000,4.000000,4.000000,4.000000,4.000000,4.000000,4.000000,4.000000,4.000000,4.000000,4.000000,4.000000,4.000000,100.000000,,,,,,,,,,,,,,,,,,,,,,,,,,,,,,,,,,,,,,,,,,,,,,,,,,,,,,,,,,,,,,,,,,,,,,,,,,,,,,,,,,,,,,,,,,,,,,,,,,,,,,,,,,,,,,,,,,,,,,,,,,,,,,,,,
1739354339.034237,1739354339.035040,90.000000,0.000000,4696.794922,4647.307617,4666.025879,5041.282227,4604.743652,4613.333496,4641.538574,4467.692383,4613.205078,4703.461426,6031.410156,4980.384766,4744.358887,4851.794922,4968.000000,1.000000,18.000000,,,,0.000000,4.000000,4.000000,4.000000,4.000000,4.000000,4.000000,4.000000,4.000000,4.000000,4.000000,4.000000,4.000000,4.000000,4.000000,100.000000,,,,,,,,,,,,,,,,,,,,,,,,,,,,,,,,,,,,,,,,,,,,,,,,,,,,,,,,,,,,2.688152,1.540426,1.434156,1.123161,0.367615,3.188697,0.908321,1.067187,0.752365,0.271749,2.024368,1.797998,1.289203,0.913908,0.351710,2.280642,0.845670,0.892613,0.726178,0.382654,0.736732,0.781836,0.478451,0.234988,0.237083,1.268193,0.885713,0.468619,0.218053,0.260390,0.857767,1.775665,0.646878,0.279546,0.334203,1.174305,0.678500,0.624797,0.219823,0.173748,2.101394,1.562905,0.819367,0.676901,0.308377,1.023564,1.664220,1.049260,0.939349,0.429282,4.584652,3.157568,1.838296,1.167883,0.352423,1.981203,2.149808,1.948782,1.493470,0.491945,1.689968,1.436718,1.140784,0.973828,0.288814,2.195002,3.040361,1.304576,1.051594,0.276568
