Timestamp,OriginalTimestamp,EEG.Counter,EEG.Interpolated,EEG.AF3,EEG.F7,EEG.F3,EEG.FC5,EEG.T7,EEG.P7,EEG.O1,EEG.O2,EEG.P8,EEG.T8,EEG.FC6,EEG.F4,EEG.F8,EEG.AF4,EEG.RawCq,EEG.Battery,EEG.BatteryPercent,MarkerIndex,MarkerType,MarkerValueInt,EEG.MarkerHardware,CQ.AF3,CQ.F7,CQ.F3,CQ.FC5,CQ.T7,CQ.P7,CQ.O1,CQ.O2,CQ.P8,CQ.T8,CQ.FC6,CQ.F4,CQ.F8,CQ.AF4,CQ.Overall,EQ.SampleRateQuality,EQ.OVERALL,EQ.AF3,EQ.F7,EQ.F3,EQ.FC5,EQ.T7,EQ.P7,EQ.O1,EQ.O2,EQ.P8,EQ.T8,EQ.FC6,EQ.F4,EQ.F8,EQ.AF4,MOT.CounterMems,MOT.InterpolatedMems,MOT.Q0,MOT.Q1,MOT.Q2,MOT.Q3,MOT.AccX,MOT.AccY,MOT.AccZ,MOT.MagX,MOT.MagY,MOT.MagZ,PM.Attention.IsActive,PM.Attention.Scaled,PM.Attention.Raw,PM.Attention.Min,PM.Attention.Max,PM.Engagement.IsActive,PM.Engagement.Scaled,PM.Engagement.Raw,PM.Engagement.Min,PM.Engagement.Max,PM.Excitement.IsActive,PM.Excitement.Scaled,PM.Excitement.Raw,PM.Excitement.Min,PM.Excitement.Max,PM.LongTermExcitement,PM.Stress.IsActive,PM.Stress.Scaled,PM.Stress.Raw,PM.Stress.Min,PM.Stress.Max,PM.Relaxation.IsActive,PM.Relaxation.Scaled,PM.Relaxation.Raw,PM.Relaxation.Min,PM.Relaxation.Max,PM.Interest.IsActive,PM.Interest.Scaled,PM.Interest.Raw,PM.Interest.Min,PM.Interest.Max,POW.AF3.Theta,POW.AF3.Alpha,POW.AF3.BetaL,POW.AF3.BetaH,POW.AF3.Gamma,POW.F7.Theta,POW.F7.Alpha,POW.F7.BetaL,POW.F7.BetaH,POW.F7.Gamma,POW.F3.Theta,POW.F3.Alpha,POW.F3.BetaL,POW.F3.BetaH,POW.F3.Gamma,POW.FC5.Theta,POW.FC5.Alpha,POW.FC5.BetaL,POW.FC5.BetaH,POW.FC5.Gamma,POW.T7.Theta,POW.T7.Alpha,POW.T7.BetaL,POW.T7.BetaH,POW.T7.Gamma,POW.P7.Theta,POW.P7.Alpha,POW.P7.BetaL,POW.P7.BetaH,POW.P7.Gamma,POW.O1.Theta,POW.O1.Alpha,POW.O1.BetaL,POW.O1.BetaH,POW.O1.Gamma,POW.O2.Theta,POW.O2.Alpha,POW.O2.BetaL,POW.O2.BetaH,POW.O2.Gamma,POW.P8.Theta,POW.P8.Alpha,POW.P8.BetaL,POW.P8.BetaH,POW.P8.Gamma,POW.T8.Theta,POW.T8.Alpha,POW.T8.BetaL,POW.T8.BetaH,POW.T8.Gamma,POW.FC6.Theta,POW.FC6.Alpha,POW.FC6.BetaL,POW.FC6.BetaH,POW.FC6.Gamma,POW.F4.Theta,POW.F4.Alpha,POW.F4.BetaL,POW.F4.BetaH,POW.F4.Gamma,POW.F8.Theta,POW.F8.Alpha,POW.F8.BetaL,POW.F8.BetaH,POW.F8.Gamma,POW.AF4.Theta,POW.AF4.Alpha,POW.AF4.BetaL,POW.AF4.BetaH,POW.AF4.Gamma
1739356872.514348,1739356872.514782,79.000000,0.000000,4258.461426,4235.256348,4307.563965,4300.641113,4229.358887,4219.871582,4217.692383,4272.820313,4206.538574,4199.102539,4554.743652,4509.230957,4377.948730,4483.205078,5634.000000,0.000000,9.000000,,,,0.000000,4.000000,4.000000,4.000000,4.000000,4.000000,4.000000,4.000000,4.000000,4.000000,4.000000,4.000000,4.000000,4.000000,4.000000,100.000000,,,,,,,,,,,,,,,,,,,,,,,,,,,,,,,,,,,,,,,,,,,,,,,,,,,,,,,,,,,,,,,,,,,,,,,,,,,,,,,,,,,,,,,,,,,,,,,,,,,,,,,,,,,,,,,,,,,,,,,,,,,,,,,,,
1739356872.522157,1739356872.522690,80.000000,0.000000,4252.820313,4232.820313,4301.410156,4293.974121,4226.666504,4218.461426,4219.871582,4273.333496,4204.615234,4188.461426,4550.512695,4506.025879,4379.230957,4476.922852,5683.000000,0.000000,9.000000,,,,0.000000,4.000000,4.000000,4.000000,4.000000,4.000000,4.000000,4.000000,4.000000,4.000000,4.000000,4.000000,4.000000,4.000000,4.000000,100.000000,,,,,,,,,,,,,,,,,20.000000,0.000000,0.651053,0.127686,-0.716248,0.216370,0.996215,-0.129410,-0.048834,-46.061375,-32.084911,38.623829,,,,,,,,,,,,,,,,,,,,,,,,,,,,,,,,,,,,,,,,,,,,,,,,,,,,,,,,,,,,,,,,,,,,,,,,,,,,,,,,,,,,,,,,,,,,,,,,,,,,,
1739356872.529965,1739356872.530498,81.000000,0.000000,4250.000000,4232.820313,4296.153809,4289.487305,4228.589844,4218.974121,4225.128418,4272.820313,4208.717773,4192.051270,4549.871582,4507.051270,4383.846191,4477.563965,6459.000000,0.000000,9.000000,,,,0.000000,4.000000,4.000000,4.000000,4.000000,4.000000,4.000000,4.000000,4.000000,4.000000,4.000000,4.000000,4.000000,4.000000,4.000000,100.000000,,,,,,,,,,,,,,,,,,,,,,,,,,,,,,,,,,,,,,,,,,,,,,,,,,,,,,,,,,,,,,,,,,,,,,,,,,,,,,,,,,,,,,,,,,,,,,,,,,,,,,,,,,,,,,,,,,,,,,,,,,,,,,,,,
1739356872.537773,1739356872.538406,82.000000,0.000000,4248.589844,4231.153809,4295.384766,4282.820313,4222.948730,4218.974121,4224.743652,4276.282227,4214.743652,4199.743652,4552.307617,4502.820313,4381.282227,4477.436035,4824.000000,0.000000,9.000000,,,,0.000000,4.000000,4.000000,4.000000,4.000000,4.000000,4.000000,4.000000,4.000000,4.000000,4.000000,4.000000,4.000000,4.000000,4.000000,100.000000,,,,,,,,,,,,,,,,,,,,,,,,,,,,,,,,,,,,,,,,,,,,,,,,,,,,,,,,,,,,,,,,,,,,,,,,,,,,,,,,,,,,,,,,,,,,,,,,,,,,,,,,,,,,,,,,,,,,,,,,,,,,,,,,,
1739356872.545581,1739356872.546215,83.000000,0.000000,4246.153809,4230.000000,4293.461426,4276.282227,4216.410156,4216.922852,4218.974121,4277.051270,4212.179688,4195.384766,4548.205078,4494.230957,4374.102539,4475.000000,5634.000000,0.000000,9.000000,,,,0.000000,4.000000,4.000000,4.000000,4.000000,4.000000,4.000000,4.000000,4.000000,4.000000,4.000000,4.000000,4.000000,4.000000,4.000000,100.000000,,,,,,,,,,,,,,,,,,,,,,,,,,,,,,,,,,,,,,,,,,,,,,,,,,,,,,,,,,,,,,,,,,,,,,,,,,,,,,,,,,,,,,,,,,,,,,,,,,,,,,,,,,,,,,,,,,,,,,,,,,,,,,,,,
1739356872.553389,1739356872.554123,84.000000,0.000000,4246.922852,4229.230957,4289.102539,4276.538574,4218.333496,4217.051270,4217.948730,4271.922852,4204.358887,4192.436035,4544.487305,4489.358887,4376.538574,4476.153809,5683.000000,0.000000,9.000000,,,,0.000000,4.000000,4.000000,4.000000,4.000000,4.000000,4.000000,4.000000,4.000000,4.000000,4.000000,4.000000,4.000000,4.000000,4.000000,100.000000,,,,,,,,,,,,,,,,,21.000000,0.000000,0.650972,0.127136,-0.716309,0.216736,0.987914,-0.133317,-0.050787,-46.088573,-32.176422,38.644779,,,,,,,,,,,,,,,,,,,,,,,,,,,,,,,,,,,,,,,,,,,,,,,,,,,,,,,,,,,,,,,,,,,,,,,,,,,,,,,,,,,,,,,,,,,,,,,,,,,,,
1739356872.561197,1739356872.561931,85.000000,0.000000,4248.589844,4229.871582,4289.615234,4277.436035,4218.589844,4218.846191,4220.128418,4271.282227,4203.974121,4198.717773,4550.512695,4491.410156,4387.307617,4476.666504,6459.000000,0.000000,9.000000,,,,0.000000,4.000000,4.000000,4.000000,4.000000,4.000000,4.000000,4.000000,4.000000,4.000000,4.000000,4.000000,4.000000,4.000000,4.000000,100.000000,,,,,,,,,,,,,,,,,,,,,,,,,,,,,,,,,,,,,,,,,,,,,,,,,,,,,,,,,,,,,,,,,,,,,,,,,,,,,,,,,,,,,,,,,,,,,,,,,,,,,,,,,,,,,,,,,,,,,,,,,,,,,,,,,
1739356872.569005,1739356872.569839,86.000000,0.000000,4249.102539,4231.282227,4292.948730,4272.436035,4217.563965,4218.205078,4218.589844,4275.384766,4213.077148,4204.487305,4562.563965,4499.358887,4389.871582,4479.230957,4824.000000,0.000000,9.000000,,,,0.000000,4.000000,4.000000,4.000000,4.000000,4.000000,4.000000,4.000000,4.000000,4.000000,4.000000,4.000000,4.000000,4.000000,4.000000,100.000000,,,,,,,,,,,,,,,,,,,,,,,,,,,,,,,,,,,,,,,,,,,,,,,,,,,,,,,,,,,,,,,,,,,,,,,,,,,,,,,,,,,,,,,,,,,,,,,,,,,,,,,,,,,,,,,,,,,,,,,,,,,,,,,,,
1739356872.576813,1739356872.577647,87.000000,0.000000,4251.282227,4232.179688,4293.333496,4271.666504,4219.230957,4216.410156,4217.692383,4272.948730,4220.384766,4212.307617,4573.717773,4506.538574,4389.102539,4486.153809,5634.000000,0.000000,9.000000,,,,0.000000,4.000000,4.000000,4.000000,4.000000,4.000000,4.000000,4.000000,4.000000,4.000000,4.000000,4.000000,4.000000,4.000000,4.000000,100.000000,,,,,,,,,,,,,,,,,,,,,,,,,,,,,,,,,,,,,,,,,,,,,,,,,,,,,,,,,,,,,,,,,,,,,,,,,,,,,,,,,,,,,,,,,,,,,,,,,,,,,,,,,,,,,,,,,,,,,,,,,,,,,,,,,
1739356872.584621,1739356872.585555,88.000000,0.000000,4249.230957,4232.692383,4292.051270,4275.897461,4218.974121,4217.692383,4218.205078,4272.051270,4216.794922,4216.794922,4575.256348,4506.538574,4392.948730,4483.974121,5683.000000,0.000000,9.000000,,,,0.000000,4.000000,4.000000,4.000000,4.000000,4.000000,4.000000,4.000000,4.000000,4.000000,4.000000,4.000000,4.000000,4.000000,4.000000,100.000000,,,,,,,,,,,,,,,,,22.000000,0.000000,0.650768,0.126099,-0.716492,0.217346,0.984007,-0.145526,-0.054694,-46.296383,-32.225445,38.580299,,,,,,,,,,,,,,,,,,,,,,,,,,,,,,,,1.969932,6.163153,2.217845,0.243579,0.112034,1.341855,4.974658,1.474223,0.272832,0.121700,1.496741,3.253361,1.444706,0.370759,0.094078,0.786531,3.336974,1.526557,0.336469,0.102326,0.446802,0.663744,0.620142,0.082653,0.061803,0.361211,1.043899,0.278980,0.076588,0.071763,1.200176,2.473388,0.759157,0.068680,0.092167,0.169495,0.688025,0.124893,0.061512,0.037421,1.077667,4.506975,1.660277,0.406494,0.121880,1.093068,5.699529,2.082933,0.403907,0.146338,2.620296,7.027601,2.243778,0.412395,0.149639,2.062543,8.170617,3.516871,0.426007,0.146159,0.937075,4.222441,1.480840,0.245445,0.117687,1.983958,6.350065,2.137909,0.288069,0.168461
1739356872.592429,1739356872.593363,89.000000,0.000000,4249.102539,4234.743652,4292.563965,4277.820313,4222.436035,4224.615234,4223.333496,4275.384766,4214.102539,4215.128418,4573.717773,4507.563965,4391.794922,4482.436035,6459.000000,0.000000,9.000000,,,,0.000000,4.000000,4.000000,4.000000,4.000000,4.000000,4.000000,4.000000,4.000000,4.000000,4.000000,4.000000,4.000000,4.000000,4.000000,100.000000,,,,,,,,,,,,,,,,,,,,,,,,,,,,,,,,,,,,,,,,,,,,,,,,,,,,,,,,,,,,,,,,,,,,,,,,,,,,,,,,,,,,,,,,,,,,,,,,,,,,,,,,,,,,,,,,,,,,,,,,,,,,,,,,,
1739356872.600237,1739356872.601271,90.000000,0.000000,4257.051270,4235.897461,4295.000000,4279.487305,4231.922852,4229.487305,4228.461426,4274.871582,4217.820313,4216.666504,4579.102539,4511.794922,4387.820313,4486.666504,4824.000000,0.000000,9.000000,,,,0.000000,4.000000,4.000000,4.000000,4.000000,4.000000,4.000000,4.000000,4.000000,4.000000,4.000000,4.000000,4.000000,4.000000,4.000000,100.000000,,,,,,,,,,,,,,,,,,,,,,,,,,,,,,,,,,,,,,,,,,,,,,,,,,,,,,,,,,,,,,,,,,,,,,,,,,,,,,,,,,,,,,,,,,,,,,,,,,,,,,,,,,,,,,,,,,,,,,,,,,,,,,,,,
1739356872.608045,1739356872.609079,91.000000,0.000000,4259.358887,4233.974121,4295.512695,4281.410156,4230.128418,4226.410156,4222.692383,4272.948730,4217.820313,4210.256348,4580.641113,4506.538574,4389.230957,4482.179688,5634.000000,0.000000,9.000000,,,,0.000000,4.000000,4.000000,4.000000,4.000000,4.000000,4.000000,4.000000,4.000000,4.000000,4.000000,4.000000,4.000000,4.000000,4.000000,100.000000,,,,,,,,,,,,,,,,,,,,,,,,,,,,,,,,,,,,,,,,,,,,,,,,,,,,,,,,,,,,,,,,,,,,,,,,,,,,,,,,,,,,,,,,,,,,,,,,,,,,,,,,,,,,,,,,,,,,,,,,,,,,,,,,,
1739356872.615853,1739356872.616787,92.000000,0.000000,4250.897461,4233.717773,4294.102539,4280.641113,4219.615234,4220.641113,4216.153809,4270.512695,4215.512695,4199.230957,4571.153809,4499.487305,4387.948730,4475.897461,5683.000000,0.000000,9.000000,,,,0.000000,4.000000,4.000000,4.000000,4.000000,4.000000,4.000000,4.000000,4.000000,4.000000,4.000000,4.000000,4.000000,4.000000,4.000000,100.000000,,,,,,,,,,,,,,,,,23.000000,0.000000,0.650440,0.125000,-0.716797,0.217957,0.979612,-0.132340,-0.054694,-46.300076,-32.102901,38.522270,,,,,,,,,,,,,,,,,,,,,,,,,,,,,,,,,,,,,,,,,,,,,,,,,,,,,,,,,,,,,,,,,,,,,,,,,,,,,,,,,,,,,,,,,,,,,,,,,,,,,
1739356872.623662,1739356872.624595,93.000000,0.000000,4247.948730,4234.230957,4291.666504,4277.307617,4215.897461,4217.563965,4216.666504,4273.205078,4217.436035,4205.512695,4567.692383,4502.820313,4387.948730,4483.717773,6459.000000,0.000000,9.000000,,,,0.000000,4.000000,4.000000,4.000000,4.000000,4.000000,4.000000,4.000000,4.000000,4.000000,4.000000,4.000000,4.000000,4.000000,4.000000,100.000000,,,,,,,,,,,,,,,,,,,,,,,,,,,,,,,,,,,,,,,,,,,,,,,,,,,,,,,,,,,,,,,,,,,,,,,,,,,,,,,,,,,,,,,,,,,,,,,,,,,,,,,,,,,,,,,,,,,,,,,,,,,,,,,,,
1739356872.631470,1739356872.632303,94.000000,0.000000,4256.410156,4234.358887,4294.487305,4278.077148,4217.563965,4217.179688,4216.666504,4279.487305,4222.051270,4217.820313,4576.794922,4507.692383,4394.615234,4493.589844,4824.000000,0.000000,9.000000,,,,0.000000,4.000000,4.000000,4.000000,4.000000,4.000000,4.000000,4.000000,4.000000,4.000000,4.000000,4.000000,4.000000,4.000000,4.000000,100.000000,,,,,,,,,,,,,,,,,,,,,,,,,,,,,,,,,,,,,,,,,,,,,,,,,,,,,,,,,,,,,,,,,,,,,,,,,,,,,,,,,,,,,,,,,,,,,,,,,,,,,,,,,,,,,,,,,,,,,,,,,,,,,,,,,
1739356872.639278,1739356872.640111,95.000000,0.000000,4262.948730,4235.641113,4301.794922,4280.384766,4217.307617,4218.846191,4217.051270,4278.077148,4221.538574,4217.948730,4583.461426,4507.179688,4397.307617,4492.179688,5634.000000,0.000000,9.000000,,,,0.000000,4.000000,4.000000,4.000000,4.000000,4.000000,4.000000,4.000000,4.000000,4.000000,4.000000,4.000000,4.000000,4.000000,4.000000,100.000000,,,,,,,,,,,,,,,,,,,,,,,,,,,,,,,,,,,,,,,,,,,,,,,,,,,,,,,,,,,,,,,,,,,,,,,,,,,,,,,,,,,,,,,,,,,,,,,,,,,,,,,,,,,,,,,,,,,,,,,,,,,,,,,,,
1739356872.647086,1739356872.647819,96.000000,0.000000,4261.794922,4235.897461,4301.282227,4280.000000,4218.077148,4219.358887,4218.974121,4272.692383,4217.051270,4211.025879,4579.358887,4505.641113,4396.025879,4493.205078,5683.000000,0.000000,9.000000,,,,0.000000,4.000000,4.000000,4.000000,4.000000,4.000000,4.000000,4.000000,4.000000,4.000000,4.000000,4.000000,4.000000,4.000000,4.000000,100.000000,,,,,,,,,,,,,,,,,24.000000,0.000000,0.650308,0.124451,-0.716919,0.218262,0.982542,-0.148944,-0.048834,-46.153400,-32.092609,38.670044,,,,,,,,,,,,,,,,,,,,,,,,,,,,,,,,,,,,,,,,,,,,,,,,,,,,,,,,,,,,,,,,,,,,,,,,,,,,,,,,,,,,,,,,,,,,,,,,,,,,,
1739356872.654894,1739356872.655627,97.000000,0.000000,4255.641113,4233.461426,4294.358887,4279.102539,4217.692383,4217.563965,4218.077148,4273.333496,4215.000000,4205.641113,4571.666504,4505.641113,4396.922852,4493.205078,6459.000000,0.000000,9.000000,,,,0.000000,4.000000,4.000000,4.000000,4.000000,4.000000,4.000000,4.000000,4.000000,4.000000,4.000000,4.000000,4.000000,4.000000,4.000000,100.000000,,,,,,,,,,,,,,,,,,,,,,,,,,,,,,,,,,,,,,,,,,,,,,,,,,,,,,,,,,,,,,,,,,,,,,,,,,,,,,,,,,,,,,,,,,,,,,,,,,,,,,,,,,,,,,,,,,,,,,,,,,,,,,,,,
1739356872.662702,1739356872.663335,98.000000,0.000000,4251.794922,4231.538574,4293.846191,4277.436035,4215.000000,4216.410156,4217.820313,4279.230957,4216.538574,4210.000000,4571.922852,4504.487305,4397.436035,4489.102539,4824.000000,0.000000,9.000000,,,,0.000000,4.000000,4.000000,4.000000,4.000000,4.000000,4.000000,4.000000,4.000000,4.000000,4.000000,4.000000,4.000000,4.000000,4.000000,100.000000,,,,,,,,,,,,,,,,,,,,,,,,,,,,,,,,,,,,,,,,,,,,,,,,,,,,,,,,,,,,,,,,,,,,,,,,,,,,,,,,,,,,,,,,,,,,,,,,,,,,,,,,,,,,,,,,,,,,,,,,,,,,,,,,,
1739356872.670510,1739356872.671143,99.000000,0.000000,4250.769043,4231.025879,4297.820313,4276.025879,4217.051270,4217.820313,4218.589844,4278.205078,4218.461426,4214.743652,4572.692383,4501.410156,4396.410156,4488.333496,5634.000000,0.000000,9.000000,,,,0.000000,4.000000,4.000000,4.000000,4.000000,4.000000,4.000000,4.000000,4.000000,4.000000,4.000000,4.000000,4.000000,4.000000,4.000000,100.000000,,,,,,,,,,,,,,,,,,,,,,,,,,,,,,,,,,,,,,,,,,,,,,,,,,,,,,,,,,,,,,,,,,,,,,,,,,,,,,,,,,,,,,,,,,,,,,,,,,,,,,,,,,,,,,,,,,,,,,,,,,,,,,,,,
1739356872.678318,1739356872.678851,100.000000,0.000000,4248.333496,4228.589844,4295.384766,4277.820313,4221.153809,4220.512695,4218.974121,4272.948730,4216.538574,4208.205078,4566.153809,4495.000000,4395.000000,4489.615234,5683.000000,0.000000,9.000000,,,,0.000000,4.000000,4.000000,4.000000,4.000000,4.000000,4.000000,4.000000,4.000000,4.000000,4.000000,4.000000,4.000000,4.000000,4.000000,100.000000,,,,,,,,,,,,,,,,,25.000000,0.000000,0.649921,0.123535,-0.717224,0.218933,0.988402,-0.146014,-0.057624,-46.154728,-32.116684,38.553040,,,,,,,,,,,,,,,,,,,,,,,,,,,,,,,,,,,,,,,,,,,,,,,,,,,,,,,,,,,,,,,,,,,,,,,,,,,,,,,,,,,,,,,,,,,,,,,,,,,,,
1739356872.686126,1739356872.686659,101.000000,0.000000,4251.153809,4229.871582,4296.282227,4278.589844,4218.589844,4220.128418,4218.333496,4270.897461,4211.153809,4198.846191,4563.589844,4491.538574,4392.692383,4489.358887,6459.000000,0.000000,9.000000,,,,0.000000,4.000000,4.000000,4.000000,4.000000,4.000000,4.000000,4.000000,4.000000,4.000000,4.000000,4.000000,4.000000,4.000000,4.000000,100.000000,,,,,,,,,,,,,,,,,,,,,,,,,,,,,,,,,,,,,,,,,,,,,,,,,,,,,,,,,,,,,,,,,,,,,,,,,,,,,,,,,,,,,,,,,,,,,,,,,,,,,,,,,,,,,,,,,,,,,,,,,,,,,,,,,
1739356872.693934,1739356872.694367,102.000000,0.000000,4262.948730,4240.384766,4306.922852,4280.000000,4217.179688,4218.589844,4219.487305,4266.410156,4212.820313,4200.897461,4570.128418,4498.846191,4392.820313,4493.205078,4824.000000,0.000000,9.000000,,,,0.000000,4.000000,4.000000,4.000000,4.000000,4.000000,4.000000,4.000000,4.000000,4.000000,4.000000,4.000000,4.000000,4.000000,4.000000,100.000000,,,,,,,,,,,,,,,,,,,,,,,,,,,,,,,,,,,,,,,,,,,,,,,,,,,,,,,,,,,,,,,,,,,,,,,,,,,,,,,,,,,,,,,,,,,,,,,,,,,,,,,,,,,,,,,,,,,,,,,,,,,,,,,,,
1739356872.701742,1739356872.702175,103.000000,0.000000,4273.461426,4249.743652,4314.743652,4288.333496,4225.000000,4219.871582,4224.615234,4261.282227,4219.358887,4210.512695,4573.077148,4508.846191,4396.922852,4500.000000,5634.000000,0.000000,9.000000,,,,0.000000,4.000000,4.000000,4.000000,4.000000,4.000000,4.000000,4.000000,4.000000,4.000000,4.000000,4.000000,4.000000,4.000000,4.000000,100.000000,,,,,,,,,,,,,,,,,,,,,,,,,,,,,,,,,,,,,,,,,,,,,,,,,,,,,,,,,,,,,,,,,,,,,,,,,,,,,,,,,,,,,,,,,,,,,,,,,,,,,,,,,,,,,,,,,,,,,,,,,,,,,,,,,
1739356872.709551,1739356872.709883,104.000000,0.000000,4272.051270,4248.974121,4313.974121,4298.333496,4229.871582,4219.615234,4224.230957,4266.666504,4221.025879,4215.641113,4572.179688,4508.974121,4398.974121,4502.307617,5683.000000,0.000000,9.000000,,,,0.000000,4.000000,4.000000,4.000000,4.000000,4.000000,4.000000,4.000000,4.000000,4.000000,4.000000,4.000000,4.000000,4.000000,4.000000,100.000000,,,,,,,,,,,,,,,,,26.000000,0.000000,0.649447,0.122925,-0.717590,0.219482,0.995239,-0.155292,-0.053717,-46.222588,-32.255016,38.497734,,,,,,,,,,,,,,,,,,,,,,,,,,,,,,,,1.683195,4.601204,2.118323,0.240080,0.119773,1.157061,3.836350,1.394515,0.275563,0.118253,1.363034,2.828397,1.379132,0.405061,0.097743,0.548964,2.709404,1.420929,0.374817,0.100179,0.407964,0.735828,0.532891,0.087566,0.060943,0.304912,0.947958,0.273823,0.073957,0.081216,1.055683,2.309521,0.766415,0.064705,0.095692,0.137907,0.637628,0.149300,0.061622,0.035077,0.940305,3.760576,1.683381,0.451769,0.114576,0.982969,4.664572,1.970349,0.407033,0.152219,3.221721,5.770773,2.063611,0.398493,0.149546,1.870720,6.758317,3.357939,0.404062,0.140837,0.825359,3.114175,1.425603,0.260853,0.117719,1.759273,4.893646,2.010186,0.283171,0.189379
1739356872.717358,1739356872.717691,105.000000,0.000000,4267.179688,4246.794922,4311.666504,4294.487305,4222.436035,4216.410156,4214.871582,4277.948730,4222.307617,4217.948730,4578.589844,4505.897461,4398.846191,4503.717773,6459.000000,0.000000,9.000000,,,,0.000000,4.000000,4.000000,4.000000,4.000000,4.000000,4.000000,4.000000,4.000000,4.000000,4.000000,4.000000,4.000000,4.000000,4.000000,100.000000,,,,,,,,,,,,,,,,,,,,,,,,,,,,,,,,,,,,,,,,,,,,,,,,,,,,,,,,,,,,,,,,,,,,,,,,,,,,,,,,,,,,,,,,,,,,,,,,,,,,,,,,,,,,,,,,,,,,,,,,,,,,,,,,,
1739356872.725167,1739356872.725399,106.000000,0.000000,4265.000000,4246.794922,4311.666504,4283.077148,4216.538574,4216.025879,4216.153809,4281.025879,4223.974121,4218.589844,4583.205078,4506.410156,4400.256348,4505.897461,4824.000000,0.000000,9.000000,,,,0.000000,4.000000,4.000000,4.000000,4.000000,4.000000,4.000000,4.000000,4.000000,4.000000,4.000000,4.000000,4.000000,4.000000,4.000000,100.000000,,,,,,,,,,,,,,,,,,,,,,,,,,,,,,,,,,,,,,,,,,,,,,,,,,,,,,,,,,,,,,,,,,,,,,,,,,,,,,,,,,,,,,,,,,,,,,,,,,,,,,,,,,,,,,,,,,,,,,,,,,,,,,,,,
1739356872.732975,1739356872.733307,107.000000,0.000000,4257.692383,4238.846191,4304.487305,4278.974121,4217.307617,4218.077148,4225.128418,4278.333496,4221.025879,4213.717773,4572.948730,4495.897461,4393.205078,4498.205078,5634.000000,0.000000,9.000000,,,,0.000000,4.000000,4.000000,4.000000,4.000000,4.000000,4.000000,4.000000,4.000000,4.000000,4.000000,4.000000,4.000000,4.000000,4.000000,100.000000,,,,,,,,,,,,,,,,,,,,,,,,,,,,,,,,,,,,,,,,,,,,,,,,,,,,,,,,,,,,,,,,,,,,,,,,,,,,,,,,,,,,,,,,,,,,,,,,,,,,,,,,,,,,,,,,,,,,,,,,,,,,,,,,,
1739356872.740783,1739356872.741116,108.000000,0.000000,4246.794922,4224.487305,4291.922852,4277.307617,4217.179688,4218.974121,4223.589844,4274.230957,4212.307617,4201.025879,4556.282227,4476.025879,4374.871582,4478.974121,5683.000000,0.000000,9.000000,,,,0.000000,4.000000,4.000000,4.000000,4.000000,4.000000,4.000000,4.000000,4.000000,4.000000,4.000000,4.000000,4.000000,4.000000,4.000000,100.000000,,,,,,,,,,,,,,,,,27.000000,0.000000,0.649343,0.122681,-0.717651,0.219727,0.971798,-0.155781,-0.053717,-46.300331,-32.179512,38.514629,,,,,,,,,,,,,,,,,,,,,,,,,,,,,,,,,,,,,,,,,,,,,,,,,,,,,,,,,,,,,,,,,,,,,,,,,,,,,,,,,,,,,,,,,,,,,,,,,,,,,
1739356872.748591,1739356872.749024,109.000000,0.000000,4241.538574,4221.666504,4287.436035,4275.000000,4214.487305,4217.563965,4222.563965,4267.692383,4207.051270,4194.358887,4550.128418,4468.717773,4371.410156,4470.897461,6459.000000,0.000000,9.000000,,,,0.000000,4.000000,4.000000,4.000000,4.000000,4.000000,4.000000,4.000000,4.000000,4.000000,4.000000,4.000000,4.000000,4.000000,4.000000,100.000000,,,,,,,,,,,,,,,,,,,,,,,,,,,,,,,,,,,,,,,,,,,,,,,,,,,,,,,,,,,,,,,,,,,,,,,,,,,,,,,,,,,,,,,,,,,,,,,,,,,,,,,,,,,,,,,,,,,,,,,,,,,,,,,,,
1739356872.756399,1739356872.756832,110.000000,0.000000,4246.282227,4228.205078,4293.077148,4276.025879,4215.128418,4217.051270,4225.000000,4265.256348,4209.487305,4203.717773,4555.512695,4476.282227,4388.717773,4482.436035,4824.000000,0.000000,9.000000,,,,0.000000,4.000000,4.000000,4.000000,4.000000,4.000000,4.000000,4.000000,4.000000,4.000000,4.000000,4.000000,4.000000,4.000000,4.000000,100.000000,,,,,,,,,,,,,,,,,,,,,,,,,,,,,,,,,,,,,,,,,,,,,,,,,,,,,,,,,,,,,,,,,,,,,,,,,,,,,,,,,,,,,,,,,,,,,,,,,,,,,,,,,,,,,,,,,,,,,,,,,,,,,,,,,
1739356872.764207,1739356872.764740,111.000000,0.000000,4255.897461,4230.897461,4300.641113,4282.179688,4224.743652,4222.820313,4220.897461,4267.692383,4216.410156,4214.487305,4565.641113,4485.512695,4401.666504,4492.948730,5634.000000,0.000000,9.000000,,,,0.000000,4.000000,4.000000,4.000000,4.000000,4.000000,4.000000,4.000000,4.000000,4.000000,4.000000,4.000000,4.000000,4.000000,4.000000,100.000000,,,,,,,,,,,,,,,,,,,,,,,,,,,,,,,,,,,,,,,,,,,,,,,,,,,,,,,,,,,,,,,,,,,,,,,,,,,,,,,,,,,,,,,,,,,,,,,,,,,,,,,,,,,,,,,,,,,,,,,,,,,,,,,,,
1739356872.772015,1739356872.772548,112.000000,0.000000,4265.256348,4232.563965,4306.794922,4289.358887,4233.077148,4226.794922,4217.948730,4270.128418,4220.769043,4216.153809,4579.615234,4490.641113,4403.333496,4496.410156,5683.000000,0.000000,9.000000,,,,0.000000,4.000000,4.000000,4.000000,4.000000,4.000000,4.000000,4.000000,4.000000,4.000000,4.000000,4.000000,4.000000,4.000000,4.000000,100.000000,,,,,,,,,,,,,,,,,28.000000,0.000000,0.649220,0.122620,-0.717773,0.219727,0.986449,-0.159199,-0.059578,-46.320297,-32.278229,38.413166,,,,,,,,,,,,,,,,,,,,,,,,,,,,,,,,,,,,,,,,,,,,,,,,,,,,,,,,,,,,,,,,,,,,,,,,,,,,,,,,,,,,,,,,,,,,,,,,,,,,,
1739356872.779823,1739356872.780456,113.000000,0.000000,4267.179688,4233.974121,4308.846191,4290.641113,4227.179688,4220.897461,4217.179688,4268.974121,4219.358887,4217.051270,4585.256348,4490.256348,4405.512695,4499.615234,6459.000000,0.000000,9.000000,,,,0.000000,4.000000,4.000000,4.000000,4.000000,4.000000,4.000000,4.000000,4.000000,4.000000,4.000000,4.000000,4.000000,4.000000,4.000000,100.000000,,,,,,,,,,,,,,,,,,,,,,,,,,,,,,,,,,,,,,,,,,,,,,,,,,,,,,,,,,,,,,,,,,,,,,,,,,,,,,,,,,,,,,,,,,,,,,,,,,,,,,,,,,,,,,,,,,,,,,,,,,,,,,,,,
1739356872.787631,1739356872.788264,114.000000,0.000000,4266.538574,4234.487305,4309.743652,4288.846191,4220.000000,4214.615234,4216.666504,4269.102539,4221.538574,4225.512695,4583.974121,4492.948730,4408.846191,4503.974121,4824.000000,0.000000,9.000000,,,,0.000000,4.000000,4.000000,4.000000,4.000000,4.000000,4.000000,4.000000,4.000000,4.000000,4.000000,4.000000,4.000000,4.000000,4.000000,100.000000,,,,,,,,,,,,,,,,,,,,,,,,,,,,,,,,,,,,,,,,,,,,,,,,,,,,,,,,,,,,,,,,,,,,,,,,,,,,,,,,,,,,,,,,,,,,,,,,,,,,,,,,,,,,,,,,,,,,,,,,,,,,,,,,,
1739356872.795439,1739356872.796172,115.000000,0.000000,4276.410156,4239.230957,4320.769043,4292.436035,4224.743652,4220.769043,4226.025879,4280.384766,4236.538574,4236.153809,4594.615234,4512.436035,4418.974121,4512.692383,5634.000000,0.000000,9.000000,,,,0.000000,4.000000,4.000000,4.000000,4.000000,4.000000,4.000000,4.000000,4.000000,4.000000,4.000000,4.000000,4.000000,4.000000,4.000000,100.000000,,,,,,,,,,,,,,,,,,,,,,,,,,,,,,,,,,,,,,,,,,,,,,,,,,,,,,,,,,,,,,,,,,,,,,,,,,,,,,,,,,,,,,,,,,,,,,,,,,,,,,,,,,,,,,,,,,,,,,,,,,,,,,,,,
1739356872.803247,1739356872.803980,116.000000,0.000000,4283.333496,4248.077148,4331.410156,4299.743652,4231.282227,4231.794922,4238.717773,4294.230957,4255.000000,4243.846191,4609.358887,4528.589844,4429.487305,4521.410156,5683.000000,0.000000,9.000000,,,,0.000000,4.000000,4.000000,4.000000,4.000000,4.000000,4.000000,4.000000,4.000000,4.000000,4.000000,4.000000,4.000000,4.000000,4.000000,100.000000,,,,,,,,,,,,,,,,,29.000000,0.000000,0.649077,0.122986,-0.717896,0.219543,0.980100,-0.148944,-0.060554,-46.238266,-32.400406,38.338516,,,,,,,,,,,,,,,,,,,,,,,,,,,,,,,,,,,,,,,,,,,,,,,,,,,,,,,,,,,,,,,,,,,,,,,,,,,,,,,,,,,,,,,,,,,,,,,,,,,,,
1739356872.811056,1739356872.811888,117.000000,0.000000,4273.589844,4244.358887,4323.205078,4294.102539,4226.538574,4228.846191,4238.589844,4290.000000,4252.563965,4246.538574,4602.307617,4519.230957,4420.512695,4514.487305,6459.000000,0.000000,9.000000,,,,0.000000,4.000000,4.000000,4.000000,4.000000,4.000000,4.000000,4.000000,4.000000,4.000000,4.000000,4.000000,4.000000,4.000000,4.000000,100.000000,,,,,,,,,,,,,,,,,,,,,,,,,,,,,,,,,,,,,,,,,,,,,,,,,,,,,,,,,,,,,,,,,,,,,,,,,,,,,,,,,,,,,,,,,,,,,,,,,,,,,,,,,,,,,,,,,,,,,,,,,,,,,,,,,
1739356872.818864,1739356872.819696,118.000000,0.000000,4261.153809,4231.794922,4308.717773,4281.410156,4218.205078,4218.717773,4234.871582,4278.077148,4237.563965,4236.666504,4584.487305,4501.153809,4406.153809,4498.077148,4824.000000,0.000000,9.000000,,,,0.000000,4.000000,4.000000,4.000000,4.000000,4.000000,4.000000,4.000000,4.000000,4.000000,4.000000,4.000000,4.000000,4.000000,4.000000,100.000000,,,,,,,,,,,,,,,,,,,,,,,,,,,,,,,,,,,,,,,,,,,,,,,,,,,,,,,,,,,,,,,,,,,,,,,,,,,,,,,,,,,,,,,,,,,,,,,,,,,,,,,,,,,,,,,,,,,,,,,,,,,,,,,,,
1739356872.826672,1739356872.827404,119.000000,0.000000,4257.692383,4228.846191,4304.358887,4280.128418,4222.179688,4221.410156,4233.077148,4274.358887,4232.692383,4220.000000,4575.128418,4489.102539,4400.897461,4489.487305,5634.000000,0.000000,9.000000,,,,0.000000,4.000000,4.000000,4.000000,4.000000,4.000000,4.000000,4.000000,4.000000,4.000000,4.000000,4.000000,4.000000,4.000000,4.000000,100.000000,,,,,,,,,,,,,,,,,,,,,,,,,,,,,,,,,,,,,,,,,,,,,,,,,,,,,,,,,,,,,,,,,,,,,,,,,,,,,,,,,,,,,,,,,,,,,,,,,,,,,,,,,,,,,,,,,,,,,,,,,,,,,,,,,
1739356872.834480,1739356872.835212,120.000000,0.000000,4259.487305,4234.871582,4305.897461,4289.230957,4235.256348,4232.307617,4231.666504,4265.512695,4228.077148,4212.051270,4570.384766,4482.436035,4399.230957,4486.794922,5683.000000,0.000000,9.000000,,,,0.000000,4.000000,4.000000,4.000000,4.000000,4.000000,4.000000,4.000000,4.000000,4.000000,4.000000,4.000000,4.000000,4.000000,4.000000,100.000000,,,,,,,,,,,,,,,,,30.000000,0.000000,0.649049,0.123352,-0.717896,0.219421,0.969845,-0.144549,-0.066414,-46.114441,-32.377033,38.187996,,,,,,,,,,,,,,,,,,,,,,,,,,,,,,,,1.438061,3.316888,1.878470,0.228475,0.124567,0.946118,3.008890,1.220110,0.267501,0.114129,1.245348,2.490103,1.248171,0.418058,0.101910,0.389283,2.336301,1.253923,0.401649,0.096813,0.375419,0.853548,0.437546,0.093117,0.063475,0.257085,0.790353,0.260228,0.067869,0.090419,0.898753,1.919849,0.746274,0.067457,0.095723,0.110960,0.549022,0.172538,0.058604,0.033695,0.801990,2.884186,1.629339,0.472477,0.109776,0.886367,3.450927,1.771428,0.402029,0.166475,3.773603,4.344808,1.714015,0.370391,0.147661,1.736692,5.280198,2.967534,0.368298,0.132875,0.801978,2.046515,1.254457,0.261535,0.125839,1.488935,3.644233,1.755792,0.284554,0.208253
1739356872.842288,1739356872.842920,121.000000,0.000000,4261.282227,4238.461426,4305.769043,4297.051270,4238.461426,4233.717773,4229.615234,4257.436035,4218.333496,4216.794922,4569.230957,4485.000000,4398.846191,4487.563965,6459.000000,0.000000,9.000000,,,,0.000000,4.000000,4.000000,4.000000,4.000000,4.000000,4.000000,4.000000,4.000000,4.000000,4.000000,4.000000,4.000000,4.000000,4.000000,100.000000,,,,,,,,,,,,,,,,,,,,,,,,,,,,,,,,,,,,,,,,,,,,,,,,,,,,,,,,,,,,,,,,,,,,,,,,,,,,,,,,,,,,,,,,,,,,,,,,,,,,,,,,,,,,,,,,,,,,,,,,,,,,,,,,,
1739356872.850096,1739356872.850728,122.000000,0.000000,4259.230957,4235.128418,4301.922852,4290.769043,4232.307617,4225.641113,4224.230957,4268.589844,4211.666504,4216.025879,4570.256348,4488.846191,4398.461426,4490.000000,4824.000000,0.000000,9.000000,,,,0.000000,4.000000,4.000000,4.000000,4.000000,4.000000,4.000000,4.000000,4.000000,4.000000,4.000000,4.000000,4.000000,4.000000,4.000000,100.000000,,,,,,,,,,,,,,,,,,,,,,,,,,,,,,,,,,,,,,,,,,,,,,,,,,,,,,,,,,,,,,,,,,,,,,,,,,,,,,,,,,,,,,,,,,,,,,,,,,,,,,,,,,,,,,,,,,,,,,,,,,,,,,,,,
1739356872.857904,1739356872.858436,123.000000,0.000000,4250.512695,4230.897461,4298.589844,4280.128418,4227.307617,4218.589844,4219.102539,4281.922852,4210.641113,4206.282227,4570.897461,4485.897461,4394.615234,4488.846191,5634.000000,0.000000,9.000000,,,,0.000000,4.000000,4.000000,4.000000,4.000000,4.000000,4.000000,4.000000,4.000000,4.000000,4.000000,4.000000,4.000000,4.000000,4.000000,100.000000,,,,,,,,,,,,,,,,,,,,,,,,,,,,,,,,,,,,,,,,,,,,,,,,,,,,,,,,,,,,,,,,,,,,,,,,,,,,,,,,,,,,,,,,,,,,,,,,,,,,,,,,,,,,,,,,,,,,,,,,,,,,,,,,,
1739356872.865712,1739356872.866244,124.000000,0.000000,4247.436035,4232.051270,4300.897461,4278.077148,4221.666504,4217.436035,4218.974121,4283.205078,4219.871582,4208.846191,4579.743652,4486.794922,4394.615234,4487.307617,5683.000000,0.000000,9.000000,,,,0.000000,4.000000,4.000000,4.000000,4.000000,4.000000,4.000000,4.000000,4.000000,4.000000,4.000000,4.000000,4.000000,4.000000,4.000000,100.000000,,,,,,,,,,,,,,,,,31.000000,0.000000,0.649185,0.123779,-0.717773,0.219177,0.987914,-0.159199,-0.068856,-46.136330,-32.439327,38.252533,,,,,,,,,,,,,,,,,,,,,,,,,,,,,,,,,,,,,,,,,,,,,,,,,,,,,,,,,,,,,,,,,,,,,,,,,,,,,,,,,,,,,,,,,,,,,,,,,,,,,
1739356872.873520,1739356872.873952,125.000000,0.000000,4257.051270,4233.589844,4306.153809,4280.897461,4217.179688,4220.384766,4223.461426,4284.487305,4232.563965,4224.230957,4591.153809,4492.051270,4401.922852,4489.743652,6459.000000,0.000000,9.000000,,,,0.000000,4.000000,4.000000,4.000000,4.000000,4.000000,4.000000,4.000000,4.000000,4.000000,4.000000,4.000000,4.000000,4.000000,4.000000,100.000000,,,,,,,,,,,,,,,,,,,,,,,,,,,,,,,,,,,,,,,,,,,,,,,,,,,,,,,,,,,,,,,,,,,,,,,,,,,,,,,,,,,,,,,,,,,,,,,,,,,,,,,,,,,,,,,,,,,,,,,,,,,,,,,,,
1739356872.881328,1739356872.881760,126.000000,0.000000,4264.871582,4234.102539,4309.871582,4286.282227,4217.820313,4220.641113,4227.948730,4288.461426,4235.641113,4230.897461,4597.179688,4495.769043,4405.641113,4497.179688,4824.000000,0.000000,9.000000,,,,0.000000,4.000000,4.000000,4.000000,4.000000,4.000000,4.000000,4.000000,4.000000,4.000000,4.000000,4.000000,4.000000,4.000000,4.000000,100.000000,,,,,,,,,,,,,,,,,,,,,,,,,,,,,,,,,,,,,,,,,,,,,,,,,,,,,,,,,,,,,,,,,,,,,,,,,,,,,,,,,,,,,,,,,,,,,,,,,,,,,,,,,,,,,,,,,,,,,,,,,,,,,,,,,
1739356872.889136,1739356872.889468,127.000000,0.000000,4265.641113,4240.128418,4312.436035,4293.717773,4222.692383,4218.974121,4230.641113,4288.077148,4237.948730,4232.692383,4602.051270,4503.461426,4407.051270,4504.102539,9.000000,0.000000,9.000000,,,,0.000000,4.000000,4.000000,4.000000,4.000000,4.000000,4.000000,4.000000,4.000000,4.000000,4.000000,4.000000,4.000000,4.000000,4.000000,100.000000,,,,,,,,,,,,,,,,,,,,,,,,,,,,,,,,,,,,,,,,,,,,,,,,,,,,,,,,,,,,,,,,,,,,,,,,,,,,,,,,,,,,,,,,,,,,,,,,,,,,,,,,,,,,,,,,,,,,,,,,,,,,,,,,,
1739356872.896944,1739356872.897276,0.000000,0.000000,4267.436035,4248.717773,4316.282227,4298.974121,4230.256348,4220.256348,4232.436035,4287.563965,4244.871582,4239.230957,4604.358887,4509.358887,4410.384766,4508.461426,4959.000000,0.000000,9.000000,,,,0.000000,4.000000,4.000000,4.000000,4.000000,4.000000,4.000000,4.000000,4.000000,4.000000,4.000000,4.000000,4.000000,4.000000,4.000000,100.000000,,,,,,,,,,,,,,,,,0.000000,0.000000,0.649271,0.123901,-0.717712,0.219055,0.990844,-0.142107,-0.051764,-46.139362,-32.478729,38.343945,,,,,,,,,,,,,,,,,,,,,,,,,,,,,,,,,,,,,,,,,,,,,,,,,,,,,,,,,,,,,,,,,,,,,,,,,,,,,,,,,,,,,,,,,,,,,,,,,,,,,
1739356872.904752,1739356872.904984,1.000000,0.000000,4266.666504,4248.077148,4311.666504,4293.589844,4232.820313,4220.128418,4233.205078,4289.102539,4241.666504,4232.948730,4597.563965,4498.461426,4405.641113,4505.384766,5587.000000,0.000000,9.000000,,,,0.000000,4.000000,4.000000,4.000000,4.000000,4.000000,4.000000,4.000000,4.000000,4.000000,4.000000,4.000000,4.000000,4.000000,4.000000,100.000000,,,,,,,,,,,,,,,,,,,,,,,,,,,,,,,,,,,,,,,,,,,,,,,,,,,,,,,,,,,,,,,,,,,,,,,,,,,,,,,,,,,,,,,,,,,,,,,,,,,,,,,,,,,,,,,,,,,,,,,,,,,,,,,,,
1739356872.912561,1739356872.912792,2.000000,0.000000,4252.179688,4234.358887,4300.000000,4283.846191,4225.512695,4218.205078,4229.871582,4284.102539,4227.436035,4212.820313,4588.717773,4479.871582,4391.410156,4491.282227,5596.000000,0.000000,9.000000,,,,0.000000,4.000000,4.000000,4.000000,4.000000,4.000000,4.000000,4.000000,4.000000,4.000000,4.000000,4.000000,4.000000,4.000000,4.000000,100.000000,,,,,,,,,,,,,,,,,,,,,,,,,,,,,,,,,,,,,,,,,,,,,,,,,,,,,,,,,,,,,,,,,,,,,,,,,,,,,,,,,,,,,,,,,,,,,,,,,,,,,,,,,,,,,,,,,,,,,,,,,,,,,,,,,
1739356872.920369,1739356872.920500,3.000000,0.000000,4234.743652,4220.128418,4291.282227,4280.384766,4219.871582,4219.743652,4225.769043,4276.153809,4216.538574,4200.256348,4583.205078,4469.615234,4381.282227,4474.615234,5547.000000,0.000000,9.000000,,,,0.000000,4.000000,4.000000,4.000000,4.000000,4.000000,4.000000,4.000000,4.000000,4.000000,4.000000,4.000000,4.000000,4.000000,4.000000,100.000000,,,,,,,,,,,,,,,,,,,,,,,,,,,,,,,,,,,,,,,,,,,,,,,,,,,,,,,,,,,,,,,,,,,,,,,,,,,,,,,,,,,,,,,,,,,,,,,,,,,,,,,,,,,,,,,,,,,,,,,,,,,,,,,,,
1739356872.928177,1739356872.928308,4.000000,0.000000,4230.000000,4214.871582,4286.025879,4276.666504,4221.153809,4220.384766,4225.641113,4273.589844,4208.333496,4194.871582,4574.743652,4464.358887,4376.025879,4464.871582,5517.000000,0.000000,9.000000,,,,0.000000,4.000000,4.000000,4.000000,4.000000,4.000000,4.000000,4.000000,4.000000,4.000000,4.000000,4.000000,4.000000,4.000000,4.000000,100.000000,,,,,,,,,,,,,,,,,1.000000,0.000000,0.649441,0.124146,-0.717590,0.218811,0.976682,-0.141131,-0.055671,-45.992092,-32.364189,38.276218,,,,,,,,,,,,,,,,,,,,,,,,,,,,,,,,,,,,,,,,,,,,,,,,,,,,,,,,,,,,,,,,,,,,,,,,,,,,,,,,,,,,,,,,,,,,,,,,,,,,,
1739356872.935985,1739356872.936016,5.000000,0.000000,4230.769043,4213.974121,4279.487305,4267.307617,4218.461426,4217.692383,4226.282227,4271.410156,4206.410156,4192.820313,4565.256348,4457.436035,4368.974121,4462.051270,5475.000000,0.000000,9.000000,,,,0.000000,4.000000,4.000000,4.000000,4.000000,4.000000,4.000000,4.000000,4.000000,4.000000,4.000000,4.000000,4.000000,4.000000,4.000000,100.000000,,,,,,,,,,,,,,,,,,,,,,,,,,,,,,,,,,,,,,,,,,,,,,,,,,,,,,,,,,,,,,,,,,,,,,,,,,,,,,,,,,,,,,,,,,,,,,,,,,,,,,,,,,,,,,,,,,,,,,,,,,,,,,,,,
1739356872.943793,1739356872.943824,6.000000,0.000000,4227.692383,4214.358887,4278.205078,4263.205078,4215.641113,4221.666504,4228.205078,4266.922852,4210.256348,4196.922852,4561.153809,4453.461426,4366.025879,4457.051270,5465.000000,0.000000,9.000000,,,,0.000000,4.000000,4.000000,4.000000,4.000000,4.000000,4.000000,4.000000,4.000000,4.000000,4.000000,4.000000,4.000000,4.000000,4.000000,100.000000,,,,,,,,,,,,,,,,,,,,,,,,,,,,,,,,,,,,,,,,,,,,,,,,,,,,,,,,,,,,,,,,,,,,,,,,,,,,,,,,,,,,,,,,,,,,,,,,,,,,,,,,,,,,,,,,,,,,,,,,,,,,,,,,,
1739356872.951601,1739356872.951532,7.000000,0.000000,4234.487305,4223.077148,4289.743652,4275.000000,4220.897461,4229.743652,4229.743652,4266.666504,4215.128418,4206.025879,4566.282227,4464.487305,4374.487305,4463.461426,2049.000000,0.000000,9.000000,,,,0.000000,4.000000,4.000000,4.000000,4.000000,4.000000,4.000000,4.000000,4.000000,4.000000,4.000000,4.000000,4.000000,4.000000,4.000000,100.000000,,,,,,,,,,,,,,,,,,,,,,,,,,,,,,,,,,,,,,,,,,,,,,,,,,,,,,,,,,,,,,,,,,,,,,,,,,,,,,,,,,,,,,,,,,,,,,,,,,,,,,,,,,,,,,,,,,,,,,,,,,,,,,,,,
1739356872.959409,1739356872.959440,8.000000,0.000000,4256.025879,4236.922852,4305.000000,4287.692383,4223.205078,4224.615234,4226.666504,4268.974121,4222.307617,4216.025879,4579.102539,4484.615234,4388.846191,4485.256348,5267.000000,0.000000,9.000000,,,,0.000000,4.000000,4.000000,4.000000,4.000000,4.000000,4.000000,4.000000,4.000000,4.000000,4.000000,4.000000,4.000000,4.000000,4.000000,100.000000,1.000000,91.666664,4.000000,4.000000,4.000000,4.000000,4.000000,4.000000,4.000000,3.000000,4.000000,4.000000,4.000000,4.000000,4.000000,4.000000,2.000000,0.000000,0.649676,0.124268,-0.717468,0.218445,0.987425,-0.134782,-0.048834,-46.076218,-32.427773,38.248596,,,,,,,,,,,,,,,,,,,,,,,,,,,,,,,,1.291941,2.598125,1.600298,0.215254,0.126401,0.740971,2.709152,1.036944,0.256584,0.111755,1.220820,2.359993,1.109872,0.407763,0.105612,0.339626,2.388295,1.106346,0.413730,0.095007,0.351690,1.039597,0.353758,0.098647,0.070127,0.219815,0.624931,0.239773,0.060015,0.096333,0.762128,1.435114,0.710571,0.074912,0.093167,0.096073,0.446604,0.192025,0.053816,0.033936,0.685779,2.118355,1.521936,0.464946,0.109008,0.832775,2.379191,1.583568,0.385188,0.186260,4.187995,3.127511,1.309321,0.331485,0.146294,1.736698,4.181470,2.486091,0.330491,0.125930,0.882753,1.268050,1.035340,0.246402,0.136510,1.264391,2.897687,1.485842,0.294581,0.221019
1739356872.967217,1739356872.967248,9.000000,0.000000,4267.307617,4236.666504,4310.384766,4288.333496,4218.461426,4217.563965,4225.897461,4267.948730,4227.436035,4219.615234,4588.846191,4496.153809,4396.025879,4496.666504,5611.000000,0.000000,9.000000,,,,0.000000,4.000000,4.000000,4.000000,4.000000,4.000000,4.000000,4.000000,4.000000,4.000000,4.000000,4.000000,4.000000,4.000000,4.000000,100.000000,,,,,,,,,,,,,,,,,,,,,,,,,,,,,,,,,,,,,,,,,,,,,,,,,,,,,,,,,,,,,,,,,,,,,,,,,,,,,,,,,,,,,,,,,,,,,,,,,,,,,,,,,,,,,,,,,,,,,,,,,,,,,,,,,
1739356872.975025,1739356872.975157,10.000000,0.000000,4266.025879,4234.615234,4311.282227,4289.871582,4223.333496,4220.897461,4229.358887,4264.358887,4228.717773,4218.461426,4590.897461,4499.487305,4395.897461,4498.077148,4819.000000,0.000000,9.000000,,,,0.000000,4.000000,4.000000,4.000000,4.000000,4.000000,4.000000,4.000000,4.000000,4.000000,4.000000,4.000000,4.000000,4.000000,4.000000,100.000000,,,,,,,,,,,,,,,,,,,,,,,,,,,,,,,,,,,,,,,,,,,,,,,,,,,,,,,,,,,,,,,,,,,,,,,,,,,,,,,,,,,,,,,,,,,,,,,,,,,,,,,,,,,,,,,,,,,,,,,,,,,,,,,,,
1739356872.982833,1739356872.982965,11.000000,0.000000,4275.897461,4252.307617,4318.846191,4300.769043,4233.717773,4222.051270,4229.358887,4264.487305,4228.077148,4224.358887,4592.820313,4507.051270,4398.846191,4512.692383,5631.000000,0.000000,9.000000,,,,0.000000,4.000000,4.000000,4.000000,4.000000,4.000000,4.000000,4.000000,4.000000,4.000000,4.000000,4.000000,4.000000,4.000000,4.000000,100.000000,,,,,,,,,,,,,,,,,,,,,,,,,,,,,,,,,,,,,,,,,,,,,,,,,,,,,,,,,,,,,,,,,,,,,,,,,,,,,,,,,,,,,,,,,,,,,,,,,,,,,,,,,,,,,,,,,,,,,,,,,,,,,,,,,
1739356872.990641,1739356872.990873,12.000000,0.000000,4288.974121,4271.410156,4329.615234,4314.358887,4234.358887,4223.846191,4229.487305,4269.871582,4235.384766,4239.102539,4600.897461,4515.641113,4403.974121,4531.538574,5666.000000,0.000000,9.000000,,,,0.000000,4.000000,4.000000,4.000000,4.000000,4.000000,4.000000,4.000000,4.000000,4.000000,4.000000,4.000000,4.000000,4.000000,4.000000,100.000000,,,,,,,,,,,,,,,,,3.000000,0.000000,0.649808,0.124146,-0.717407,0.218323,0.978635,-0.128922,-0.038091,-45.985264,-32.334995,38.290401,,,,,,,,,,,,,,,,,,,,,,,,,,,,,,,,,,,,,,,,,,,,,,,,,,,,,,,,,,,,,,,,,,,,,,,,,,,,,,,,,,,,,,,,,,,,,,,,,,,,,
1739356872.998449,1739356872.998681,13.000000,0.000000,4285.641113,4267.051270,4327.692383,4314.487305,4232.179688,4230.512695,4232.692383,4272.179688,4242.436035,4240.000000,4604.487305,4512.307617,4399.102539,4522.948730,6459.000000,0.000000,9.000000,,,,0.000000,4.000000,4.000000,4.000000,4.000000,4.000000,4.000000,4.000000,4.000000,4.000000,4.000000,4.000000,4.000000,4.000000,4.000000,100.000000,,,,,,,,,,,,,,,,,,,,,,,,,,,,,,,,,,,,,,,,,,,,,,,,,,,,,,,,,,,,,,,,,,,,,,,,,,,,,,,,,,,,,,,,,,,,,,,,,,,,,,,,,,,,,,,,,,,,,,,,,,,,,,,,,
1739356873.006257,1739356873.006589,14.000000,0.000000,4272.436035,4251.025879,4315.128418,4300.000000,4232.820313,4232.307617,4233.077148,4267.948730,4236.922852,4225.641113,4591.153809,4503.205078,4388.077148,4503.205078,4819.000000,0.000000,9.000000,,,,0.000000,4.000000,4.000000,4.000000,4.000000,4.000000,4.000000,4.000000,4.000000,4.000000,4.000000,4.000000,4.000000,4.000000,4.000000,100.000000,,,,,,,,,,,,,,,,,,,,,,,,,,,,,,,,,,,,,,,,,,,,,,,,,,,,,,,,,,,,,,,,,,,,,,,,,,,,,,,,,,,,,,,,,,,,,,,,,,,,,,,,,,,,,,,,,,,,,,,,,,,,,,,,,
1739356873.014066,1739356873.014396,15.000000,0.000000,4265.897461,4246.153809,4310.000000,4292.051270,4233.077148,4232.563965,4234.487305,4268.333496,4233.077148,4220.000000,4574.230957,4503.461426,4386.922852,4500.641113,5631.000000,0.000000,9.000000,,,,0.000000,4.000000,4.000000,4.000000,4.000000,4.000000,4.000000,4.000000,4.000000,4.000000,4.000000,4.000000,4.000000,4.000000,4.000000,100.000000,,,,,,,,,,,,,,,,,,,,,,,,,,,,,,,,,,,,,,,,,,,,,,,,,,,,,,,,,,,,,,,,,,,,,,,,,,,,,,,,,,,,,,,,,,,,,,,,,,,,,,,,,,,,,,,,,,,,,,,,,,,,,,,,,
1739356873.021874,1739356873.022304,16.000000,0.000000,4262.307617,4250.128418,4309.743652,4295.128418,4233.846191,4235.641113,4237.820313,4272.563965,4231.666504,4217.563965,4566.282227,4504.487305,4387.051270,4498.461426,0.000000,0.000000,9.000000,,,,0.000000,4.000000,4.000000,4.000000,4.000000,4.000000,4.000000,4.000000,4.000000,4.000000,4.000000,4.000000,4.000000,4.000000,4.000000,100.000000,,,,,,,,,,,,,,,,,4.000000,0.000000,0.649942,0.124146,-0.717285,0.218323,0.980100,-0.125015,-0.054206,-45.970070,-32.234829,38.344696,,,,,,,,,,,,,,,,,,,,,,,,,,,,,,,,,,,,,,,,,,,,,,,,,,,,,,,,,,,,,,,,,,,,,,,,,,,,,,,,,,,,,,,,,,,,,,,,,,,,,
1739356873.029682,1739356873.030112,17.000000,0.000000,4253.846191,4245.128418,4302.563965,4291.538574,4232.692383,4233.846191,4235.128418,4273.077148,4219.487305,4206.282227,4557.948730,4491.025879,4379.871582,4482.436035,0.000000,0.000000,9.000000,,,,0.000000,4.000000,4.000000,4.000000,4.000000,4.000000,4.000000,4.000000,4.000000,4.000000,4.000000,4.000000,4.000000,4.000000,4.000000,100.000000,,,,,,,,,,,,,,,,,,,,,,,,,,,,,,,,,,,,,,,,,,,,,,,,,,,,,,,,,,,,,,,,,,,,,,,,,,,,,,,,,,,,,,,,,,,,,,,,,,,,,,,,,,,,,,,,,,,,,,,,,,,,,,,,,
1739356873.037490,1739356873.037820,18.000000,0.000000,4243.846191,4233.333496,4293.717773,4283.333496,4230.128418,4231.794922,4231.922852,4272.563965,4209.230957,4200.000000,4551.153809,4480.128418,4376.538574,4475.128418,0.000000,0.000000,9.000000,,,,0.000000,4.000000,4.000000,4.000000,4.000000,4.000000,4.000000,4.000000,4.000000,4.000000,4.000000,4.000000,4.000000,4.000000,4.000000,100.000000,,,,,,,,,,,,,,,,,,,,,,,,,,,,,,,,,,,,,,,,,,,,,,,,,,,,,,,,,,,,,,,,,,,,,,,,,,,,,,,,,,,,,,,,,,,,,,,,,,,,,,,,,,,,,,,,,,,,,,,,,,,,,,,,,
1739356873.045298,1739356873.045628,19.000000,0.000000,4245.384766,4235.769043,4293.333496,4288.333496,4230.512695,4233.205078,4231.794922,4273.974121,4214.871582,4203.974121,4558.333496,4485.384766,4381.666504,4485.000000,0.000000,0.000000,9.000000,,,,0.000000,4.000000,4.000000,4.000000,4.000000,4.000000,4.000000,4.000000,4.000000,4.000000,4.000000,4.000000,4.000000,4.000000,4.000000,100.000000,,,,,,,,,,,,,,,,,,,,,,,,,,,,,,,,,,,,,,,,,,,,,,,,,,,,,,,,,,,,,,,,,,,,,,,,,,,,,,,,,,,,,,,,,,,,,,,,,,,,,,,,,,,,,,,,,,,,,,,,,,,,,,,,,
1739356873.053106,1739356873.053336,20.000000,0.000000,4257.179688,4249.230957,4299.487305,4295.384766,4233.846191,4231.025879,4224.743652,4273.205078,4217.563965,4203.077148,4568.846191,4489.487305,4387.820313,4491.153809,0.000000,0.000000,9.000000,,,,0.000000,4.000000,4.000000,4.000000,4.000000,4.000000,4.000000,4.000000,4.000000,4.000000,4.000000,4.000000,4.000000,4.000000,4.000000,100.000000,,,,,,,,,,,,,,,,,5.000000,0.000000,0.649857,0.124023,-0.717346,0.218445,0.975217,-0.131364,-0.055671,-46.089729,-32.228012,38.393559,,,,,,,,,,,,,,,,,,,,,,,,,,,,,,,,,,,,,,,,,,,,,,,,,,,,,,,,,,,,,,,,,,,,,,,,,,,,,,,,,,,,,,,,,,,,,,,,,,,,,
1739356873.060914,1739356873.061144,21.000000,0.000000,4263.846191,4250.641113,4305.641113,4294.358887,4234.871582,4230.512695,4217.307617,4273.846191,4210.641113,4198.717773,4569.487305,4488.077148,4391.922852,4489.358887,0.000000,0.000000,9.000000,,,,0.000000,4.000000,4.000000,4.000000,4.000000,4.000000,4.000000,4.000000,4.000000,4.000000,4.000000,4.000000,4.000000,4.000000,4.000000,100.000000,,,,,,,,,,,,,,,,,,,,,,,,,,,,,,,,,,,,,,,,,,,,,,,,,,,,,,,,,,,,,,,,,,,,,,,,,,,,,,,,,,,,,,,,,,,,,,,,,,,,,,,,,,,,,,,,,,,,,,,,,,,,,,,,,
1739356873.068722,1739356873.068852,22.000000,0.000000,4262.051270,4248.077148,4307.307617,4297.820313,4232.563965,4228.589844,4216.410156,4280.000000,4211.666504,4203.846191,4569.871582,4491.410156,4394.487305,4488.077148,0.000000,0.000000,9.000000,,,,0.000000,4.000000,4.000000,4.000000,4.000000,4.000000,4.000000,4.000000,4.000000,4.000000,4.000000,4.000000,4.000000,4.000000,4.000000,100.000000,,,,,,,,,,,,,,,,,,,,,,,,,,,,,,,,,,,,,,,,,,,,,,,,,,,,,,,,,,,,,,,,,,,,,,,,,,,,,,,,,,,,,,,,,,,,,,,,,,,,,,,,,,,,,,,,,,,,,,,,,,,,,,,,,
1739356873.076530,1739356873.076660,23.000000,0.000000,4264.615234,4255.384766,4307.307617,4306.282227,4231.666504,4222.692383,4216.794922,4285.384766,4222.820313,4213.333496,4577.692383,4496.538574,4398.589844,4493.077148,0.000000,0.000000,9.000000,,,,0.000000,4.000000,4.000000,4.000000,4.000000,4.000000,4.000000,4.000000,4.000000,4.000000,4.000000,4.000000,4.000000,4.000000,4.000000,100.000000,,,,,,,,,,,,,,,,,,,,,,,,,,,,,,,,,,,,,,,,,,,,,,,,,,,,,,,,,,,,,,,,,,,,,,,,,,,,,,,,,,,,,,,,,,,,,,,,,,,,,,,,,,,,,,,,,,,,,,,,,,,,,,,,,
1739356873.084338,1739356873.084369,24.000000,0.000000,4275.256348,4262.948730,4316.922852,4310.512695,4232.563965,4225.128418,4224.487305,4286.538574,4232.820313,4226.922852,4585.384766,4506.666504,4407.820313,4505.000000,0.000000,0.000000,9.000000,,,,0.000000,4.000000,4.000000,4.000000,4.000000,4.000000,4.000000,4.000000,4.000000,4.000000,4.000000,4.000000,4.000000,4.000000,4.000000,100.000000,,,,,,,,,,,,,,,,,6.000000,0.000000,0.649638,0.124146,-0.717468,0.218628,0.991332,-0.141131,-0.051764,-46.047424,-32.288544,38.304203,,,,,,,,,,,,,,,,,,,,,,,,,,,,,,,,1.249205,2.443676,1.395411,0.210727,0.126828,0.567404,2.857957,0.928461,0.252178,0.112749,1.299260,2.444261,1.019380,0.378444,0.108410,0.391478,2.806602,1.033140,0.413394,0.097054,0.343779,1.281903,0.293746,0.105364,0.080698,0.192315,0.491717,0.213346,0.053497,0.097477,0.669111,0.993909,0.671320,0.086091,0.089909,0.100701,0.362308,0.224807,0.052945,0.036280,0.620978,1.627008,1.404323,0.438947,0.111825,0.852897,1.657752,1.509264,0.366892,0.205329,4.416625,2.349144,1.012042,0.292791,0.148159,1.907793,3.670349,2.087046,0.306952,0.123214,1.080597,0.877078,0.857402,0.226587,0.144246,1.119142,2.676157,1.336240,0.313229,0.224365
1739356873.092146,1739356873.092277,25.000000,0.000000,4283.589844,4264.230957,4326.922852,4311.282227,4233.461426,4232.436035,4234.358887,4287.692383,4235.512695,4238.077148,4589.487305,4520.000000,4414.102539,4512.179688,0.000000,0.000000,9.000000,,,,0.000000,4.000000,4.000000,4.000000,4.000000,4.000000,4.000000,4.000000,4.000000,4.000000,4.000000,4.000000,4.000000,4.000000,4.000000,100.000000,,,,,,,,,,,,,,,,,,,,,,,,,,,,,,,,,,,,,,,,,,,,,,,,,,,,,,,,,,,,,,,,,,,,,,,,,,,,,,,,,,,,,,,,,,,,,,,,,,,,,,,,,,,,,,,,,,,,,,,,,,,,,,,,,
1739356873.099954,1739356873.100085,26.000000,0.000000,4277.948730,4260.384766,4321.153809,4310.769043,4233.717773,4232.307617,4234.871582,4289.358887,4234.743652,4231.410156,4587.820313,4516.153809,4411.282227,4507.179688,0.000000,0.000000,9.000000,,,,0.000000,4.000000,4.000000,4.000000,4.000000,4.000000,4.000000,4.000000,4.000000,4.000000,4.000000,4.000000,4.000000,4.000000,4.000000,100.000000,,,,,,,,,,,,,,,,,,,,,,,,,,,,,,,,,,,,,,,,,,,,,,,,,,,,,,,,,,,,,,,,,,,,,,,,,,,,,,,,,,,,,,,,,,,,,,,,,,,,,,,,,,,,,,,,,,,,,,,,,,,,,,,,,
1739356873.107762,1739356873.107993,27.000000,0.000000,4267.179688,4252.436035,4310.769043,4304.358887,4233.461426,4231.025879,4231.282227,4286.794922,4228.589844,4218.461426,4578.461426,4498.846191,4403.974121,4499.487305,0.000000,0.000000,9.000000,,,,0.000000,4.000000,4.000000,4.000000,4.000000,4.000000,4.000000,4.000000,4.000000,4.000000,4.000000,4.000000,4.000000,4.000000,4.000000,100.000000,,,,,,,,,,,,,,,,,,,,,,,,,,,,,,,,,,,,,,,,,,,,,,,,,,,,,,,,,,,,,,,,,,,,,,,,,,,,,,,,,,,,,,,,,,,,,,,,,,,,,,,,,,,,,,,,,,,,,,,,,,,,,,,,,
1739356873.115571,1739356873.115801,28.000000,0.000000,4264.615234,4248.717773,4307.820313,4294.871582,4232.692383,4231.794922,4226.794922,4280.256348,4216.922852,4212.307617,4568.846191,4489.743652,4397.563965,4496.666504,0.000000,0.000000,9.000000,,,,0.000000,4.000000,4.000000,4.000000,4.000000,4.000000,4.000000,4.000000,4.000000,4.000000,4.000000,4.000000,4.000000,4.000000,4.000000,100.000000,,,,,,,,,,,,,,,,,7.000000,0.000000,0.649617,0.124146,-0.717468,0.218689,0.997192,-0.138200,-0.058113,-45.909348,-32.193024,38.323784,,,,,,,,,,,,,,,,,,,,,,,,,,,,,,,,,,,,,,,,,,,,,,,,,,,,,,,,,,,,,,,,,,,,,,,,,,,,,,,,,,,,,,,,,,,,,,,,,,,,,
1739356873.123379,1739356873.123709,29.000000,0.000000,4267.179688,4250.769043,4308.461426,4293.205078,4233.077148,4224.743652,4217.179688,4277.563965,4213.846191,4206.538574,4567.948730,4491.922852,4394.871582,4496.922852,0.000000,0.000000,9.000000,,,,0.000000,4.000000,4.000000,4.000000,4.000000,4.000000,4.000000,4.000000,4.000000,4.000000,4.000000,4.000000,4.000000,4.000000,4.000000,100.000000,,,,,,,,,,,,,,,,,,,,,,,,,,,,,,,,,,,,,,,,,,,,,,,,,,,,,,,,,,,,,,,,,,,,,,,,,,,,,,,,,,,,,,,,,,,,,,,,,,,,,,,,,,,,,,,,,,,,,,,,,,,,,,,,,
1739356873.131187,1739356873.131517,30.000000,0.000000,4264.615234,4249.102539,4307.307617,4296.410156,4228.461426,4214.871582,4206.538574,4277.051270,4213.717773,4199.743652,4570.897461,4493.589844,4392.563965,4495.128418,0.000000,0.000000,9.000000,,,,0.000000,4.000000,4.000000,4.000000,4.000000,4.000000,4.000000,4.000000,4.000000,4.000000,4.000000,4.000000,4.000000,4.000000,4.000000,100.000000,,,,,,,,,,,,,,,,,,,,,,,,,,,,,,,,,,,,,,,,,,,,,,,,,,,,,,,,,,,,,,,,,,,,,,,,,,,,,,,,,,,,,,,,,,,,,,,,,,,,,,,,,,,,,,,,,,,,,,,,,,,,,,,,,
1739356873.138995,1739356873.139426,31.000000,0.000000,4260.000000,4243.205078,4301.410156,4293.717773,4219.230957,4213.333496,4200.512695,4273.205078,4203.974121,4200.512695,4569.358887,4487.436035,4386.282227,4490.384766,0.000000,0.000000,9.000000,,,,0.000000,4.000000,4.000000,4.000000,4.000000,4.000000,4.000000,4.000000,4.000000,4.000000,4.000000,4.000000,4.000000,4.000000,4.000000,100.000000,,,,,,,,,,,,,,,,,,,,,,,,,,,,,,,,,,,,,,,,,,,,,,,,,,,,,,,,,,,,,,,,,,,,,,,,,,,,,,,,,,,,,,,,,,,,,,,,,,,,,,,,,,,,,,,,,,,,,,,,,,,,,,,,,
1739356873.146803,1739356873.147234,32.000000,0.000000,4260.641113,4246.410156,4295.512695,4289.871582,4217.436035,4214.230957,4197.563965,4271.666504,4200.641113,4202.436035,4565.256348,4480.641113,4384.102539,4490.128418,0.000000,0.000000,9.000000,,,,0.000000,4.000000,4.000000,4.000000,4.000000,4.000000,4.000000,4.000000,4.000000,4.000000,4.000000,4.000000,4.000000,4.000000,4.000000,100.000000,,,,,,,,,,,,,,,,,8.000000,0.000000,0.649485,0.124023,-0.717590,0.218750,0.987425,-0.138200,-0.051276,-45.935078,-32.123722,38.441406,,,,,,,,,,,,,,,,,,,,,,,,,,,,,,,,,,,,,,,,,,,,,,,,,,,,,,,,,,,,,,,,,,,,,,,,,,,,,,,,,,,,,,,,,,,,,,,,,,,,,
1739356873.154611,1739356873.155142,33.000000,0.000000,4263.974121,4247.692383,4298.461426,4291.282227,4219.487305,4213.077148,4200.256348,4276.922852,4210.897461,4199.230957,4564.102539,4483.589844,4383.846191,4493.461426,0.000000,0.000000,9.000000,,,,0.000000,4.000000,4.000000,4.000000,4.000000,4.000000,4.000000,4.000000,4.000000,4.000000,4.000000,4.000000,4.000000,4.000000,4.000000,100.000000,,,,,,,,,,,,,,,,,,,,,,,,,,,,,,,,,,,,,,,,,,,,,,,,,,,,,,,,,,,,,,,,,,,,,,,,,,,,,,,,,,,,,,,,,,,,,,,,,,,,,,,,,,,,,,,,,,,,,,,,,,,,,,,,,
1739356873.162419,1739356873.162950,34.000000,0.000000,4261.666504,4238.077148,4306.153809,4291.922852,4220.384766,4215.641113,4208.333496,4282.436035,4217.820313,4199.230957,4565.256348,4490.769043,4376.410156,4492.692383,0.000000,0.000000,9.000000,,,,0.000000,4.000000,4.000000,4.000000,4.000000,4.000000,4.000000,4.000000,4.000000,4.000000,4.000000,4.000000,4.000000,4.000000,4.000000,100.000000,,,,,,,,,,,,,,,,,,,,,,,,,,,,,,,,,,,,,,,,,,,,,,,,,,,,,,,,,,,,,,,,,,,,,,,,,,,,,,,,,,,,,,,,,,,,,,,,,,,,,,,,,,,,,,,,,,,,,,,,,,,,,,,,,
1739356873.170227,1739356873.170858,35.000000,0.000000,4261.410156,4237.179688,4309.487305,4292.307617,4225.384766,4219.615234,4215.512695,4283.589844,4218.205078,4205.384766,4572.436035,4491.794922,4375.384766,4492.051270,0.000000,0.000000,9.000000,,,,0.000000,4.000000,4.000000,4.000000,4.000000,4.000000,4.000000,4.000000,4.000000,4.000000,4.000000,4.000000,4.000000,4.000000,4.000000,100.000000,,,,,,,,,,,,,,,,,,,,,,,,,,,,,,,,,,,,,,,,,,,,,,,,,,,,,,,,,,,,,,,,,,,,,,,,,,,,,,,,,,,,,,,,,,,,,,,,,,,,,,,,,,,,,,,,,,,,,,,,,,,,,,,,,
1739356873.178035,1739356873.178666,36.000000,0.000000,4272.051270,4248.461426,4309.102539,4295.897461,4229.743652,4219.487305,4219.615234,4281.922852,4218.717773,4215.512695,4581.025879,4496.410156,4388.333496,4499.487305,0.000000,0.000000,9.000000,,,,0.000000,4.000000,4.000000,4.000000,4.000000,4.000000,4.000000,4.000000,4.000000,4.000000,4.000000,4.000000,4.000000,4.000000,4.000000,100.000000,,,,,,,,,,,,,,,,,9.000000,0.000000,0.649406,0.124084,-0.717651,0.218750,0.987425,-0.140642,-0.057136,-46.041573,-32.194683,38.463932,,,,,,,,,,,,,,,,,,,,,,,,,,,,,,,,,,,,,,,,,,,,,,,,,,,,,,,,,,,,,,,,,,,,,,,,,,,,,,,,,,,,,,,,,,,,,,,,,,,,,
1739356873.185843,1739356873.186574,37.000000,0.000000,4279.615234,4251.282227,4310.897461,4299.743652,4228.846191,4222.563965,4226.282227,4278.717773,4216.410156,4220.641113,4580.128418,4506.410156,4395.384766,4506.538574,0.000000,0.000000,9.000000,,,,0.000000,4.000000,4.000000,4.000000,4.000000,4.000000,4.000000,4.000000,4.000000,4.000000,4.000000,4.000000,4.000000,4.000000,4.000000,100.000000,,,,,,,,,,,,,,,,,,,,,,,,,,,,,,,,,,,,,,,,,,,,,,,,,,,,,,,,,,,,,,,,,,,,,,,,,,,,,,,,,,,,,,,,,,,,,,,,,,,,,,,,,,,,,,,,,,,,,,,,,,,,,,,,,
1739356873.193651,1739356873.194382,38.000000,0.000000,4278.846191,4247.436035,4315.128418,4303.589844,4229.743652,4226.282227,4230.512695,4279.615234,4214.230957,4211.410156,4578.333496,4509.102539,4396.282227,4508.589844,0.000000,0.000000,9.000000,,,,0.000000,4.000000,4.000000,4.000000,4.000000,4.000000,4.000000,4.000000,4.000000,4.000000,4.000000,4.000000,4.000000,4.000000,4.000000,100.000000,,,,,,,,,,,,,,,,,,,,,,,,,,,,,,,,,,,,,,,,,,,,,,,,,,,,,,,,,,,,,,,,,,,,,,,,,,,,,,,,,,,,,,,,,,,,,,,,,,,,,,,,,,,,,,,,,,,,,,,,,,,,,,,,,
1739356873.201460,1739356873.202290,39.000000,0.000000,4287.436035,4250.256348,4324.615234,4308.974121,4233.333496,4223.077148,4224.487305,4280.384766,4213.205078,4204.615234,4584.230957,4507.948730,4402.179688,4513.974121,0.000000,0.000000,9.000000,,,,0.000000,4.000000,4.000000,4.000000,4.000000,4.000000,4.000000,4.000000,4.000000,4.000000,4.000000,4.000000,4.000000,4.000000,4.000000,100.000000,,,,,,,,,,,,,,,,,,,,,,,,,,,,,,,,,,,,,,,,,,,,,,,,,,,,,,,,,,,,,,,,,,,,,,,,,,,,,,,,,,,,,,,,,,,,,,,,,,,,,,,,,,,,,,,,,,,,,,,,,,,,,,,,,
1739356873.209268,1739356873.210098,40.000000,0.000000,4295.128418,4251.794922,4327.948730,4310.128418,4233.589844,4218.589844,4218.333496,4275.641113,4206.410156,4208.205078,4587.692383,4512.179688,4400.897461,4517.820313,0.000000,0.000000,9.000000,,,,0.000000,4.000000,4.000000,4.000000,4.000000,4.000000,4.000000,4.000000,4.000000,4.000000,4.000000,4.000000,4.000000,4.000000,4.000000,100.000000,,,,,,,,,,,,,,,,,10.000000,0.000000,0.649335,0.123962,-0.717773,0.218628,0.986937,-0.135270,-0.063484,-46.070747,-32.191879,38.500870,,,,,,,,,,,,,,,,,,,,,,,,,,,,,,,,1.287222,2.683536,1.322245,0.221163,0.127928,0.450894,3.201895,0.927486,0.259783,0.117261,1.429558,2.686214,0.998855,0.337381,0.110894,0.507284,3.364909,1.043758,0.406154,0.103963,0.351234,1.521211,0.266646,0.116425,0.093964,0.174666,0.404434,0.184204,0.051848,0.095171,0.600065,0.691342,0.638529,0.099088,0.087291,0.131758,0.329308,0.295969,0.063202,0.040918,0.612964,1.482606,1.308893,0.404410,0.116735,0.954792,1.385376,1.582411,0.359334,0.217549,4.373823,2.122762,0.925995,0.264163,0.155095,2.184043,3.740046,1.880617,0.309104,0.126004,1.337908,0.858933,0.781934,0.216281,0.146389,1.066832,2.865593,1.370386,0.335994,0.217590
1739356873.217076,1739356873.217806,41.000000,0.000000,4285.256348,4248.333496,4316.666504,4302.948730,4227.307617,4217.563965,4215.128418,4273.846191,4201.025879,4205.256348,4579.615234,4510.641113,4393.974121,4512.179688,0.000000,0.000000,9.000000,,,,0.000000,4.000000,4.000000,4.000000,4.000000,4.000000,4.000000,4.000000,4.000000,4.000000,4.000000,4.000000,4.000000,4.000000,4.000000,100.000000,,,,,,,,,,,,,,,,,,,,,,,,,,,,,,,,,,,,,,,,,,,,,,,,,,,,,,,,,,,,,,,,,,,,,,,,,,,,,,,,,,,,,,,,,,,,,,,,,,,,,,,,,,,,,,,,,,,,,,,,,,,,,,,,,
1739356873.224884,1739356873.225614,42.000000,0.000000,4274.230957,4245.512695,4308.461426,4295.769043,4223.974121,4216.153809,4205.000000,4277.948730,4206.153809,4198.461426,4571.282227,4500.641113,4392.692383,4502.563965,0.000000,0.000000,9.000000,,,,0.000000,4.000000,4.000000,4.000000,4.000000,4.000000,4.000000,4.000000,4.000000,4.000000,4.000000,4.000000,4.000000,4.000000,4.000000,100.000000,,,,,,,,,,,,,,,,,,,,,,,,,,,,,,,,,,,,,,,,,,,,,,,,,,,,,,,,,,,,,,,,,,,,,,,,,,,,,,,,,,,,,,,,,,,,,,,,,,,,,,,,,,,,,,,,,,,,,,,,,,,,,,,,,
1739356873.232692,1739356873.233322,43.000000,0.000000,4276.153809,4242.820313,4310.384766,4295.641113,4225.512695,4214.615234,4197.436035,4278.974121,4213.205078,4203.589844,4572.179688,4499.615234,4391.153809,4502.563965,0.000000,0.000000,9.000000,,,,0.000000,4.000000,4.000000,4.000000,4.000000,4.000000,4.000000,4.000000,4.000000,4.000000,4.000000,4.000000,4.000000,4.000000,4.000000,100.000000,,,,,,,,,,,,,,,,,,,,,,,,,,,,,,,,,,,,,,,,,,,,,,,,,,,,,,,,,,,,,,,,,,,,,,,,,,,,,,,,,,,,,,,,,,,,,,,,,,,,,,,,,,,,,,,,,,,,,,,,,,,,,,,,,
1739356873.240500,1739356873.241230,44.000000,0.000000,4276.025879,4243.205078,4311.538574,4296.666504,4223.333496,4215.128418,4199.871582,4275.769043,4214.487305,4207.820313,4571.922852,4502.051270,4390.128418,4504.615234,0.000000,0.000000,9.000000,,,,0.000000,4.000000,4.000000,4.000000,4.000000,4.000000,4.000000,4.000000,4.000000,4.000000,4.000000,4.000000,4.000000,4.000000,4.000000,100.000000,,,,,,,,,,,,,,,,,11.000000,0.000000,0.649318,0.124023,-0.717834,0.218445,0.982542,-0.129410,-0.054206,-46.230339,-32.156025,38.534119,,,,,,,,,,,,,,,,,,,,,,,,,,,,,,,,,,,,,,,,,,,,,,,,,,,,,,,,,,,,,,,,,,,,,,,,,,,,,,,,,,,,,,,,,,,,,,,,,,,,,
1739356873.248308,1739356873.249038,45.000000,0.000000,4268.717773,4246.922852,4308.205078,4296.282227,4222.436035,4215.384766,4200.512695,4272.692383,4212.820313,4201.025879,4563.205078,4495.769043,4393.717773,4498.846191,0.000000,0.000000,9.000000,,,,0.000000,4.000000,4.000000,4.000000,4.000000,4.000000,4.000000,4.000000,4.000000,4.000000,4.000000,4.000000,4.000000,4.000000,4.000000,100.000000,,,,,,,,,,,,,,,,,,,,,,,,,,,,,,,,,,,,,,,,,,,,,,,,,,,,,,,,,,,,,,,,,,,,,,,,,,,,,,,,,,,,,,,,,,,,,,,,,,,,,,,,,,,,,,,,,,,,,,,,,,,,,,,,,
1739356873.256116,1739356873.256846,46.000000,0.000000,4263.717773,4246.922852,4302.051270,4296.025879,4227.307617,4214.871582,4196.922852,4273.461426,4207.051270,4199.230957,4551.794922,4488.077148,4391.153809,4490.897461,0.000000,0.000000,9.000000,,,,0.000000,4.000000,4.000000,4.000000,4.000000,4.000000,4.000000,4.000000,4.000000,4.000000,4.000000,4.000000,4.000000,4.000000,4.000000,100.000000,,,,,,,,,,,,,,,,,,,,,,,,,,,,,,,,,,,,,,,,,,,,,,,,,,,,,,,,,,,,,,,,,,,,,,,,,,,,,,,,,,,,,,,,,,,,,,,,,,,,,,,,,,,,,,,,,,,,,,,,,,,,,,,,,
1739356873.263924,1739356873.264554,47.000000,0.000000,4260.641113,4244.230957,4294.871582,4292.820313,4231.025879,4215.256348,4201.794922,4274.487305,4203.333496,4200.769043,4549.487305,4483.717773,4383.333496,4488.461426,0.000000,0.000000,9.000000,,,,0.000000,4.000000,4.000000,4.000000,4.000000,4.000000,4.000000,4.000000,4.000000,4.000000,4.000000,4.000000,4.000000,4.000000,4.000000,100.000000,,,,,,,,,,,,,,,,,,,,,,,,,,,,,,,,,,,,,,,,,,,,,,,,,,,,,,,,,,,,,,,,,,,,,,,,,,,,,,,,,,,,,,,,,,,,,,,,,,,,,,,,,,,,,,,,,,,,,,,,,,,,,,,,,
1739356873.271732,1739356873.272362,48.000000,0.000000,4259.487305,4243.077148,4295.641113,4291.410156,4230.384766,4218.077148,4214.615234,4275.512695,4211.666504,4200.512695,4556.282227,4483.846191,4385.769043,4491.025879,0.000000,0.000000,9.000000,,,,0.000000,4.000000,4.000000,4.000000,4.000000,4.000000,4.000000,4.000000,4.000000,4.000000,4.000000,4.000000,4.000000,4.000000,4.000000,100.000000,,,,,,,,,,,,,,,,,12.000000,0.000000,0.649421,0.124084,-0.717712,0.218506,0.985472,-0.145526,-0.047857,-46.240639,-32.323757,38.564037,,,,,,,,,,,,,,,,,,,,,,,,,,,,,,,,,,,,,,,,,,,,,,,,,,,,,,,,,,,,,,,,,,,,,,,,,,,,,,,,,,,,,,,,,,,,,,,,,,,,,
1739356873.279540,1739356873.280070,49.000000,0.000000,4261.153809,4244.102539,4301.794922,4295.897461,4231.538574,4221.153809,4223.974121,4276.025879,4219.871582,4208.974121,4565.384766,4487.948730,4392.563965,4492.179688,0.000000,0.000000,9.000000,,,,0.000000,4.000000,4.000000,4.000000,4.000000,4.000000,4.000000,4.000000,4.000000,4.000000,4.000000,4.000000,4.000000,4.000000,4.000000,100.000000,,,,,,,,,,,,,,,,,,,,,,,,,,,,,,,,,,,,,,,,,,,,,,,,,,,,,,,,,,,,,,,,,,,,,,,,,,,,,,,,,,,,,,,,,,,,,,,,,,,,,,,,,,,,,,,,,,,,,,,,,,,,,,,,,
1739356873.287348,1739356873.287878,50.000000,0.000000,4262.307617,4245.256348,4302.563965,4295.641113,4231.794922,4218.846191,4223.717773,4275.512695,4217.820313,4216.794922,4570.256348,4492.948730,4395.128418,4492.948730,0.000000,0.000000,9.000000,,,,0.000000,4.000000,4.000000,4.000000,4.000000,4.000000,4.000000,4.000000,4.000000,4.000000,4.000000,4.000000,4.000000,4.000000,4.000000,100.000000,,,,,,,,,,,,,,,,,,,,,,,,,,,,,,,,,,,,,,,,,,,,,,,,,,,,,,,,,,,,,,,,,,,,,,,,,,,,,,,,,,,,,,,,,,,,,,,,,,,,,,,,,,,,,,,,,,,,,,,,,,,,,,,,,
1739356873.295156,1739356873.295586,51.000000,0.000000,4264.358887,4245.128418,4305.256348,4295.384766,4227.179688,4214.615234,4219.743652,4275.384766,4215.384766,4212.436035,4571.282227,4499.102539,4400.641113,4497.051270,0.000000,0.000000,9.000000,,,,0.000000,4.000000,4.000000,4.000000,4.000000,4.000000,4.000000,4.000000,4.000000,4.000000,4.000000,4.000000,4.000000,4.000000,4.000000,100.000000,,,,,,,,,,,,,,,,,,,,,,,,,,,,,,,,,,,,,,,,,,,,,,,,,,,,,,,,,,,,,,,,,,,,,,,,,,,,,,,,,,,,,,,,,,,,,,,,,,,,,,,,,,,,,,,,,,,,,,,,,,,,,,,,,
1739356873.302965,1739356873.303495,52.000000,0.000000,4268.077148,4247.563965,4309.743652,4300.000000,4220.769043,4214.230957,4215.512695,4276.922852,4216.025879,4204.743652,4574.487305,4503.974121,4405.384766,4499.615234,0.000000,0.000000,9.000000,,,,0.000000,4.000000,4.000000,4.000000,4.000000,4.000000,4.000000,4.000000,4.000000,4.000000,4.000000,4.000000,4.000000,4.000000,4.000000,100.000000,,,,,,,,,,,,,,,,,13.000000,0.000000,0.649529,0.123901,-0.717590,0.218689,0.988890,-0.152362,-0.046392,-46.233242,-32.291382,38.657635,,,,,,,,,,,,,,,,,,,,,,,,,,,,,,,,,,,,,,,,,,,,,,,,,,,,,,,,,,,,,,,,,,,,,,,,,,,,,,,,,,,,,,,,,,,,,,,,,,,,,
1739356873.310773,1739356873.311303,53.000000,0.000000,4267.820313,4246.922852,4308.589844,4299.743652,4218.717773,4212.820313,4211.794922,4279.230957,4214.102539,4202.179688,4571.153809,4504.487305,4400.897461,4494.487305,0.000000,0.000000,9.000000,,,,0.000000,4.000000,4.000000,4.000000,4.000000,4.000000,4.000000,4.000000,4.000000,4.000000,4.000000,4.000000,4.000000,4.000000,4.000000,100.000000,,,,,,,,,,,,,,,,,,,,,,,,,,,,,,,,,,,,,,,,,,,,,,,,,,,,,,,,,,,,,,,,,,,,,,,,,,,,,,,,,,,,,,,,,,,,,,,,,,,,,,,,,,,,,,,,,,,,,,,,,,,,,,,,,
1739356873.318581,1739356873.319211,54.000000,0.000000,4262.820313,4239.487305,4307.563965,4295.128418,4227.051270,4213.974121,4214.102539,4276.538574,4213.461426,4204.487305,4558.333496,4502.051270,4393.846191,4491.538574,0.000000,0.000000,9.000000,,,,0.000000,4.000000,4.000000,4.000000,4.000000,4.000000,4.000000,4.000000,4.000000,4.000000,4.000000,4.000000,4.000000,4.000000,4.000000,100.000000,,,,,,,,,,,,,,,,,,,,,,,,,,,,,,,,,,,,,,,,,,,,,,,,,,,,,,,,,,,,,,,,,,,,,,,,,,,,,,,,,,,,,,,,,,,,,,,,,,,,,,,,,,,,,,,,,,,,,,,,,,,,,,,,,
1739356873.326389,1739356873.327019,55.000000,0.000000,4262.563965,4234.230957,4311.025879,4295.128418,4233.717773,4223.717773,4219.102539,4272.307617,4216.153809,4207.307617,4552.692383,4497.820313,4394.230957,4492.948730,0.000000,0.000000,9.000000,,,,0.000000,4.000000,4.000000,4.000000,4.000000,4.000000,4.000000,4.000000,4.000000,4.000000,4.000000,4.000000,4.000000,4.000000,4.000000,100.000000,,,,,,,,,,,,,,,,,,,,,,,,,,,,,,,,,,,,,,,,,,,,,,,,,,,,,,,,,,,,,,,,,,,,,,,,,,,,,,,,,,,,,,,,,,,,,,,,,,,,,,,,,,,,,,,,,,,,,,,,,,,,,,,,,
1739356873.334197,1739356873.334927,56.000000,0.000000,4260.256348,4235.000000,4309.358887,4297.307617,4233.333496,4226.666504,4218.461426,4276.922852,4217.563965,4203.205078,4553.717773,4493.461426,4393.589844,4488.205078,0.000000,0.000000,9.000000,,,,0.000000,4.000000,4.000000,4.000000,4.000000,4.000000,4.000000,4.000000,4.000000,4.000000,4.000000,4.000000,4.000000,4.000000,4.000000,100.000000,,,,,,,,,,,,,,,,,14.000000,0.000000,0.649490,0.123779,-0.717590,0.218872,0.979123,-0.145037,-0.053229,-46.293251,-32.245575,38.641872,,,,,,,,,,,,,,,,,,,,,,,,,,,,,,,,1.389074,3.168206,1.354442,0.245297,0.131848,0.420401,3.508731,1.000552,0.279097,0.125749,1.561263,3.043649,1.019516,0.292645,0.114477,0.641178,3.824904,1.096266,0.397113,0.115330,0.377560,1.675505,0.273990,0.133848,0.107712,0.177661,0.354000,0.156604,0.057331,0.092426,0.542431,0.553125,0.618411,0.110670,0.085098,0.208102,0.369472,0.414992,0.088013,0.047416,0.661121,1.699509,1.241390,0.366481,0.122286,1.130937,1.613441,1.747750,0.370829,0.219618,4.025212,2.494287,1.044611,0.253198,0.165981,2.499497,4.285488,1.855545,0.337848,0.133963,1.616220,1.169596,0.812034,0.224780,0.143425,1.103862,3.392489,1.552460,0.356812,0.204245
1739356873.342005,1739356873.342735,57.000000,0.000000,4249.743652,4234.358887,4299.871582,4291.666504,4232.436035,4221.153809,4215.384766,4280.769043,4217.820313,4197.436035,4545.000000,4487.307617,4384.615234,4481.410156,0.000000,0.000000,9.000000,,,,0.000000,4.000000,4.000000,4.000000,4.000000,4.000000,4.000000,4.000000,4.000000,4.000000,4.000000,4.000000,4.000000,4.000000,4.000000,100.000000,,,,,,,,,,,,,,,,,,,,,,,,,,,,,,,,,,,,,,,,,,,,,,,,,,,,,,,,,,,,,,,,,,,,,,,,,,,,,,,,,,,,,,,,,,,,,,,,,,,,,,,,,,,,,,,,,,,,,,,,,,,,,,,,,
1739356873.349813,1739356873.350643,58.000000,0.000000,4243.717773,4231.538574,4293.205078,4282.436035,4232.307617,4222.436035,4215.256348,4275.256348,4217.051270,4205.512695,4535.769043,4479.102539,4385.000000,4478.077148,0.000000,0.000000,9.000000,,,,0.000000,4.000000,4.000000,4.000000,4.000000,4.000000,4.000000,4.000000,4.000000,4.000000,4.000000,4.000000,4.000000,4.000000,4.000000,100.000000,,,,,,,,,,,,,,,,,,,,,,,,,,,,,,,,,,,,,,,,,,,,,,,,,,,,,,,,,,,,,,,,,,,,,,,,,,,,,,,,,,,,,,,,,,,,,,,,,,,,,,,,,,,,,,,,,,,,,,,,,,,,,,,,,
1739356873.357621,1739356873.358452,59.000000,0.000000,4250.256348,4233.846191,4293.461426,4279.615234,4232.179688,4224.230957,4212.051270,4268.846191,4218.077148,4215.384766,4540.384766,4477.948730,4394.871582,4476.794922,0.000000,0.000000,9.000000,,,,0.000000,4.000000,4.000000,4.000000,4.000000,4.000000,4.000000,4.000000,4.000000,4.000000,4.000000,4.000000,4.000000,4.000000,4.000000,100.000000,,,,,,,,,,,,,,,,,,,,,,,,,,,,,,,,,,,,,,,,,,,,,,,,,,,,,,,,,,,,,,,,,,,,,,,,,,,,,,,,,,,,,,,,,,,,,,,,,,,,,,,,,,,,,,,,,,,,,,,,,,,,,,,,,
1739356873.365429,1739356873.366360,60.000000,0.000000,4258.974121,4238.846191,4293.589844,4282.820313,4232.307617,4219.230957,4207.692383,4266.666504,4214.358887,4208.077148,4538.589844,4480.897461,4393.077148,4476.410156,0.000000,0.000000,9.000000,,,,0.000000,4.000000,4.000000,4.000000,4.000000,4.000000,4.000000,4.000000,4.000000,4.000000,4.000000,4.000000,4.000000,4.000000,4.000000,100.000000,,,,,,,,,,,,,,,,,15.000000,0.000000,0.649416,0.123352,-0.717712,0.218933,0.982542,-0.139177,-0.053229,-46.147259,-32.254353,38.527683,,,,,,,,,,,,,,,,,,,,,,,,,,,,,,,,,,,,,,,,,,,,,,,,,,,,,,,,,,,,,,,,,,,,,,,,,,,,,,,,,,,,,,,,,,,,,,,,,,,,,
1739356873.373237,1739356873.374167,61.000000,0.000000,4257.307617,4241.282227,4291.922852,4280.384766,4232.179688,4219.230957,4209.871582,4267.179688,4202.051270,4198.717773,4530.128418,4475.512695,4384.487305,4475.128418,0.000000,0.000000,9.000000,,,,0.000000,4.000000,4.000000,4.000000,4.000000,4.000000,4.000000,4.000000,4.000000,4.000000,4.000000,4.000000,4.000000,4.000000,4.000000,100.000000,,,,,,,,,,,,,,,,,,,,,,,,,,,,,,,,,,,,,,,,,,,,,,,,,,,,,,,,,,,,,,,,,,,,,,,,,,,,,,,,,,,,,,,,,,,,,,,,,,,,,,,,,,,,,,,,,,,,,,,,,,,,,,,,,
1739356873.381045,1739356873.382075,62.000000,0.000000,4255.769043,4243.846191,4297.307617,4277.307617,4233.333496,4225.128418,4215.256348,4271.666504,4199.871582,4207.307617,4536.410156,4475.897461,4387.436035,4477.692383,0.000000,0.000000,9.000000,,,,0.000000,4.000000,4.000000,4.000000,4.000000,4.000000,4.000000,4.000000,4.000000,4.000000,4.000000,4.000000,4.000000,4.000000,4.000000,100.000000,,,,,,,,,,,,,,,,,,,,,,,,,,,,,,,,,,,,,,,,,,,,,,,,,,,,,,,,,,,,,,,,,,,,,,,,,,,,,,,,,,,,,,,,,,,,,,,,,,,,,,,,,,,,,,,,,,,,,,,,,,,,,,,,,
1739356873.388853,1739356873.389883,63.000000,0.000000,4266.025879,4248.333496,4311.410156,4288.461426,4237.436035,4228.077148,4222.307617,4278.205078,4216.153809,4219.102539,4555.384766,4499.615234,4399.615234,4494.743652,0.000000,0.000000,9.000000,,,,0.000000,4.000000,4.000000,4.000000,4.000000,4.000000,4.000000,4.000000,4.000000,4.000000,4.000000,4.000000,4.000000,4.000000,4.000000,100.000000,,,,,,,,,,,,,,,,,,,,,,,,,,,,,,,,,,,,,,,,,,,,,,,,,,,,,,,,,,,,,,,,,,,,,,,,,,,,,,,,,,,,,,,,,,,,,,,,,,,,,,,,,,,,,,,,,,,,,,,,,,,,,,,,,
1739356873.396661,1739356873.397591,64.000000,0.000000,4279.871582,4250.897461,4323.846191,4299.358887,4241.538574,4231.538574,4232.307617,4281.538574,4228.717773,4219.615234,4570.641113,4521.794922,4409.358887,4510.769043,4959.000000,0.000000,9.000000,,,,0.000000,4.000000,4.000000,4.000000,4.000000,4.000000,4.000000,4.000000,4.000000,4.000000,4.000000,4.000000,4.000000,4.000000,4.000000,100.000000,,,,,,,,,,,,,,,,,16.000000,0.000000,0.649360,0.123047,-0.717834,0.218872,0.973752,-0.149921,-0.062508,-46.149200,-32.262249,38.341583,,,,,,,,,,,,,,,,,,,,,,,,,,,,,,,,,,,,,,,,,,,,,,,,,,,,,,,,,,,,,,,,,,,,,,,,,,,,,,,,,,,,,,,,,,,,,,,,,,,,,
1739356873.404470,1739356873.405399,65.000000,0.000000,4282.051270,4251.922852,4324.871582,4299.743652,4245.384766,4235.897461,4242.820313,4284.487305,4229.230957,4218.461426,4570.769043,4520.128418,4410.512695,4506.153809,5587.000000,0.000000,9.000000,,,,0.000000,4.000000,4.000000,4.000000,4.000000,4.000000,4.000000,4.000000,4.000000,4.000000,4.000000,4.000000,4.000000,4.000000,4.000000,100.000000,,,,,,,,,,,,,,,,,,,,,,,,,,,,,,,,,,,,,,,,,,,,,,,,,,,,,,,,,,,,,,,,,,,,,,,,,,,,,,,,,,,,,,,,,,,,,,,,,,,,,,,,,,,,,,,,,,,,,,,,,,,,,,,,,
1739356873.412278,1739356873.413107,66.000000,0.000000,4271.410156,4247.563965,4317.179688,4291.666504,4245.128418,4236.922852,4248.461426,4285.897461,4230.000000,4220.000000,4563.589844,4508.846191,4403.717773,4494.358887,5596.000000,0.000000,9.000000,,,,0.000000,4.000000,4.000000,4.000000,4.000000,4.000000,4.000000,4.000000,4.000000,4.000000,4.000000,4.000000,4.000000,4.000000,4.000000,100.000000,,,,,,,,,,,,,,,,,,,,,,,,,,,,,,,,,,,,,,,,,,,,,,,,,,,,,,,,,,,,,,,,,,,,,,,,,,,,,,,,,,,,,,,,,,,,,,,,,,,,,,,,,,,,,,,,,,,,,,,,,,,,,,,,,
1739356873.420086,1739356873.420915,67.000000,0.000000,4258.077148,4234.487305,4307.948730,4282.179688,4236.794922,4235.256348,4248.974121,4287.563965,4234.102539,4220.256348,4562.051270,4500.769043,4398.717773,4488.077148,5547.000000,0.000000,9.000000,,,,0.000000,4.000000,4.000000,4.000000,4.000000,4.000000,4.000000,4.000000,4.000000,4.000000,4.000000,4.000000,4.000000,4.000000,4.000000,100.000000,,,,,,,,,,,,,,,,,,,,,,,,,,,,,,,,,,,,,,,,,,,,,,,,,,,,,,,,,,,,,,,,,,,,,,,,,,,,,,,,,,,,,,,,,,,,,,,,,,,,,,,,,,,,,,,,,,,,,,,,,,,,,,,,,
1739356873.427894,1739356873.428623,68.000000,0.000000,4250.128418,4229.102539,4299.230957,4276.538574,4230.897461,4234.743652,4242.948730,4289.102539,4231.282227,4220.000000,4561.922852,4491.666504,4397.436035,4482.436035,5517.000000,0.000000,9.000000,,,,0.000000,4.000000,4.000000,4.000000,4.000000,4.000000,4.000000,4.000000,4.000000,4.000000,4.000000,4.000000,4.000000,4.000000,4.000000,100.000000,,,,,,,,,,,,,,,,,17.000000,0.000000,0.649381,0.123291,-0.717773,0.218872,0.986449,-0.146502,-0.047369,-46.167614,-32.419357,38.440758,,,,,,,,,,,,,,,,,,,,,,,,,,,,,,,,,,,,,,,,,,,,,,,,,,,,,,,,,,,,,,,,,,,,,,,,,,,,,,,,,,,,,,,,,,,,,,,,,,,,,
1739356873.435702,1739356873.436431,69.000000,0.000000,4245.769043,4230.641113,4293.846191,4270.769043,4231.666504,4233.974121,4235.256348,4282.307617,4222.307617,4219.487305,4557.051270,4483.077148,4392.820313,4475.769043,5475.000000,0.000000,9.000000,,,,0.000000,4.000000,4.000000,4.000000,4.000000,4.000000,4.000000,4.000000,4.000000,4.000000,4.000000,4.000000,4.000000,4.000000,4.000000,100.000000,,,,,,,,,,,,,,,,,,,,,,,,,,,,,,,,,,,,,,,,,,,,,,,,,,,,,,,,,,,,,,,,,,,,,,,,,,,,,,,,,,,,,,,,,,,,,,,,,,,,,,,,,,,,,,,,,,,,,,,,,,,,,,,,,
1739356873.443510,1739356873.444140,70.000000,0.000000,4241.794922,4223.077148,4292.948730,4263.333496,4229.102539,4228.974121,4229.743652,4275.641113,4218.461426,4215.897461,4552.948730,4479.871582,4392.563965,4472.820313,5465.000000,0.000000,9.000000,,,,0.000000,4.000000,4.000000,4.000000,4.000000,4.000000,4.000000,4.000000,4.000000,4.000000,4.000000,4.000000,4.000000,4.000000,4.000000,100.000000,,,,,,,,,,,,,,,,,,,,,,,,,,,,,,,,,,,,,,,,,,,,,,,,,,,,,,,,,,,,,,,,,,,,,,,,,,,,,,,,,,,,,,,,,,,,,,,,,,,,,,,,,,,,,,,,,,,,,,,,,,,,,,,,,
1739356873.451318,1739356873.451947,71.000000,0.000000,4243.077148,4220.256348,4293.461426,4263.461426,4224.743652,4223.974121,4221.794922,4277.179688,4220.128418,4215.128418,4557.051270,4482.307617,4397.436035,4475.897461,2049.000000,0.000000,9.000000,,,,0.000000,4.000000,4.000000,4.000000,4.000000,4.000000,4.000000,4.000000,4.000000,4.000000,4.000000,4.000000,4.000000,4.000000,4.000000,100.000000,,,,,,,,,,,,,,,,,,,,,,,,,,,,,,,,,,,,,,,,,,,,,,,,,,,,,,,,,,,,,,,,,,,,,,,,,,,,,,,,,,,,,,,,,,,,,,,,,,,,,,,,,,,,,,,,,,,,,,,,,,,,,,,,,
1739356873.459126,1739356873.459656,72.000000,0.000000,4245.897461,4230.128418,4293.077148,4273.717773,4225.641113,4221.025879,4214.615234,4276.538574,4219.487305,4217.051270,4561.538574,4484.102539,4395.769043,4476.794922,5267.000000,0.000000,9.000000,,,,0.000000,4.000000,4.000000,4.000000,4.000000,4.000000,4.000000,4.000000,4.000000,4.000000,4.000000,4.000000,4.000000,4.000000,4.000000,100.000000,1.000000,100.000000,4.000000,4.000000,4.000000,4.000000,4.000000,4.000000,4.000000,4.000000,4.000000,4.000000,4.000000,4.000000,4.000000,4.000000,18.000000,0.000000,0.649578,0.123779,-0.717529,0.218811,0.983030,-0.151386,-0.049811,-46.134186,-32.310757,38.396683,,,,,,,,,,,,,,,,,,,,,,,,,,,,,,,,1.535123,3.853868,1.406493,0.275177,0.140405,0.492355,3.691751,1.071578,0.303594,0.138622,1.643222,3.511625,1.026492,0.251442,0.121055,0.762901,4.070551,1.129923,0.388230,0.129169,0.425616,1.687182,0.311410,0.155656,0.119012,0.218206,0.326467,0.139266,0.069209,0.091935,0.494346,0.576619,0.627418,0.118471,0.082060,0.341477,0.481895,0.566167,0.124048,0.054584,0.740007,2.237053,1.191088,0.328955,0.128213,1.346491,2.331200,1.895581,0.402685,0.212140,3.408325,3.439855,1.268742,0.259976,0.177218,2.745146,5.184121,1.906326,0.384594,0.146343,1.865833,1.777598,0.896685,0.250697,0.138008,1.222195,4.260730,1.767763,0.370539,0.190762
1739356873.466934,1739356873.467464,73.000000,0.000000,4248.205078,4231.410156,4293.717773,4277.563965,4225.000000,4219.358887,4214.102539,4271.153809,4217.051270,4217.948730,4560.897461,4480.512695,4391.410156,4476.153809,5612.000000,0.000000,9.000000,,,,0.000000,4.000000,4.000000,4.000000,4.000000,4.000000,4.000000,4.000000,4.000000,4.000000,4.000000,4.000000,4.000000,4.000000,4.000000,100.000000,,,,,,,,,,,,,,,,,,,,,,,,,,,,,,,,,,,,,,,,,,,,,,,,,,,,,,,,,,,,,,,,,,,,,,,,,,,,,,,,,,,,,,,,,,,,,,,,,,,,,,,,,,,,,,,,,,,,,,,,,,,,,,,,,
1739356873.474742,1739356873.475172,74.000000,0.000000,4257.307617,4232.692383,4298.333496,4277.179688,4222.563965,4217.307617,4210.641113,4271.922852,4217.307617,4217.179688,4562.307617,4481.922852,4394.358887,4483.205078,4817.000000,0.000000,9.000000,,,,0.000000,4.000000,4.000000,4.000000,4.000000,4.000000,4.000000,4.000000,4.000000,4.000000,4.000000,4.000000,4.000000,4.000000,4.000000,100.000000,,,,,,,,,,,,,,,,,,,,,,,,,,,,,,,,,,,,,,,,,,,,,,,,,,,,,,,,,,,,,,,,,,,,,,,,,,,,,,,,,,,,,,,,,,,,,,,,,,,,,,,,,,,,,,,,,,,,,,,,,,,,,,,,,
1739356873.482550,1739356873.482980,75.000000,0.000000,4266.282227,4240.256348,4305.000000,4285.641113,4228.205078,4216.794922,4202.436035,4277.820313,4222.051270,4220.897461,4571.025879,4491.410156,4399.743652,4491.410156,5624.000000,0.000000,9.000000,,,,0.000000,4.000000,4.000000,4.000000,4.000000,4.000000,4.000000,4.000000,4.000000,4.000000,4.000000,4.000000,4.000000,4.000000,4.000000,100.000000,,,,,,,,,,,,,,,,,,,,,,,,,,,,,,,,,,,,,,,,,,,,,,,,,,,,,,,,,,,,,,,,,,,,,,,,,,,,,,,,,,,,,,,,,,,,,,,,,,,,,,,,,,,,,,,,,,,,,,,,,,,,,,,,,
1739356873.490358,1739356873.490688,76.000000,0.000000,4262.179688,4237.948730,4306.922852,4294.487305,4233.589844,4221.538574,4207.563965,4281.666504,4231.153809,4229.358887,4578.589844,4493.846191,4398.205078,4488.589844,5666.000000,0.000000,9.000000,,,,0.000000,4.000000,4.000000,4.000000,4.000000,4.000000,4.000000,4.000000,4.000000,4.000000,4.000000,4.000000,4.000000,4.000000,4.000000,100.000000,,,,,,,,,,,,,,,,,19.000000,0.000000,0.649846,0.124329,-0.717285,0.218506,0.984984,-0.129410,-0.059578,-46.070766,-32.379681,38.490349,,,,,,,,,,,,,,,,,,,,,,,,,,,,,,,,,,,,,,,,,,,,,,,,,,,,,,,,,,,,,,,,,,,,,,,,,,,,,,,,,,,,,,,,,,,,,,,,,,,,,
1739356873.498166,1739356873.498496,77.000000,0.000000,4257.179688,4239.871582,4306.538574,4296.922852,4235.512695,4229.871582,4224.487305,4282.820313,4238.077148,4228.461426,4582.179688,4497.820313,4398.846191,4487.051270,6462.000000,0.000000,9.000000,,,,0.000000,4.000000,4.000000,4.000000,4.000000,4.000000,4.000000,4.000000,4.000000,4.000000,4.000000,4.000000,4.000000,4.000000,4.000000,100.000000,,,,,,,,,,,,,,,,,,,,,,,,,,,,,,,,,,,,,,,,,,,,,,,,,,,,,,,,,,,,,,,,,,,,,,,,,,,,,,,,,,,,,,,,,,,,,,,,,,,,,,,,,,,,,,,,,,,,,,,,,,,,,,,,,
1739356873.505975,1739356873.506204,78.000000,0.000000,4263.205078,4248.077148,4309.743652,4297.820313,4239.871582,4235.128418,4236.666504,4281.794922,4236.153809,4225.256348,4590.000000,4506.794922,4404.743652,4495.000000,4817.000000,0.000000,9.000000,,,,0.000000,4.000000,4.000000,4.000000,4.000000,4.000000,4.000000,4.000000,4.000000,4.000000,4.000000,4.000000,4.000000,4.000000,4.000000,100.000000,,,,,,,,,,,,,,,,,,,,,,,,,,,,,,,,,,,,,,,,,,,,,,,,,,,,,,,,,,,,,,,,,,,,,,,,,,,,,,,,,,,,,,,,,,,,,,,,,,,,,,,,,,,,,,,,,,,,,,,,,,,,,,,,,
1739356873.513783,1739356873.514112,79.000000,0.000000,4263.077148,4240.641113,4310.128418,4293.205078,4242.436035,4236.025879,4244.871582,4280.512695,4235.769043,4225.897461,4588.717773,4499.871582,4402.179688,4494.615234,5624.000000,0.000000,9.000000,,,,0.000000,4.000000,4.000000,4.000000,4.000000,4.000000,4.000000,4.000000,4.000000,4.000000,4.000000,4.000000,4.000000,4.000000,4.000000,100.000000,,,,,,,,,,,,,,,,,,,,,,,,,,,,,,,,,,,,,,,,,,,,,,,,,,,,,,,,,,,,,,,,,,,,,,,,,,,,,,,,,,,,,,,,,,,,,,,,,,,,,,,,,,,,,,,,,,,,,,,,,,,,,,,,,
1739356873.521591,1739356873.521920,80.000000,0.000000,4250.641113,4227.948730,4300.512695,4281.410156,4233.589844,4234.871582,4246.666504,4274.487305,4238.333496,4221.282227,4573.205078,4486.538574,4387.948730,4482.436035,5666.000000,0.000000,9.000000,,,,0.000000,4.000000,4.000000,4.000000,4.000000,4.000000,4.000000,4.000000,4.000000,4.000000,4.000000,4.000000,4.000000,4.000000,4.000000,100.000000,,,,,,,,,,,,,,,,,20.000000,0.000000,0.650133,0.124878,-0.717041,0.218140,0.988402,-0.136735,-0.050787,-45.980358,-32.291714,38.507980,,,,,,,,,,,,,,,,,,,,,,,,,,,,,,,,,,,,,,,,,,,,,,,,,,,,,,,,,,,,,,,,,,,,,,,,,,,,,,,,,,,,,,,,,,,,,,,,,,,,,
1739356873.529399,1739356873.529828,81.000000,0.000000,4245.769043,4228.974121,4295.384766,4276.410156,4220.897461,4231.153809,4237.436035,4268.717773,4231.025879,4215.256348,4565.641113,4486.666504,4381.025879,4476.153809,6462.000000,0.000000,9.000000,,,,0.000000,4.000000,4.000000,4.000000,4.000000,4.000000,4.000000,4.000000,4.000000,4.000000,4.000000,4.000000,4.000000,4.000000,4.000000,100.000000,,,,,,,,,,,,,,,,,,,,,,,,,,,,,,,,,,,,,,,,,,,,,,,,,,,,,,,,,,,,,,,,,,,,,,,,,,,,,,,,,,,,,,,,,,,,,,,,,,,,,,,,,,,,,,,,,,,,,,,,,,,,,,,,,
1739356873.537207,1739356873.537636,82.000000,0.000000,4254.487305,4233.717773,4303.717773,4280.128418,4218.589844,4226.153809,4225.897461,4273.974121,4219.487305,4215.512695,4574.871582,4490.641113,4388.974121,4482.436035,4817.000000,0.000000,9.000000,,,,0.000000,4.000000,4.000000,4.000000,4.000000,4.000000,4.000000,4.000000,4.000000,4.000000,4.000000,4.000000,4.000000,4.000000,4.000000,100.000000,,,,,,,,,,,,,,,,,,,,,,,,,,,,,,,,,,,,,,,,,,,,,,,,,,,,,,,,,,,,,,,,,,,,,,,,,,,,,,,,,,,,,,,,,,,,,,,,,,,,,,,,,,,,,,,,,,,,,,,,,,,,,,,,,
1739356873.545015,1739356873.545544,83.000000,0.000000,4260.641113,4232.436035,4311.282227,4284.615234,4220.384766,4221.153809,4218.717773,4280.000000,4217.179688,4215.512695,4582.692383,4491.922852,4397.051270,4492.051270,5624.000000,0.000000,9.000000,,,,0.000000,4.000000,4.000000,4.000000,4.000000,4.000000,4.000000,4.000000,4.000000,4.000000,4.000000,4.000000,4.000000,4.000000,4.000000,100.000000,,,,,,,,,,,,,,,,,,,,,,,,,,,,,,,,,,,,,,,,,,,,,,,,,,,,,,,,,,,,,,,,,,,,,,,,,,,,,,,,,,,,,,,,,,,,,,,,,,,,,,,,,,,,,,,,,,,,,,,,,,,,,,,,,
1739356873.552823,1739356873.553352,84.000000,0.000000,4260.769043,4230.512695,4311.025879,4288.333496,4217.307617,4216.666504,4211.410156,4279.615234,4219.102539,4213.205078,4581.794922,4495.769043,4399.615234,4492.563965,5666.000000,0.000000,9.000000,,,,0.000000,4.000000,4.000000,4.000000,4.000000,4.000000,4.000000,4.000000,4.000000,4.000000,4.000000,4.000000,4.000000,4.000000,4.000000,100.000000,,,,,,,,,,,,,,,,,21.000000,0.000000,0.650545,0.125122,-0.716736,0.217773,0.981565,-0.141131,-0.044439,-45.932320,-32.162540,38.457180,,,,,,,,,,,,,,,,,,,,,,,,,,,,,,,,,,,,,,,,,,,,,,,,,,,,,,,,,,,,,,,,,,,,,,,,,,,,,,,,,,,,,,,,,,,,,,,,,,,,,
1739356873.560631,1739356873.561260,85.000000,0.000000,4262.563965,4231.666504,4310.256348,4290.128418,4214.871582,4215.256348,4211.025879,4279.230957,4221.282227,4215.512695,4585.128418,4503.205078,4400.256348,4488.333496,6462.000000,0.000000,9.000000,,,,0.000000,4.000000,4.000000,4.000000,4.000000,4.000000,4.000000,4.000000,4.000000,4.000000,4.000000,4.000000,4.000000,4.000000,4.000000,100.000000,,,,,,,,,,,,,,,,,,,,,,,,,,,,,,,,,,,,,,,,,,,,,,,,,,,,,,,,,,,,,,,,,,,,,,,,,,,,,,,,,,,,,,,,,,,,,,,,,,,,,,,,,,,,,,,,,,,,,,,,,,,,,,,,,
1739356873.568439,1739356873.569068,86.000000,0.000000,4265.128418,4234.615234,4312.307617,4289.230957,4217.307617,4215.384766,4213.205078,4278.333496,4224.871582,4217.948730,4590.256348,4509.102539,4403.717773,4491.922852,4817.000000,0.000000,9.000000,,,,0.000000,4.000000,4.000000,4.000000,4.000000,4.000000,4.000000,4.000000,4.000000,4.000000,4.000000,4.000000,4.000000,4.000000,4.000000,100.000000,,,,,,,,,,,,,,,,,,,,,,,,,,,,,,,,,,,,,,,,,,,,,,,,,,,,,,,,,,,,,,,,,,,,,,,,,,,,,,,,,,,,,,,,,,,,,,,,,,,,,,,,,,,,,,,,,,,,,,,,,,,,,,,,,
1739356873.576247,1739356873.576976,87.000000,0.000000,4270.000000,4235.384766,4317.179688,4290.769043,4223.333496,4215.512695,4207.179688,4277.563965,4221.922852,4219.358887,4589.358887,4508.974121,4408.846191,4500.000000,5624.000000,0.000000,9.000000,,,,0.000000,4.000000,4.000000,4.000000,4.000000,4.000000,4.000000,4.000000,4.000000,4.000000,4.000000,4.000000,4.000000,4.000000,4.000000,100.000000,,,,,,,,,,,,,,,,,,,,,,,,,,,,,,,,,,,,,,,,,,,,,,,,,,,,,,,,,,,,,,,,,,,,,,,,,,,,,,,,,,,,,,,,,,,,,,,,,,,,,,,,,,,,,,,,,,,,,,,,,,,,,,,,,
1739356873.584056,1739356873.584784,88.000000,0.000000,4274.102539,4241.538574,4319.487305,4294.102539,4228.717773,4216.794922,4205.000000,4279.358887,4215.256348,4220.000000,4583.717773,4508.205078,4405.128418,4498.717773,5666.000000,0.000000,9.000000,,,,0.000000,4.000000,4.000000,4.000000,4.000000,4.000000,4.000000,4.000000,4.000000,4.000000,4.000000,4.000000,4.000000,4.000000,4.000000,100.000000,,,,,,,,,,,,,,,,,22.000000,0.000000,0.650682,0.125183,-0.716675,0.217529,0.993774,-0.130387,-0.050299,-45.922421,-32.162952,38.544796,,,,,,,,,,,,,,,,,,,,,,,,,,,,,,,,1.723537,4.716848,1.401393,0.300915,0.154242,0.659777,3.770424,1.064283,0.324232,0.154853,1.656715,4.081780,0.978732,0.219566,0.131784,0.847076,4.106612,1.099194,0.378388,0.142584,0.488918,1.547802,0.376385,0.177338,0.125002,0.294395,0.316829,0.145299,0.084608,0.094327,0.464751,0.782238,0.676961,0.122784,0.077071,0.523976,0.637817,0.709282,0.161777,0.060914,0.816389,2.989964,1.146422,0.294091,0.134802,1.533973,3.421759,1.923107,0.444621,0.199838,2.612750,4.821733,1.464450,0.276992,0.185154,2.889025,6.305093,1.911863,0.435901,0.162092,2.038814,2.613352,0.963079,0.283636,0.133117,1.397896,5.430547,1.892710,0.374485,0.182910
1739356873.591864,1739356873.592492,89.000000,0.000000,4270.128418,4247.436035,4317.692383,4295.769043,4230.384766,4216.794922,4212.436035,4281.153809,4217.436035,4214.358887,4577.179688,4510.769043,4396.922852,4493.846191,6462.000000,0.000000,9.000000,,,,0.000000,4.000000,4.000000,4.000000,4.000000,4.000000,4.000000,4.000000,4.000000,4.000000,4.000000,4.000000,4.000000,4.000000,4.000000,100.000000,,,,,,,,,,,,,,,,,,,,,,,,,,,,,,,,,,,,,,,,,,,,,,,,,,,,,,,,,,,,,,,,,,,,,,,,,,,,,,,,,,,,,,,,,,,,,,,,,,,,,,,,,,,,,,,,,,,,,,,,,,,,,,,,,
1739356873.599671,1739356873.600300,90.000000,0.000000,4264.102539,4239.102539,4314.871582,4297.948730,4228.077148,4218.589844,4222.948730,4281.538574,4221.282227,4207.307617,4572.948730,4508.205078,4395.256348,4490.512695,4817.000000,0.000000,9.000000,,,,0.000000,4.000000,4.000000,4.000000,4.000000,4.000000,4.000000,4.000000,4.000000,4.000000,4.000000,4.000000,4.000000,4.000000,4.000000,100.000000,,,,,,,,,,,,,,,,,,,,,,,,,,,,,,,,,,,,,,,,,,,,,,,,,,,,,,,,,,,,,,,,,,,,,,,,,,,,,,,,,,,,,,,,,,,,,,,,,,,,,,,,,,,,,,,,,,,,,,,,,,,,,,,,,
1739356873.607480,1739356873.608008,91.000000,0.000000,4262.820313,4230.769043,4314.615234,4295.512695,4230.641113,4228.077148,4231.153809,4283.846191,4220.512695,4202.692383,4574.358887,4498.974121,4393.461426,4482.948730,5624.000000,0.000000,9.000000,,,,0.000000,4.000000,4.000000,4.000000,4.000000,4.000000,4.000000,4.000000,4.000000,4.000000,4.000000,4.000000,4.000000,4.000000,4.000000,100.000000,,,,,,,,,,,,,,,,,,,,,,,,,,,,,,,,,,,,,,,,,,,,,,,,,,,,,,,,,,,,,,,,,,,,,,,,,,,,,,,,,,,,,,,,,,,,,,,,,,,,,,,,,,,,,,,,,,,,,,,,,,,,,,,,,
1739356873.615288,1739356873.615816,92.000000,0.000000,4257.307617,4234.743652,4311.282227,4288.205078,4230.769043,4232.692383,4236.538574,4286.153809,4220.769043,4201.666504,4568.846191,4492.692383,4388.461426,4476.025879,5666.000000,0.000000,9.000000,,,,0.000000,4.000000,4.000000,4.000000,4.000000,4.000000,4.000000,4.000000,4.000000,4.000000,4.000000,4.000000,4.000000,4.000000,4.000000,100.000000,,,,,,,,,,,,,,,,,23.000000,0.000000,0.650922,0.125305,-0.716492,0.217346,0.990844,-0.123062,-0.048346,-45.730179,-32.146660,38.390316,,,,,,,,,,,,,,,,,,,,,,,,,,,,,,,,,,,,,,,,,,,,,,,,,,,,,,,,,,,,,,,,,,,,,,,,,,,,,,,,,,,,,,,,,,,,,,,,,,,,,
1739356873.623096,1739356873.623524,93.000000,0.000000,4247.307617,4229.615234,4301.410156,4279.358887,4219.743652,4222.820313,4234.487305,4282.179688,4218.717773,4199.358887,4555.769043,4489.743652,4386.025879,4471.282227,6462.000000,0.000000,9.000000,,,,0.000000,4.000000,4.000000,4.000000,4.000000,4.000000,4.000000,4.000000,4.000000,4.000000,4.000000,4.000000,4.000000,4.000000,4.000000,100.000000,,,,,,,,,,,,,,,,,,,,,,,,,,,,,,,,,,,,,,,,,,,,,,,,,,,,,,,,,,,,,,,,,,,,,,,,,,,,,,,,,,,,,,,,,,,,,,,,,,,,,,,,,,,,,,,,,,,,,,,,,,,,,,,,,
1739356873.630904,1739356873.631332,94.000000,0.000000,4245.000000,4217.051270,4292.436035,4272.948730,4212.307617,4215.384766,4225.641113,4276.794922,4217.051270,4197.948730,4551.922852,4485.256348,4389.102539,4470.512695,4817.000000,0.000000,9.000000,,,,0.000000,4.000000,4.000000,4.000000,4.000000,4.000000,4.000000,4.000000,4.000000,4.000000,4.000000,4.000000,4.000000,4.000000,4.000000,100.000000,,,,,,,,,,,,,,,,,,,,,,,,,,,,,,,,,,,,,,,,,,,,,,,,,,,,,,,,,,,,,,,,,,,,,,,,,,,,,,,,,,,,,,,,,,,,,,,,,,,,,,,,,,,,,,,,,,,,,,,,,,,,,,,,,
1739356873.638712,1739356873.639040,95.000000,0.000000,4249.358887,4221.922852,4293.205078,4274.230957,4215.769043,4217.820313,4220.000000,4278.846191,4222.692383,4206.794922,4555.000000,4485.512695,4393.717773,4477.179688,5624.000000,0.000000,9.000000,,,,0.000000,4.000000,4.000000,4.000000,4.000000,4.000000,4.000000,4.000000,4.000000,4.000000,4.000000,4.000000,4.000000,4.000000,4.000000,100.000000,,,,,,,,,,,,,,,,,,,,,,,,,,,,,,,,,,,,,,,,,,,,,,,,,,,,,,,,,,,,,,,,,,,,,,,,,,,,,,,,,,,,,,,,,,,,,,,,,,,,,,,,,,,,,,,,,,,,,,,,,,,,,,,,,
1739356873.646520,1739356873.646848,96.000000,0.000000,4251.538574,4234.230957,4298.589844,4279.230957,4218.205078,4218.077148,4214.358887,4283.846191,4230.000000,4219.615234,4557.051270,4491.025879,4395.256348,4483.077148,5666.000000,0.000000,9.000000,,,,0.000000,4.000000,4.000000,4.000000,4.000000,4.000000,4.000000,4.000000,4.000000,4.000000,4.000000,4.000000,4.000000,4.000000,4.000000,100.000000,,,,,,,,,,,,,,,,,24.000000,0.000000,0.651154,0.125671,-0.716309,0.217041,0.981565,-0.132829,-0.046392,-45.640495,-32.215324,38.417953,,,,,,,,,,,,,,,,,,,,,,,,,,,,,,,,,,,,,,,,,,,,,,,,,,,,,,,,,,,,,,,,,,,,,,,,,,,,,,,,,,,,,,,,,,,,,,,,,,,,,
1739356873.654328,1739356873.654556,97.000000,0.000000,4248.461426,4232.820313,4296.794922,4280.000000,4216.410156,4214.743652,4205.512695,4281.922852,4227.692383,4218.333496,4556.282227,4491.410156,4392.307617,4483.077148,6462.000000,0.000000,9.000000,,,,0.000000,4.000000,4.000000,4.000000,4.000000,4.000000,4.000000,4.000000,4.000000,4.000000,4.000000,4.000000,4.000000,4.000000,4.000000,100.000000,,,,,,,,,,,,,,,,,,,,,,,,,,,,,,,,,,,,,,,,,,,,,,,,,,,,,,,,,,,,,,,,,,,,,,,,,,,,,,,,,,,,,,,,,,,,,,,,,,,,,,,,,,,,,,,,,,,,,,,,,,,,,,,,,
1739356873.662136,1739356873.662364,98.000000,0.000000,4249.358887,4225.256348,4293.333496,4277.563965,4216.922852,4214.743652,4197.820313,4274.230957,4218.205078,4205.641113,4554.487305,4488.077148,4392.051270,4485.641113,4817.000000,0.000000,9.000000,,,,0.000000,4.000000,4.000000,4.000000,4.000000,4.000000,4.000000,4.000000,4.000000,4.000000,4.000000,4.000000,4.000000,4.000000,4.000000,100.000000,,,,,,,,,,,,,,,,,,,,,,,,,,,,,,,,,,,,,,,,,,,,,,,,,,,,,,,,,,,,,,,,,,,,,,,,,,,,,,,,,,,,,,,,,,,,,,,,,,,,,,,,,,,,,,,,,,,,,,,,,,,,,,,,,
1739356873.669944,1739356873.670072,99.000000,0.000000,4258.205078,4227.051270,4295.256348,4277.820313,4217.436035,4211.538574,4197.820313,4270.641113,4214.102539,4200.128418,4557.179688,4489.743652,4393.077148,4491.794922,5624.000000,0.000000,9.000000,,,,0.000000,4.000000,4.000000,4.000000,4.000000,4.000000,4.000000,4.000000,4.000000,4.000000,4.000000,4.000000,4.000000,4.000000,4.000000,100.000000,,,,,,,,,,,,,,,,,,,,,,,,,,,,,,,,,,,,,,,,,,,,,,,,,,,,,,,,,,,,,,,,,,,,,,,,,,,,,,,,,,,,,,,,,,,,,,,,,,,,,,,,,,,,,,,,,,,,,,,,,,,,,,,,,
1739356873.677752,1739356873.677980,100.000000,0.000000,4261.922852,4232.563965,4296.922852,4279.615234,4217.436035,4205.256348,4197.820313,4274.102539,4216.410156,4206.538574,4561.410156,4491.922852,4390.897461,4491.666504,5666.000000,0.000000,9.000000,,,,0.000000,4.000000,4.000000,4.000000,4.000000,4.000000,4.000000,4.000000,4.000000,4.000000,4.000000,4.000000,4.000000,4.000000,4.000000,100.000000,,,,,,,,,,,,,,,,,25.000000,0.000000,0.651381,0.126099,-0.716064,0.216919,0.996704,-0.135759,-0.052741,-45.693111,-32.143791,38.409489,,,,,,,,,,,,,,,,,,,,,,,,,,,,,,,,,,,,,,,,,,,,,,,,,,,,,,,,,,,,,,,,,,,,,,,,,,,,,,,,,,,,,,,,,,,,,,,,,,,,,
1739356873.685561,1739356873.685788,101.000000,0.000000,4252.948730,4232.051270,4295.128418,4279.487305,4216.794922,4206.025879,4200.641113,4276.538574,4215.641113,4210.769043,4557.179688,4487.179688,4385.897461,4481.666504,6462.000000,0.000000,9.000000,,,,0.000000,4.000000,4.000000,4.000000,4.000000,4.000000,4.000000,4.000000,4.000000,4.000000,4.000000,4.000000,4.000000,4.000000,4.000000,100.000000,,,,,,,,,,,,,,,,,,,,,,,,,,,,,,,,,,,,,,,,,,,,,,,,,,,,,,,,,,,,,,,,,,,,,,,,,,,,,,,,,,,,,,,,,,,,,,,,,,,,,,,,,,,,,,,,,,,,,,,,,,,,,,,,,
1739356873.693369,1739356873.693697,102.000000,0.000000,4242.948730,4227.692383,4291.153809,4277.820313,4216.538574,4214.615234,4216.025879,4275.769043,4212.051270,4203.846191,4552.563965,4482.179688,4378.461426,4469.615234,4817.000000,0.000000,9.000000,,,,0.000000,4.000000,4.000000,4.000000,4.000000,4.000000,4.000000,4.000000,4.000000,4.000000,4.000000,4.000000,4.000000,4.000000,4.000000,100.000000,,,,,,,,,,,,,,,,,,,,,,,,,,,,,,,,,,,,,,,,,,,,,,,,,,,,,,,,,,,,,,,,,,,,,,,,,,,,,,,,,,,,,,,,,,,,,,,,,,,,,,,,,,,,,,,,,,,,,,,,,,,,,,,,,
1739356873.701177,1739356873.701505,103.000000,0.000000,4246.794922,4228.589844,4291.794922,4279.743652,4226.025879,4226.282227,4233.333496,4278.846191,4218.717773,4199.358887,4561.922852,4485.000000,4383.333496,4475.128418,5624.000000,0.000000,9.000000,,,,0.000000,4.000000,4.000000,4.000000,4.000000,4.000000,4.000000,4.000000,4.000000,4.000000,4.000000,4.000000,4.000000,4.000000,4.000000,100.000000,,,,,,,,,,,,,,,,,,,,,,,,,,,,,,,,,,,,,,,,,,,,,,,,,,,,,,,,,,,,,,,,,,,,,,,,,,,,,,,,,,,,,,,,,,,,,,,,,,,,,,,,,,,,,,,,,,,,,,,,,,,,,,,,,
1739356873.708985,1739356873.709413,104.000000,0.000000,4258.461426,4236.025879,4296.922852,4285.512695,4233.589844,4233.205078,4240.512695,4285.769043,4231.794922,4210.512695,4573.333496,4497.179688,4399.102539,4493.077148,5666.000000,0.000000,9.000000,,,,0.000000,4.000000,4.000000,4.000000,4.000000,4.000000,4.000000,4.000000,4.000000,4.000000,4.000000,4.000000,4.000000,4.000000,4.000000,100.000000,,,,,,,,,,,,,,,,,26.000000,0.000000,0.651497,0.126404,-0.715942,0.216797,0.987425,-0.143084,-0.049322,-45.690468,-32.212746,38.435207,,,,,,,,,,,,,,,,,,,,,,,,,,,,,,,,1.924479,5.658072,1.326820,0.313626,0.171749,0.870166,3.790830,0.966297,0.333246,0.171558,1.602634,4.696272,0.884877,0.200877,0.145349,0.881846,4.015494,1.014972,0.365108,0.152368,0.545171,1.304633,0.463518,0.193476,0.123720,0.383122,0.335272,0.185935,0.099432,0.097537,0.456299,1.233858,0.783883,0.128581,0.070259,0.717023,0.796080,0.803269,0.189222,0.065173,0.851399,3.764169,1.110387,0.267063,0.142133,1.613744,4.610067,1.790811,0.480354,0.188509,1.786925,6.352517,1.532900,0.296146,0.188002,2.898978,7.470994,1.815251,0.481093,0.178772,2.087111,3.522637,0.962187,0.310968,0.130451,1.587098,6.705152,1.868338,0.368861,0.182735
1739356873.716793,1739356873.717221,105.000000,0.000000,4260.128418,4232.307617,4299.230957,4285.000000,4224.358887,4228.846191,4238.333496,4290.000000,4235.384766,4220.128418,4575.641113,4505.641113,4404.615234,4495.769043,6462.000000,0.000000,9.000000,,,,0.000000,4.000000,4.000000,4.000000,4.000000,4.000000,4.000000,4.000000,4.000000,4.000000,4.000000,4.000000,4.000000,4.000000,4.000000,100.000000,,,,,,,,,,,,,,,,,,,,,,,,,,,,,,,,,,,,,,,,,,,,,,,,,,,,,,,,,,,,,,,,,,,,,,,,,,,,,,,,,,,,,,,,,,,,,,,,,,,,,,,,,,,,,,,,,,,,,,,,,,,,,,,,,
1739356873.724601,1739356873.725129,106.000000,0.000000,4255.384766,4219.358887,4296.922852,4279.230957,4214.615234,4219.230957,4230.769043,4287.051270,4235.000000,4217.948730,4566.282227,4499.743652,4398.077148,4486.538574,4817.000000,0.000000,9.000000,,,,0.000000,4.000000,4.000000,4.000000,4.000000,4.000000,4.000000,4.000000,4.000000,4.000000,4.000000,4.000000,4.000000,4.000000,4.000000,100.000000,,,,,,,,,,,,,,,,,,,,,,,,,,,,,,,,,,,,,,,,,,,,,,,,,,,,,,,,,,,,,,,,,,,,,,,,,,,,,,,,,,,,,,,,,,,,,,,,,,,,,,,,,,,,,,,,,,,,,,,,,,,,,,,,,
1739356873.732409,1739356873.732937,107.000000,0.000000,4253.077148,4216.922852,4294.615234,4276.153809,4216.666504,4215.384766,4218.205078,4279.102539,4230.897461,4214.743652,4556.025879,4491.153809,4390.384766,4477.948730,5624.000000,0.000000,9.000000,,,,0.000000,4.000000,4.000000,4.000000,4.000000,4.000000,4.000000,4.000000,4.000000,4.000000,4.000000,4.000000,4.000000,4.000000,4.000000,100.000000,,,,,,,,,,,,,,,,,,,,,,,,,,,,,,,,,,,,,,,,,,,,,,,,,,,,,,,,,,,,,,,,,,,,,,,,,,,,,,,,,,,,,,,,,,,,,,,,,,,,,,,,,,,,,,,,,,,,,,,,,,,,,,,,,
1739356873.740217,1739356873.740845,108.000000,0.000000,4251.153809,4220.897461,4294.487305,4273.974121,4216.410156,4214.358887,4206.025879,4274.487305,4223.717773,4217.179688,4555.641113,4488.589844,4390.641113,4474.487305,5666.000000,0.000000,9.000000,,,,0.000000,4.000000,4.000000,4.000000,4.000000,4.000000,4.000000,4.000000,4.000000,4.000000,4.000000,4.000000,4.000000,4.000000,4.000000,100.000000,,,,,,,,,,,,,,,,,27.000000,0.000000,0.651802,0.126526,-0.715698,0.216614,0.969357,-0.142107,-0.044927,-45.771420,-32.141472,38.458355,,,,,,,,,,,,,,,,,,,,,,,,,,,,,,,,,,,,,,,,,,,,,,,,,,,,,,,,,,,,,,,,,,,,,,,,,,,,,,,,,,,,,,,,,,,,,,,,,,,,,
1739356873.748025,1739356873.748654,109.000000,0.000000,4248.077148,4217.820313,4295.000000,4271.410156,4212.563965,4207.948730,4200.769043,4275.384766,4219.615234,4215.384766,4559.358887,4484.487305,4398.333496,4473.846191,6462.000000,0.000000,9.000000,,,,0.000000,4.000000,4.000000,4.000000,4.000000,4.000000,4.000000,4.000000,4.000000,4.000000,4.000000,4.000000,4.000000,4.000000,4.000000,100.000000,,,,,,,,,,,,,,,,,,,,,,,,,,,,,,,,,,,,,,,,,,,,,,,,,,,,,,,,,,,,,,,,,,,,,,,,,,,,,,,,,,,,,,,,,,,,,,,,,,,,,,,,,,,,,,,,,,,,,,,,,,,,,,,,,
1739356873.755833,1739356873.756562,110.000000,0.000000,4248.205078,4216.025879,4288.974121,4270.256348,4215.000000,4202.692383,4196.922852,4271.922852,4208.077148,4199.615234,4555.512695,4474.743652,4398.205078,4466.025879,4817.000000,0.000000,9.000000,,,,0.000000,4.000000,4.000000,4.000000,4.000000,4.000000,4.000000,4.000000,4.000000,4.000000,4.000000,4.000000,4.000000,4.000000,4.000000,100.000000,,,,,,,,,,,,,,,,,,,,,,,,,,,,,,,,,,,,,,,,,,,,,,,,,,,,,,,,,,,,,,,,,,,,,,,,,,,,,,,,,,,,,,,,,,,,,,,,,,,,,,,,,,,,,,,,,,,,,,,,,,,,,,,,,
1739356873.763641,1739356873.764370,111.000000,0.000000,4246.025879,4217.820313,4281.282227,4270.769043,4216.794922,4203.333496,4191.666504,4266.153809,4189.102539,4184.743652,4546.794922,4469.230957,4391.922852,4455.897461,5624.000000,0.000000,9.000000,,,,0.000000,4.000000,4.000000,4.000000,4.000000,4.000000,4.000000,4.000000,4.000000,4.000000,4.000000,4.000000,4.000000,4.000000,4.000000,100.000000,,,,,,,,,,,,,,,,,,,,,,,,,,,,,,,,,,,,,,,,,,,,,,,,,,,,,,,,,,,,,,,,,,,,,,,,,,,,,,,,,,,,,,,,,,,,,,,,,,,,,,,,,,,,,,,,,,,,,,,,,,,,,,,,,
1739356873.771449,1739356873.772078,112.000000,0.000000,4245.384766,4217.051270,4286.410156,4272.820313,4214.871582,4203.077148,4193.333496,4265.384766,4188.974121,4192.051270,4549.358887,4476.025879,4400.641113,4464.615234,5666.000000,0.000000,9.000000,,,,0.000000,4.000000,4.000000,4.000000,4.000000,4.000000,4.000000,4.000000,4.000000,4.000000,4.000000,4.000000,4.000000,4.000000,4.000000,100.000000,,,,,,,,,,,,,,,,,28.000000,0.000000,0.652107,0.126648,-0.715454,0.216431,0.978635,-0.121597,-0.053229,-45.677612,-31.910658,38.395851,,,,,,,,,,,,,,,,,,,,,,,,,,,,,,,,,,,,,,,,,,,,,,,,,,,,,,,,,,,,,,,,,,,,,,,,,,,,,,,,,,,,,,,,,,,,,,,,,,,,,
1739356873.779257,1739356873.779886,113.000000,0.000000,4255.897461,4223.333496,4295.769043,4279.230957,4215.256348,4202.179688,4200.256348,4268.589844,4207.307617,4211.025879,4564.230957,4489.102539,4412.051270,4480.256348,6462.000000,0.000000,9.000000,,,,0.000000,4.000000,4.000000,4.000000,4.000000,4.000000,4.000000,4.000000,4.000000,4.000000,4.000000,4.000000,4.000000,4.000000,4.000000,100.000000,,,,,,,,,,,,,,,,,,,,,,,,,,,,,,,,,,,,,,,,,,,,,,,,,,,,,,,,,,,,,,,,,,,,,,,,,,,,,,,,,,,,,,,,,,,,,,,,,,,,,,,,,,,,,,,,,,,,,,,,,,,,,,,,,
1739356873.787066,1739356873.787594,114.000000,0.000000,4265.512695,4234.743652,4297.692383,4287.563965,4218.461426,4208.717773,4204.102539,4271.794922,4219.230957,4218.461426,4573.717773,4496.282227,4410.641113,4481.922852,4817.000000,0.000000,9.000000,,,,0.000000,4.000000,4.000000,4.000000,4.000000,4.000000,4.000000,4.000000,4.000000,4.000000,4.000000,4.000000,4.000000,4.000000,4.000000,100.000000,,,,,,,,,,,,,,,,,,,,,,,,,,,,,,,,,,,,,,,,,,,,,,,,,,,,,,,,,,,,,,,,,,,,,,,,,,,,,,,,,,,,,,,,,,,,,,,,,,,,,,,,,,,,,,,,,,,,,,,,,,,,,,,,,
1739356873.794874,1739356873.795402,115.000000,0.000000,4264.487305,4236.153809,4299.487305,4290.641113,4221.410156,4217.948730,4215.256348,4275.000000,4226.410156,4218.974121,4573.333496,4493.461426,4408.333496,4482.692383,5624.000000,0.000000,9.000000,,,,0.000000,4.000000,4.000000,4.000000,4.000000,4.000000,4.000000,4.000000,4.000000,4.000000,4.000000,4.000000,4.000000,4.000000,4.000000,100.000000,,,,,,,,,,,,,,,,,,,,,,,,,,,,,,,,,,,,,,,,,,,,,,,,,,,,,,,,,,,,,,,,,,,,,,,,,,,,,,,,,,,,,,,,,,,,,,,,,,,,,,,,,,,,,,,,,,,,,,,,,,,,,,,,,
1739356873.802682,1739356873.803110,116.000000,0.000000,4259.102539,4232.692383,4300.897461,4286.794922,4220.641113,4220.000000,4230.384766,4281.410156,4236.153809,4221.282227,4576.794922,4491.922852,4407.692383,4485.897461,5666.000000,0.000000,9.000000,,,,0.000000,4.000000,4.000000,4.000000,4.000000,4.000000,4.000000,4.000000,4.000000,4.000000,4.000000,4.000000,4.000000,4.000000,4.000000,100.000000,,,,,,,,,,,,,,,,,29.000000,0.000000,0.652302,0.126648,-0.715332,0.216248,0.978635,-0.134294,-0.041997,-45.693184,-31.852926,38.322933,,,,,,,,,,,,,,,,,,,,,,,,,,,,,,,,,,,,,,,,,,,,,,,,,,,,,,,,,,,,,,,,,,,,,,,,,,,,,,,,,,,,,,,,,,,,,,,,,,,,,
1739356873.810490,1739356873.811018,117.000000,0.000000,4257.307617,4228.846191,4298.846191,4283.461426,4217.563965,4219.102539,4228.717773,4284.358887,4236.666504,4221.538574,4575.897461,4496.153809,4404.230957,4484.358887,6462.000000,0.000000,9.000000,,,,0.000000,4.000000,4.000000,4.000000,4.000000,4.000000,4.000000,4.000000,4.000000,4.000000,4.000000,4.000000,4.000000,4.000000,4.000000,100.000000,,,,,,,,,,,,,,,,,,,,,,,,,,,,,,,,,,,,,,,,,,,,,,,,,,,,,,,,,,,,,,,,,,,,,,,,,,,,,,,,,,,,,,,,,,,,,,,,,,,,,,,,,,,,,,,,,,,,,,,,,,,,,,,,,
1739356873.818298,1739356873.818826,118.000000,0.000000,4249.615234,4218.589844,4293.846191,4277.179688,4216.410156,4217.948730,4218.461426,4277.692383,4225.641113,4214.102539,4557.820313,4490.769043,4395.641113,4476.282227,4817.000000,0.000000,9.000000,,,,0.000000,4.000000,4.000000,4.000000,4.000000,4.000000,4.000000,4.000000,4.000000,4.000000,4.000000,4.000000,4.000000,4.000000,4.000000,100.000000,,,,,,,,,,,,,,,,,,,,,,,,,,,,,,,,,,,,,,,,,,,,,,,,,,,,,,,,,,,,,,,,,,,,,,,,,,,,,,,,,,,,,,,,,,,,,,,,,,,,,,,,,,,,,,,,,,,,,,,,,,,,,,,,,
1739356873.826106,1739356873.826634,119.000000,0.000000,4234.743652,4208.333496,4284.487305,4264.615234,4214.871582,4212.307617,4212.820313,4270.128418,4212.179688,4200.384766,4538.461426,4473.077148,4383.461426,4464.743652,5624.000000,0.000000,9.000000,,,,0.000000,4.000000,4.000000,4.000000,4.000000,4.000000,4.000000,4.000000,4.000000,4.000000,4.000000,4.000000,4.000000,4.000000,4.000000,100.000000,,,,,,,,,,,,,,,,,,,,,,,,,,,,,,,,,,,,,,,,,,,,,,,,,,,,,,,,,,,,,,,,,,,,,,,,,,,,,,,,,,,,,,,,,,,,,,,,,,,,,,,,,,,,,,,,,,,,,,,,,,,,,,,,,
1739356873.833914,1739356873.834342,120.000000,0.000000,4234.487305,4209.230957,4283.717773,4263.333496,4213.717773,4211.282227,4207.436035,4269.871582,4211.666504,4194.487305,4535.256348,4465.384766,4381.538574,4464.487305,5666.000000,0.000000,9.000000,,,,0.000000,4.000000,4.000000,4.000000,4.000000,4.000000,4.000000,4.000000,4.000000,4.000000,4.000000,4.000000,4.000000,4.000000,4.000000,100.000000,,,,,,,,,,,,,,,,,30.000000,0.000000,0.652589,0.126648,-0.715088,0.216187,0.992797,-0.124527,-0.036137,-45.873867,-31.950966,38.190639,,,,,,,,,,,,,,,,,,,,,,,,,,,,,,,,2.088061,6.488633,1.206762,0.307473,0.189758,1.052610,3.776077,0.807694,0.326570,0.185114,1.502925,5.234499,0.782040,0.194730,0.157993,0.878783,3.899806,0.912906,0.346324,0.155739,0.577502,1.052606,0.554895,0.199962,0.115247,0.454266,0.407929,0.257376,0.110069,0.097620,0.467313,2.020580,0.940507,0.143594,0.062815,0.874905,0.916555,0.823388,0.198186,0.066759,0.825150,4.328315,1.090495,0.252858,0.149008,1.537947,5.542455,1.536911,0.492259,0.181465,1.119807,7.657800,1.449492,0.312962,0.186255,2.778818,8.455235,1.637038,0.510623,0.192874,2.002109,4.284389,0.885135,0.324734,0.130056,1.728511,7.763020,1.715880,0.355138,0.188600
1739356873.841722,1739356873.842150,121.000000,0.000000,4243.846191,4215.128418,4293.461426,4275.641113,4215.000000,4215.384766,4202.436035,4270.769043,4213.461426,4200.256348,4542.051270,4474.487305,4387.820313,4472.051270,6462.000000,0.000000,9.000000,,,,0.000000,4.000000,4.000000,4.000000,4.000000,4.000000,4.000000,4.000000,4.000000,4.000000,4.000000,4.000000,4.000000,4.000000,4.000000,100.000000,,,,,,,,,,,,,,,,,,,,,,,,,,,,,,,,,,,,,,,,,,,,,,,,,,,,,,,,,,,,,,,,,,,,,,,,,,,,,,,,,,,,,,,,,,,,,,,,,,,,,,,,,,,,,,,,,,,,,,,,,,,,,,,,,
1739356873.849530,1739356873.849858,122.000000,0.000000,4246.282227,4216.922852,4294.615234,4280.512695,4216.538574,4214.615234,4202.692383,4269.871582,4205.512695,4201.153809,4545.641113,4479.102539,4387.948730,4472.948730,4817.000000,0.000000,9.000000,,,,0.000000,4.000000,4.000000,4.000000,4.000000,4.000000,4.000000,4.000000,4.000000,4.000000,4.000000,4.000000,4.000000,4.000000,4.000000,100.000000,,,,,,,,,,,,,,,,,,,,,,,,,,,,,,,,,,,,,,,,,,,,,,,,,,,,,,,,,,,,,,,,,,,,,,,,,,,,,,,,,,,,,,,,,,,,,,,,,,,,,,,,,,,,,,,,,,,,,,,,,,,,,,,,,
1739356873.857338,1739356873.857766,123.000000,0.000000,4243.205078,4216.153809,4290.384766,4277.563965,4215.512695,4211.922852,4202.307617,4268.717773,4198.717773,4190.641113,4540.000000,4474.358887,4382.948730,4466.538574,5624.000000,0.000000,9.000000,,,,0.000000,4.000000,4.000000,4.000000,4.000000,4.000000,4.000000,4.000000,4.000000,4.000000,4.000000,4.000000,4.000000,4.000000,4.000000,100.000000,,,,,,,,,,,,,,,,,,,,,,,,,,,,,,,,,,,,,,,,,,,,,,,,,,,,,,,,,,,,,,,,,,,,,,,,,,,,,,,,,,,,,,,,,,,,,,,,,,,,,,,,,,,,,,,,,,,,,,,,,,,,,,,,,
1739356873.865146,1739356873.865575,124.000000,0.000000,4242.563965,4218.974121,4293.717773,4277.948730,4216.538574,4214.230957,4203.077148,4266.922852,4199.487305,4185.128418,4533.077148,4472.307617,4380.641113,4462.563965,5666.000000,0.000000,9.000000,,,,0.000000,4.000000,4.000000,4.000000,4.000000,4.000000,4.000000,4.000000,4.000000,4.000000,4.000000,4.000000,4.000000,4.000000,4.000000,100.000000,,,,,,,,,,,,,,,,,31.000000,0.000000,0.652837,0.126648,-0.714844,0.216248,0.983030,-0.128434,-0.047857,-45.969814,-31.972536,38.171577,,,,,,,,,,,,,,,,,,,,,,,,,,,,,,,,,,,,,,,,,,,,,,,,,,,,,,,,,,,,,,,,,,,,,,,,,,,,,,,,,,,,,,,,,,,,,,,,,,,,,
1739356873.872954,1739356873.873383,125.000000,0.000000,4245.641113,4219.871582,4297.051270,4278.077148,4217.692383,4215.128418,4210.256348,4268.461426,4201.538574,4194.615234,4535.000000,4474.743652,4384.743652,4464.358887,6462.000000,0.000000,9.000000,,,,0.000000,4.000000,4.000000,4.000000,4.000000,4.000000,4.000000,4.000000,4.000000,4.000000,4.000000,4.000000,4.000000,4.000000,4.000000,100.000000,,,,,,,,,,,,,,,,,,,,,,,,,,,,,,,,,,,,,,,,,,,,,,,,,,,,,,,,,,,,,,,,,,,,,,,,,,,,,,,,,,,,,,,,,,,,,,,,,,,,,,,,,,,,,,,,,,,,,,,,,,,,,,,,,
1739356873.880762,1739356873.881091,126.000000,0.000000,4248.717773,4214.615234,4296.794922,4277.307617,4216.538574,4218.205078,4219.102539,4270.512695,4201.666504,4201.922852,4538.974121,4475.897461,4387.563965,4471.794922,4817.000000,0.000000,9.000000,,,,0.000000,4.000000,4.000000,4.000000,4.000000,4.000000,4.000000,4.000000,4.000000,4.000000,4.000000,4.000000,4.000000,4.000000,4.000000,100.000000,,,,,,,,,,,,,,,,,,,,,,,,,,,,,,,,,,,,,,,,,,,,,,,,,,,,,,,,,,,,,,,,,,,,,,,,,,,,,,,,,,,,,,,,,,,,,,,,,,,,,,,,,,,,,,,,,,,,,,,,,,,,,,,,,
1739356873.888571,1739356873.888999,127.000000,0.000000,4247.820313,4219.871582,4296.538574,4283.461426,4224.358887,4226.153809,4225.128418,4270.256348,4204.358887,4196.282227,4536.282227,4476.282227,4378.589844,4475.897461,9.000000,0.000000,9.000000,,,,0.000000,4.000000,4.000000,4.000000,4.000000,4.000000,4.000000,4.000000,4.000000,4.000000,4.000000,4.000000,4.000000,4.000000,4.000000,100.000000,,,,,,,,,,,,,,,,,,,,,,,,,,,,,,,,,,,,,,,,,,,,,,,,,,,,,,,,,,,,,,,,,,,,,,,,,,,,,,,,,,,,,,,,,,,,,,,,,,,,,,,,,,,,,,,,,,,,,,,,,,,,,,,,,
1739356873.896379,1739356873.896807,0.000000,0.000000,4247.051270,4229.743652,4295.769043,4287.948730,4232.692383,4225.769043,4224.102539,4271.282227,4212.051270,4198.461426,4538.461426,4479.615234,4380.384766,4474.358887,4959.000000,0.000000,9.000000,,,,0.000000,4.000000,4.000000,4.000000,4.000000,4.000000,4.000000,4.000000,4.000000,4.000000,4.000000,4.000000,4.000000,4.000000,4.000000,100.000000,,,,,,,,,,,,,,,,,0.000000,0.000000,0.653093,0.127014,-0.714600,0.216064,0.994750,-0.127945,-0.035161,-45.839497,-31.825283,38.121086,,,,,,,,,,,,,,,,,,,,,,,,,,,,,,,,,,,,,,,,,,,,,,,,,,,,,,,,,,,,,,,,,,,,,,,,,,,,,,,,,,,,,,,,,,,,,,,,,,,,,
1739356873.904187,1739356873.904715,1.000000,0.000000,4248.205078,4226.666504,4294.615234,4283.974121,4226.282227,4217.820313,4218.205078,4272.307617,4217.307617,4206.025879,4541.153809,4480.769043,4390.897461,4471.282227,5587.000000,0.000000,9.000000,,,,0.000000,4.000000,4.000000,4.000000,4.000000,4.000000,4.000000,4.000000,4.000000,4.000000,4.000000,4.000000,4.000000,4.000000,4.000000,100.000000,,,,,,,,,,,,,,,,,,,,,,,,,,,,,,,,,,,,,,,,,,,,,,,,,,,,,,,,,,,,,,,,,,,,,,,,,,,,,,,,,,,,,,,,,,,,,,,,,,,,,,,,,,,,,,,,,,,,,,,,,,,,,,,,,
1739356873.911995,1739356873.912524,2.000000,0.000000,4238.846191,4217.820313,4290.897461,4277.948730,4217.179688,4215.128418,4210.769043,4272.948730,4216.282227,4201.922852,4536.410156,4475.897461,4381.666504,4463.333496,5597.000000,0.000000,9.000000,,,,0.000000,4.000000,4.000000,4.000000,4.000000,4.000000,4.000000,4.000000,4.000000,4.000000,4.000000,4.000000,4.000000,4.000000,4.000000,100.000000,,,,,,,,,,,,,,,,,,,,,,,,,,,,,,,,,,,,,,,,,,,,,,,,,,,,,,,,,,,,,,,,,,,,,,,,,,,,,,,,,,,,,,,,,,,,,,,,,,,,,,,,,,,,,,,,,,,,,,,,,,,,,,,,,
1739356873.919803,1739356873.920431,3.000000,0.000000,4230.769043,4214.743652,4290.512695,4273.974121,4217.179688,4216.410156,4203.717773,4274.743652,4217.051270,4203.974121,4541.025879,4474.487305,4381.538574,4462.820313,5547.000000,0.000000,9.000000,,,,0.000000,4.000000,4.000000,4.000000,4.000000,4.000000,4.000000,4.000000,4.000000,4.000000,4.000000,4.000000,4.000000,4.000000,4.000000,100.000000,,,,,,,,,,,,,,,,,,,,,,,,,,,,,,,,,,,,,,,,,,,,,,,,,,,,,,,,,,,,,,,,,,,,,,,,,,,,,,,,,,,,,,,,,,,,,,,,,,,,,,,,,,,,,,,,,,,,,,,,,,,,,,,,,
1739356873.927611,1739356873.928239,4.000000,0.000000,4240.897461,4217.563965,4296.922852,4275.384766,4219.871582,4214.102539,4201.153809,4275.384766,4220.641113,4217.820313,4550.512695,4481.282227,4400.000000,4476.410156,5517.000000,0.000000,9.000000,,,,0.000000,4.000000,4.000000,4.000000,4.000000,4.000000,4.000000,4.000000,4.000000,4.000000,4.000000,4.000000,4.000000,4.000000,4.000000,100.000000,,,,,,,,,,,,,,,,,1.000000,0.000000,0.653346,0.126953,-0.714417,0.215942,0.993774,-0.127457,-0.041997,-45.955547,-31.792755,38.258976,,,,,,,,,,,,,,,,,,,,,,,,,,,,,,,,,,,,,,,,,,,,,,,,,,,,,,,,,,,,,,,,,,,,,,,,,,,,,,,,,,,,,,,,,,,,,,,,,,,,,
1739356873.935419,1739356873.936147,5.000000,0.000000,4247.051270,4216.666504,4298.205078,4278.333496,4216.794922,4211.794922,4201.410156,4271.666504,4218.077148,4216.922852,4543.974121,4483.974121,4392.948730,4479.615234,5475.000000,0.000000,9.000000,,,,0.000000,4.000000,4.000000,4.000000,4.000000,4.000000,4.000000,4.000000,4.000000,4.000000,4.000000,4.000000,4.000000,4.000000,4.000000,100.000000,,,,,,,,,,,,,,,,,,,,,,,,,,,,,,,,,,,,,,,,,,,,,,,,,,,,,,,,,,,,,,,,,,,,,,,,,,,,,,,,,,,,,,,,,,,,,,,,,,,,,,,,,,,,,,,,,,,,,,,,,,,,,,,,,
1739356873.943227,1739356873.943955,6.000000,0.000000,4241.922852,4214.487305,4292.563965,4277.051270,4215.897461,4213.717773,4202.436035,4268.589844,4213.589844,4204.358887,4535.641113,4479.230957,4375.641113,4467.307617,5467.000000,0.000000,9.000000,,,,0.000000,4.000000,4.000000,4.000000,4.000000,4.000000,4.000000,4.000000,4.000000,4.000000,4.000000,4.000000,4.000000,4.000000,4.000000,100.000000,,,,,,,,,,,,,,,,,,,,,,,,,,,,,,,,,,,,,,,,,,,,,,,,,,,,,,,,,,,,,,,,,,,,,,,,,,,,,,,,,,,,,,,,,,,,,,,,,,,,,,,,,,,,,,,,,,,,,,,,,,,,,,,,,
1739356873.951035,1739356873.951863,7.000000,0.000000,4243.205078,4217.051270,4292.692383,4274.743652,4219.615234,4216.025879,4208.205078,4268.717773,4211.666504,4200.769043,4541.282227,4476.153809,4382.051270,4465.641113,2049.000000,0.000000,9.000000,,,,0.000000,4.000000,4.000000,4.000000,4.000000,4.000000,4.000000,4.000000,4.000000,4.000000,4.000000,4.000000,4.000000,4.000000,4.000000,100.000000,,,,,,,,,,,,,,,,,,,,,,,,,,,,,,,,,,,,,,,,,,,,,,,,,,,,,,,,,,,,,,,,,,,,,,,,,,,,,,,,,,,,,,,,,,,,,,,,,,,,,,,,,,,,,,,,,,,,,,,,,,,,,,,,,
1739356873.958843,1739356873.959671,8.000000,0.000000,4244.615234,4220.256348,4294.871582,4274.743652,4218.589844,4216.922852,4216.410156,4271.025879,4214.358887,4204.102539,4542.179688,4477.307617,4387.436035,4473.461426,5270.000000,0.000000,9.000000,,,,0.000000,4.000000,4.000000,4.000000,4.000000,4.000000,4.000000,4.000000,4.000000,4.000000,4.000000,4.000000,4.000000,4.000000,4.000000,100.000000,1.000000,100.000000,4.000000,4.000000,4.000000,4.000000,4.000000,4.000000,4.000000,4.000000,4.000000,4.000000,4.000000,4.000000,4.000000,4.000000,2.000000,0.000000,0.653508,0.127014,-0.714294,0.215820,0.987425,-0.122085,-0.039067,-45.859993,-31.746813,38.399746,,,,,,,,,,,,,,,,,,,,,,,,,,,,,,,,2.167326,6.977746,1.077042,0.281377,0.204540,1.147072,3.701724,0.630798,0.302805,0.192498,1.387430,5.543853,0.708158,0.194649,0.165364,0.850345,3.809950,0.824596,0.320882,0.151128,0.574122,0.892865,0.624763,0.196053,0.102195,0.482534,0.561829,0.335074,0.117263,0.091900,0.498473,3.201288,1.089421,0.173911,0.056234,0.944612,0.971713,0.775754,0.188085,0.066060,0.742028,4.511487,1.113539,0.251600,0.153567,1.320873,5.912070,1.259450,0.469729,0.179030,0.703361,8.394555,1.273943,0.326727,0.182355,2.544608,9.020834,1.454422,0.515677,0.200942,1.786107,4.683043,0.766704,0.324140,0.131126,1.773166,8.271955,1.516518,0.334915,0.196589
1739356873.966651,1739356873.967379,9.000000,0.000000,4236.922852,4218.205078,4288.333496,4276.410156,4218.205078,4217.051270,4217.436035,4272.563965,4215.641113,4200.897461,4531.538574,4472.692383,4380.128418,4467.820313,5622.000000,0.000000,9.000000,,,,0.000000,4.000000,4.000000,4.000000,4.000000,4.000000,4.000000,4.000000,4.000000,4.000000,4.000000,4.000000,4.000000,4.000000,4.000000,100.000000,,,,,,,,,,,,,,,,,,,,,,,,,,,,,,,,,,,,,,,,,,,,,,,,,,,,,,,,,,,,,,,,,,,,,,,,,,,,,,,,,,,,,,,,,,,,,,,,,,,,,,,,,,,,,,,,,,,,,,,,,,,,,,,,,
1739356873.974460,1739356873.975187,10.000000,0.000000,4226.410156,4212.051270,4279.230957,4273.077148,4221.410156,4217.820313,4216.410156,4269.487305,4206.282227,4190.000000,4521.794922,4460.512695,4372.051270,4451.153809,4824.000000,0.000000,9.000000,,,,0.000000,4.000000,4.000000,4.000000,4.000000,4.000000,4.000000,4.000000,4.000000,4.000000,4.000000,4.000000,4.000000,4.000000,4.000000,100.000000,,,,,,,,,,,,,,,,,,,,,,,,,,,,,,,,,,,,,,,,,,,,,,,,,,,,,,,,,,,,,,,,,,,,,,,,,,,,,,,,,,,,,,,,,,,,,,,,,,,,,,,,,,,,,,,,,,,,,,,,,,,,,,,,,
1739356873.982268,1739356873.982895,11.000000,0.000000,4222.436035,4210.641113,4276.410156,4268.461426,4224.102539,4218.205078,4217.307617,4266.794922,4197.692383,4181.153809,4514.358887,4451.538574,4359.871582,4444.871582,5631.000000,0.000000,9.000000,,,,0.000000,4.000000,4.000000,4.000000,4.000000,4.000000,4.000000,4.000000,4.000000,4.000000,4.000000,4.000000,4.000000,4.000000,4.000000,100.000000,,,,,,,,,,,,,,,,,,,,,,,,,,,,,,,,,,,,,,,,,,,,,,,,,,,,,,,,,,,,,,,,,,,,,,,,,,,,,,,,,,,,,,,,,,,,,,,,,,,,,,,,,,,,,,,,,,,,,,,,,,,,,,,,,
1739356873.990076,1739356873.990703,12.000000,0.000000,4223.974121,4212.179688,4278.717773,4270.897461,4222.692383,4218.461426,4216.666504,4270.128418,4204.487305,4181.282227,4516.794922,4452.692383,4356.538574,4452.051270,5684.000000,0.000000,9.000000,,,,0.000000,4.000000,4.000000,4.000000,4.000000,4.000000,4.000000,4.000000,4.000000,4.000000,4.000000,4.000000,4.000000,4.000000,4.000000,100.000000,,,,,,,,,,,,,,,,,3.000000,0.000000,0.653682,0.127014,-0.714172,0.215698,0.991820,-0.137712,-0.055671,-45.773994,-31.838799,38.409771,,,,,,,,,,,,,,,,,,,,,,,,,,,,,,,,,,,,,,,,,,,,,,,,,,,,,,,,,,,,,,,,,,,,,,,,,,,,,,,,,,,,,,,,,,,,,,,,,,,,,
1739356873.997884,1739356873.998411,13.000000,0.000000,4229.743652,4216.282227,4284.871582,4276.666504,4220.769043,4217.820313,4215.384766,4272.307617,4211.922852,4189.230957,4527.820313,4460.512695,4367.948730,4457.692383,6467.000000,0.000000,9.000000,,,,0.000000,4.000000,4.000000,4.000000,4.000000,4.000000,4.000000,4.000000,4.000000,4.000000,4.000000,4.000000,4.000000,4.000000,4.000000,100.000000,,,,,,,,,,,,,,,,,,,,,,,,,,,,,,,,,,,,,,,,,,,,,,,,,,,,,,,,,,,,,,,,,,,,,,,,,,,,,,,,,,,,,,,,,,,,,,,,,,,,,,,,,,,,,,,,,,,,,,,,,,,,,,,,,
1739356874.005692,1739356874.006219,14.000000,0.000000,4239.487305,4224.487305,4292.948730,4279.358887,4223.461426,4216.666504,4215.000000,4272.051270,4217.820313,4204.358887,4538.974121,4472.179688,4379.487305,4464.487305,4824.000000,0.000000,9.000000,,,,0.000000,4.000000,4.000000,4.000000,4.000000,4.000000,4.000000,4.000000,4.000000,4.000000,4.000000,4.000000,4.000000,4.000000,4.000000,100.000000,,,,,,,,,,,,,,,,,,,,,,,,,,,,,,,,,,,,,,,,,,,,,,,,,,,,,,,,,,,,,,,,,,,,,,,,,,,,,,,,,,,,,,,,,,,,,,,,,,,,,,,,,,,,,,,,,,,,,,,,,,,,,,,,,
1739356874.013500,1739356874.013927,15.000000,0.000000,4247.307617,4231.538574,4294.358887,4279.102539,4228.333496,4216.282227,4214.871582,4276.410156,4228.589844,4215.000000,4547.179688,4482.307617,4386.410156,4472.051270,5631.000000,0.000000,9.000000,,,,0.000000,4.000000,4.000000,4.000000,4.000000,4.000000,4.000000,4.000000,4.000000,4.000000,4.000000,4.000000,4.000000,4.000000,4.000000,100.000000,,,,,,,,,,,,,,,,,,,,,,,,,,,,,,,,,,,,,,,,,,,,,,,,,,,,,,,,,,,,,,,,,,,,,,,,,,,,,,,,,,,,,,,,,,,,,,,,,,,,,,,,,,,,,,,,,,,,,,,,,,,,,,,,,
1739356874.021308,1739356874.021735,16.000000,0.000000,4250.000000,4231.410156,4294.743652,4280.128418,4230.384766,4217.820313,4216.922852,4277.179688,4231.410156,4216.153809,4549.743652,4484.743652,4393.077148,4477.948730,0.000000,0.000000,9.000000,,,,0.000000,4.000000,4.000000,4.000000,4.000000,4.000000,4.000000,4.000000,4.000000,4.000000,4.000000,4.000000,4.000000,4.000000,4.000000,100.000000,,,,,,,,,,,,,,,,,4.000000,0.000000,0.653710,0.127075,-0.714172,0.215576,0.987425,-0.132340,-0.047857,-45.663261,-31.754919,38.285461,,,,,,,,,,,,,,,,,,,,,,,,,,,,,,,,,,,,,,,,,,,,,,,,,,,,,,,,,,,,,,,,,,,,,,,,,,,,,,,,,,,,,,,,,,,,,,,,,,,,,
1739356874.029116,1739356874.029443,17.000000,0.000000,4249.358887,4228.589844,4298.333496,4280.641113,4228.205078,4217.179688,4216.282227,4270.384766,4222.692383,4212.179688,4546.282227,4481.922852,4390.769043,4479.871582,0.000000,0.000000,9.000000,,,,0.000000,4.000000,4.000000,4.000000,4.000000,4.000000,4.000000,4.000000,4.000000,4.000000,4.000000,4.000000,4.000000,4.000000,4.000000,100.000000,,,,,,,,,,,,,,,,,,,,,,,,,,,,,,,,,,,,,,,,,,,,,,,,,,,,,,,,,,,,,,,,,,,,,,,,,,,,,,,,,,,,,,,,,,,,,,,,,,,,,,,,,,,,,,,,,,,,,,,,,,,,,,,,,
1739356874.036924,1739356874.037251,18.000000,0.000000,4250.897461,4234.743652,4296.794922,4282.563965,4228.589844,4213.717773,4210.000000,4268.461426,4212.051270,4202.948730,4535.256348,4477.051270,4377.436035,4475.769043,0.000000,0.000000,9.000000,,,,0.000000,4.000000,4.000000,4.000000,4.000000,4.000000,4.000000,4.000000,4.000000,4.000000,4.000000,4.000000,4.000000,4.000000,4.000000,100.000000,,,,,,,,,,,,,,,,,,,,,,,,,,,,,,,,,,,,,,,,,,,,,,,,,,,,,,,,,,,,,,,,,,,,,,,,,,,,,,,,,,,,,,,,,,,,,,,,,,,,,,,,,,,,,,,,,,,,,,,,,,,,,,,,,
1739356874.044732,1739356874.044959,19.000000,0.000000,4252.436035,4238.461426,4295.769043,4283.717773,4230.641113,4214.358887,4210.256348,4271.922852,4212.179688,4199.358887,4526.282227,4478.205078,4382.307617,4477.179688,0.000000,0.000000,9.000000,,,,0.000000,4.000000,4.000000,4.000000,4.000000,4.000000,4.000000,4.000000,4.000000,4.000000,4.000000,4.000000,4.000000,4.000000,4.000000,100.000000,,,,,,,,,,,,,,,,,,,,,,,,,,,,,,,,,,,,,,,,,,,,,,,,,,,,,,,,,,,,,,,,,,,,,,,,,,,,,,,,,,,,,,,,,,,,,,,,,,,,,,,,,,,,,,,,,,,,,,,,,,,,,,,,,
1739356874.052540,1739356874.052767,20.000000,0.000000,4249.615234,4231.666504,4293.205078,4281.025879,4226.153809,4216.025879,4214.487305,4271.922852,4214.615234,4201.410156,4523.205078,4478.077148,4394.743652,4481.153809,0.000000,0.000000,9.000000,,,,0.000000,4.000000,4.000000,4.000000,4.000000,4.000000,4.000000,4.000000,4.000000,4.000000,4.000000,4.000000,4.000000,4.000000,4.000000,100.000000,,,,,,,,,,,,,,,,,5.000000,0.000000,0.653974,0.126953,-0.713989,0.215454,0.984984,-0.143084,-0.044439,-45.496937,-31.729425,38.323582,,,,,,,,,,,,,,,,,,,,,,,,,,,,,,,,,,,,,,,,,,,,,,,,,,,,,,,,,,,,,,,,,,,,,,,,,,,,,,,,,,,,,,,,,,,,,,,,,,,,,
1739356874.060348,1739356874.060475,21.000000,0.000000,4245.256348,4227.692383,4281.794922,4278.846191,4223.846191,4213.077148,4206.922852,4268.333496,4205.000000,4189.871582,4520.000000,4464.102539,4383.589844,4472.436035,0.000000,0.000000,9.000000,,,,0.000000,4.000000,4.000000,4.000000,4.000000,4.000000,4.000000,4.000000,4.000000,4.000000,4.000000,4.000000,4.000000,4.000000,4.000000,100.000000,,,,,,,,,,,,,,,,,,,,,,,,,,,,,,,,,,,,,,,,,,,,,,,,,,,,,,,,,,,,,,,,,,,,,,,,,,,,,,,,,,,,,,,,,,,,,,,,,,,,,,,,,,,,,,,,,,,,,,,,,,,,,,,,,
