Timestamp,OriginalTimestamp,EEG.Counter,EEG.Interpolated,EEG.AF3,EEG.F7,EEG.F3,EEG.FC5,EEG.T7,EEG.P7,EEG.O1,EEG.O2,EEG.P8,EEG.T8,EEG.FC6,EEG.F4,EEG.F8,EEG.AF4,EEG.RawCq,EEG.Battery,EEG.BatteryPercent,MarkerIndex,MarkerType,MarkerValueInt,EEG.MarkerHardware,CQ.AF3,CQ.F7,CQ.F3,CQ.FC5,CQ.T7,CQ.P7,CQ.O1,CQ.O2,CQ.P8,CQ.T8,CQ.FC6,CQ.F4,CQ.F8,CQ.AF4,CQ.Overall,EQ.SampleRateQuality,EQ.OVERALL,EQ.AF3,EQ.F7,EQ.F3,EQ.FC5,EQ.T7,EQ.P7,EQ.O1,EQ.O2,EQ.P8,EQ.T8,EQ.FC6,EQ.F4,EQ.F8,EQ.AF4,MOT.CounterMems,MOT.InterpolatedMems,MOT.Q0,MOT.Q1,MOT.Q2,MOT.Q3,MOT.AccX,MOT.AccY,MOT.AccZ,MOT.MagX,MOT.MagY,MOT.MagZ,PM.Attention.IsActive,PM.Attention.Scaled,PM.Attention.Raw,PM.Attention.Min,PM.Attention.Max,PM.Engagement.IsActive,PM.Engagement.Scaled,PM.Engagement.Raw,PM.Engagement.Min,PM.Engagement.Max,PM.Excitement.IsActive,PM.Excitement.Scaled,PM.Excitement.Raw,PM.Excitement.Min,PM.Excitement.Max,PM.LongTermExcitement,PM.Stress.IsActive,PM.Stress.Scaled,PM.Stress.Raw,PM.Stress.Min,PM.Stress.Max,PM.Relaxation.IsActive,PM.Relaxation.Scaled,PM.Relaxation.Raw,PM.Relaxation.Min,PM.Relaxation.Max,PM.Interest.IsActive,PM.Interest.Scaled,PM.Interest.Raw,PM.Interest.Min,PM.Interest.Max,POW.AF3.Theta,POW.AF3.Alpha,POW.AF3.BetaL,POW.AF3.BetaH,POW.AF3.Gamma,POW.F7.Theta,POW.F7.Alpha,POW.F7.BetaL,POW.F7.BetaH,POW.F7.Gamma,POW.F3.Theta,POW.F3.Alpha,POW.F3.BetaL,POW.F3.BetaH,POW.F3.Gamma,POW.FC5.Theta,POW.FC5.Alpha,POW.FC5.BetaL,POW.FC5.BetaH,POW.FC5.Gamma,POW.T7.Theta,POW.T7.Alpha,POW.T7.BetaL,POW.T7.BetaH,POW.T7.Gamma,POW.P7.Theta,POW.P7.Alpha,POW.P7.BetaL,POW.P7.BetaH,POW.P7.Gamma,POW.O1.Theta,POW.O1.Alpha,POW.O1.BetaL,POW.O1.BetaH,POW.O1.Gamma,POW.O2.Theta,POW.O2.Alpha,POW.O2.BetaL,POW.O2.BetaH,POW.O2.Gamma,POW.P8.Theta,POW.P8.Alpha,POW.P8.BetaL,POW.P8.BetaH,POW.P8.Gamma,POW.T8.Theta,POW.T8.Alpha,POW.T8.BetaL,POW.T8.BetaH,POW.T8.Gamma,POW.FC6.Theta,POW.FC6.Alpha,POW.FC6.BetaL,POW.FC6.BetaH,POW.FC6.Gamma,POW.F4.Theta,POW.F4.Alpha,POW.F4.BetaL,POW.F4.BetaH,POW.F4.Gamma,POW.F8.Theta,POW.F8.Alpha,POW.F8.BetaL,POW.F8.BetaH,POW.F8.Gamma,POW.AF4.Theta,POW.AF4.Alpha,POW.AF4.BetaL,POW.AF4.BetaH,POW.AF4.Gamma
1739356805.466560,1739356805.466364,68.000000,0.000000,4292.179688,4263.974121,4309.743652,4341.538574,4232.179688,4233.846191,4226.025879,4260.641113,4233.333496,4221.794922,4584.615234,4500.641113,4365.769043,4505.641113,5517.000000,0.000000,9.000000,,,,0.000000,4.000000,4.000000,4.000000,4.000000,4.000000,4.000000,4.000000,4.000000,4.000000,4.000000,4.000000,4.000000,4.000000,4.000000,100.000000,,,,,,,,,,,,,,,,,17.000000,0.000000,0.626255,0.112976,-0.741272,0.213440,0.979612,-0.155781,-0.108412,-46.801979,-32.455101,36.825588,,,,,,,,,,,,,,,,,,,,,,,,,,,,,,,,,,,,,,,,,,,,,,,,,,,,,,,,,,,,,,,,,,,,,,,,,,,,,,,,,,,,,,,,,,,,,,,,,,,,,
1739356805.474368,1739356805.474272,69.000000,0.000000,4280.000000,4256.282227,4308.974121,4335.641113,4230.897461,4235.769043,4229.358887,4259.487305,4225.256348,4216.538574,4572.948730,4492.820313,4362.692383,4504.358887,5477.000000,0.000000,9.000000,,,,0.000000,4.000000,4.000000,4.000000,4.000000,4.000000,4.000000,4.000000,4.000000,4.000000,4.000000,4.000000,4.000000,4.000000,4.000000,100.000000,,,,,,,,,,,,,,,,,,,,,,,,,,,,,,,,,,,,,,,,,,,,,,,,,,,,,,,,,,,,,,,,,,,,,,,,,,,,,,,,,,,,,,,,,,,,,,,,,,,,,,,,,,,,,,,,,,,,,,,,,,,,,,,,,
1739356805.482176,1739356805.482081,70.000000,0.000000,4276.794922,4250.512695,4306.153809,4335.128418,4233.333496,4237.307617,4231.153809,4253.846191,4215.897461,4218.333496,4582.051270,4487.051270,4372.948730,4499.487305,5465.000000,0.000000,9.000000,,,,0.000000,4.000000,4.000000,4.000000,4.000000,4.000000,4.000000,4.000000,4.000000,4.000000,4.000000,4.000000,4.000000,4.000000,4.000000,100.000000,,,,,,,,,,,,,,,,,,,,,,,,,,,,,,,,,,,,,,,,,,,,,,,,,,,,,,,,,,,,,,,,,,,,,,,,,,,,,,,,,,,,,,,,,,,,,,,,,,,,,,,,,,,,,,,,,,,,,,,,,,,,,,,,,
1739356805.489984,1739356805.489989,71.000000,0.000000,4279.230957,4249.230957,4299.615234,4330.769043,4230.641113,4233.205078,4225.897461,4249.102539,4206.282227,4211.410156,4588.461426,4483.205078,4376.410156,4493.974121,2059.000000,0.000000,9.000000,,,,0.000000,4.000000,4.000000,4.000000,4.000000,4.000000,4.000000,4.000000,4.000000,4.000000,4.000000,4.000000,4.000000,4.000000,4.000000,100.000000,,,,,,,,,,,,,,,,,,,,,,,,,,,,,,,,,,,,,,,,,,,,,,,,,,,,,,,,,,,,,,,,,,,,,,,,,,,,,,,,,,,,,,,,,,,,,,,,,,,,,,,,,,,,,,,,,,,,,,,,,,,,,,,,,
1739356805.497792,1739356805.497797,72.000000,0.000000,4279.615234,4248.461426,4298.974121,4325.512695,4228.077148,4229.871582,4218.589844,4247.948730,4200.000000,4208.205078,4584.102539,4484.743652,4375.512695,4497.051270,5270.000000,0.000000,9.000000,,,,0.000000,4.000000,4.000000,4.000000,4.000000,4.000000,4.000000,4.000000,4.000000,4.000000,4.000000,4.000000,4.000000,4.000000,4.000000,100.000000,1.000000,91.666664,4.000000,4.000000,4.000000,4.000000,4.000000,4.000000,4.000000,3.000000,4.000000,4.000000,4.000000,4.000000,4.000000,4.000000,18.000000,0.000000,0.626280,0.112671,-0.741333,0.213318,0.984007,-0.168966,-0.116225,-46.805115,-32.509590,36.743031,,,,,,,,,,,,,,,,,,,,,,,,,,,,,,,,3.683244,2.977413,1.222659,0.330521,0.132654,2.806270,1.742965,1.275679,0.262415,0.137785,1.122562,1.665761,0.899275,0.267067,0.094102,1.590033,1.439634,0.842107,0.271924,0.102990,0.691949,0.516353,0.277017,0.130922,0.070749,0.446404,0.259478,0.254323,0.189701,0.064150,1.539114,0.719268,0.491392,0.351140,0.079675,0.081586,0.141143,0.139392,0.098098,0.039424,0.817164,1.400544,0.710186,0.291346,0.102242,1.229852,1.662636,0.851704,0.351154,0.189487,1.757325,2.381635,0.535986,0.255549,0.249459,1.827455,3.275301,0.926111,0.565552,0.139915,1.989711,1.517368,0.391500,0.340323,0.118469,2.556564,2.728971,0.940378,0.347065,0.132456
1739356805.505601,1739356805.505705,73.000000,0.000000,4285.769043,4253.205078,4307.436035,4334.358887,4230.000000,4230.256348,4214.230957,4251.410156,4205.641113,4215.897461,4585.641113,4496.794922,4379.615234,4506.666504,5604.000000,0.000000,9.000000,,,,0.000000,4.000000,4.000000,4.000000,4.000000,4.000000,4.000000,4.000000,4.000000,4.000000,4.000000,4.000000,4.000000,4.000000,4.000000,100.000000,,,,,,,,,,,,,,,,,,,,,,,,,,,,,,,,,,,,,,,,,,,,,,,,,,,,,,,,,,,,,,,,,,,,,,,,,,,,,,,,,,,,,,,,,,,,,,,,,,,,,,,,,,,,,,,,,,,,,,,,,,,,,,,,,
1739356805.513409,1739356805.513513,74.000000,0.000000,4298.461426,4264.615234,4318.205078,4352.692383,4234.358887,4230.256348,4210.641113,4256.666504,4216.025879,4217.563965,4595.128418,4511.922852,4382.436035,4514.871582,4841.000000,0.000000,9.000000,,,,0.000000,4.000000,4.000000,4.000000,4.000000,4.000000,4.000000,4.000000,4.000000,4.000000,4.000000,4.000000,4.000000,4.000000,4.000000,100.000000,,,,,,,,,,,,,,,,,,,,,,,,,,,,,,,,,,,,,,,,,,,,,,,,,,,,,,,,,,,,,,,,,,,,,,,,,,,,,,,,,,,,,,,,,,,,,,,,,,,,,,,,,,,,,,,,,,,,,,,,,,,,,,,,,
1739356805.521217,1739356805.521421,75.000000,0.000000,4306.153809,4273.974121,4323.589844,4358.205078,4235.000000,4230.641113,4213.717773,4260.000000,4220.769043,4218.461426,4603.205078,4518.205078,4382.692383,4521.025879,5627.000000,0.000000,9.000000,,,,0.000000,4.000000,4.000000,4.000000,4.000000,4.000000,4.000000,4.000000,4.000000,4.000000,4.000000,4.000000,4.000000,4.000000,4.000000,100.000000,,,,,,,,,,,,,,,,,,,,,,,,,,,,,,,,,,,,,,,,,,,,,,,,,,,,,,,,,,,,,,,,,,,,,,,,,,,,,,,,,,,,,,,,,,,,,,,,,,,,,,,,,,,,,,,,,,,,,,,,,,,,,,,,,
1739356805.529025,1739356805.529229,76.000000,0.000000,4308.333496,4275.512695,4327.948730,4352.563965,4234.358887,4232.948730,4224.743652,4263.974121,4228.717773,4232.179688,4606.282227,4522.436035,4386.153809,4525.512695,5704.000000,0.000000,9.000000,,,,0.000000,4.000000,4.000000,4.000000,4.000000,4.000000,4.000000,4.000000,4.000000,4.000000,4.000000,4.000000,4.000000,4.000000,4.000000,100.000000,,,,,,,,,,,,,,,,,19.000000,0.000000,0.626342,0.112671,-0.741333,0.213135,0.986449,-0.158222,-0.116713,-46.691269,-32.458633,36.902061,,,,,,,,,,,,,,,,,,,,,,,,,,,,,,,,,,,,,,,,,,,,,,,,,,,,,,,,,,,,,,,,,,,,,,,,,,,,,,,,,,,,,,,,,,,,,,,,,,,,,
1739356805.536833,1739356805.537137,77.000000,0.000000,4305.384766,4267.179688,4329.358887,4345.769043,4233.974121,4235.000000,4234.230957,4269.487305,4239.487305,4239.358887,4605.256348,4525.128418,4386.025879,4522.948730,6464.000000,0.000000,9.000000,,,,0.000000,4.000000,4.000000,4.000000,4.000000,4.000000,4.000000,4.000000,4.000000,4.000000,4.000000,4.000000,4.000000,4.000000,4.000000,100.000000,,,,,,,,,,,,,,,,,,,,,,,,,,,,,,,,,,,,,,,,,,,,,,,,,,,,,,,,,,,,,,,,,,,,,,,,,,,,,,,,,,,,,,,,,,,,,,,,,,,,,,,,,,,,,,,,,,,,,,,,,,,,,,,,,
1739356805.544641,1739356805.544945,78.000000,0.000000,4295.000000,4256.410156,4319.102539,4338.461426,4233.205078,4234.615234,4234.615234,4269.615234,4235.897461,4226.794922,4594.358887,4514.743652,4378.333496,4513.461426,4841.000000,0.000000,9.000000,,,,0.000000,4.000000,4.000000,4.000000,4.000000,4.000000,4.000000,4.000000,4.000000,4.000000,4.000000,4.000000,4.000000,4.000000,4.000000,100.000000,,,,,,,,,,,,,,,,,,,,,,,,,,,,,,,,,,,,,,,,,,,,,,,,,,,,,,,,,,,,,,,,,,,,,,,,,,,,,,,,,,,,,,,,,,,,,,,,,,,,,,,,,,,,,,,,,,,,,,,,,,,,,,,,,
1739356805.552449,1739356805.552653,79.000000,0.000000,4278.461426,4245.641113,4303.461426,4326.922852,4229.615234,4233.717773,4234.615234,4263.333496,4225.128418,4212.179688,4577.179688,4493.333496,4370.512695,4494.615234,5627.000000,0.000000,9.000000,,,,0.000000,4.000000,4.000000,4.000000,4.000000,4.000000,4.000000,4.000000,4.000000,4.000000,4.000000,4.000000,4.000000,4.000000,4.000000,100.000000,,,,,,,,,,,,,,,,,,,,,,,,,,,,,,,,,,,,,,,,,,,,,,,,,,,,,,,,,,,,,,,,,,,,,,,,,,,,,,,,,,,,,,,,,,,,,,,,,,,,,,,,,,,,,,,,,,,,,,,,,,,,,,,,,
1739356805.560257,1739356805.560461,80.000000,0.000000,4261.025879,4231.794922,4291.025879,4312.051270,4225.897461,4233.974121,4236.794922,4258.846191,4217.820313,4208.205078,4563.589844,4474.102539,4357.820313,4475.000000,5704.000000,0.000000,9.000000,,,,0.000000,4.000000,4.000000,4.000000,4.000000,4.000000,4.000000,4.000000,4.000000,4.000000,4.000000,4.000000,4.000000,4.000000,4.000000,100.000000,,,,,,,,,,,,,,,,,20.000000,0.000000,0.626485,0.112793,-0.741211,0.213074,0.987425,-0.161641,-0.110853,-46.505474,-32.496101,36.878521,,,,,,,,,,,,,,,,,,,,,,,,,,,,,,,,,,,,,,,,,,,,,,,,,,,,,,,,,,,,,,,,,,,,,,,,,,,,,,,,,,,,,,,,,,,,,,,,,,,,,
1739356805.568065,1739356805.568169,81.000000,0.000000,4254.230957,4230.641113,4280.128418,4307.948730,4227.307617,4235.384766,4231.794922,4255.384766,4207.179688,4197.692383,4554.871582,4462.436035,4344.358887,4470.897461,6464.000000,0.000000,9.000000,,,,0.000000,4.000000,4.000000,4.000000,4.000000,4.000000,4.000000,4.000000,4.000000,4.000000,4.000000,4.000000,4.000000,4.000000,4.000000,100.000000,,,,,,,,,,,,,,,,,,,,,,,,,,,,,,,,,,,,,,,,,,,,,,,,,,,,,,,,,,,,,,,,,,,,,,,,,,,,,,,,,,,,,,,,,,,,,,,,,,,,,,,,,,,,,,,,,,,,,,,,,,,,,,,,,
1739356805.575873,1739356805.575977,82.000000,0.000000,4257.307617,4244.615234,4274.102539,4316.666504,4225.128418,4231.410156,4222.948730,4250.384766,4197.563965,4183.589844,4546.538574,4453.205078,4346.025879,4472.692383,4841.000000,0.000000,9.000000,,,,0.000000,4.000000,4.000000,4.000000,4.000000,4.000000,4.000000,4.000000,4.000000,4.000000,4.000000,4.000000,4.000000,4.000000,4.000000,100.000000,,,,,,,,,,,,,,,,,,,,,,,,,,,,,,,,,,,,,,,,,,,,,,,,,,,,,,,,,,,,,,,,,,,,,,,,,,,,,,,,,,,,,,,,,,,,,,,,,,,,,,,,,,,,,,,,,,,,,,,,,,,,,,,,,
1739356805.583681,1739356805.583685,83.000000,0.000000,4262.820313,4250.128418,4281.538574,4323.974121,4222.436035,4222.692383,4210.769043,4250.384766,4196.794922,4188.077148,4547.948730,4455.256348,4355.384766,4472.307617,5627.000000,0.000000,9.000000,,,,0.000000,4.000000,4.000000,4.000000,4.000000,4.000000,4.000000,4.000000,4.000000,4.000000,4.000000,4.000000,4.000000,4.000000,4.000000,100.000000,,,,,,,,,,,,,,,,,,,,,,,,,,,,,,,,,,,,,,,,,,,,,,,,,,,,,,,,,,,,,,,,,,,,,,,,,,,,,,,,,,,,,,,,,,,,,,,,,,,,,,,,,,,,,,,,,,,,,,,,,,,,,,,,,
1739356805.591489,1739356805.591593,84.000000,0.000000,4270.256348,4251.282227,4293.974121,4328.717773,4227.692383,4217.436035,4200.512695,4254.743652,4198.846191,4199.230957,4563.846191,4474.487305,4358.974121,4481.666504,5704.000000,0.000000,9.000000,,,,0.000000,4.000000,4.000000,4.000000,4.000000,4.000000,4.000000,4.000000,4.000000,4.000000,4.000000,4.000000,4.000000,4.000000,4.000000,100.000000,,,,,,,,,,,,,,,,,21.000000,0.000000,0.626557,0.112793,-0.741150,0.213074,0.978635,-0.168966,-0.117690,-46.704929,-32.429825,36.907337,,,,,,,,,,,,,,,,,,,,,,,,,,,,,,,,,,,,,,,,,,,,,,,,,,,,,,,,,,,,,,,,,,,,,,,,,,,,,,,,,,,,,,,,,,,,,,,,,,,,,
1739356805.599297,1739356805.599401,85.000000,0.000000,4281.794922,4260.897461,4304.230957,4336.666504,4231.794922,4218.717773,4204.230957,4258.461426,4202.436035,4200.641113,4578.077148,4491.922852,4367.563965,4494.743652,6464.000000,0.000000,9.000000,,,,0.000000,4.000000,4.000000,4.000000,4.000000,4.000000,4.000000,4.000000,4.000000,4.000000,4.000000,4.000000,4.000000,4.000000,4.000000,100.000000,,,,,,,,,,,,,,,,,,,,,,,,,,,,,,,,,,,,,,,,,,,,,,,,,,,,,,,,,,,,,,,,,,,,,,,,,,,,,,,,,,,,,,,,,,,,,,,,,,,,,,,,,,,,,,,,,,,,,,,,,,,,,,,,,
1739356805.607106,1739356805.607209,86.000000,0.000000,4291.538574,4266.153809,4311.794922,4341.153809,4232.051270,4223.589844,4215.769043,4258.974121,4212.820313,4208.205078,4582.179688,4495.641113,4381.282227,4496.666504,4841.000000,0.000000,9.000000,,,,0.000000,4.000000,4.000000,4.000000,4.000000,4.000000,4.000000,4.000000,4.000000,4.000000,4.000000,4.000000,4.000000,4.000000,4.000000,100.000000,,,,,,,,,,,,,,,,,,,,,,,,,,,,,,,,,,,,,,,,,,,,,,,,,,,,,,,,,,,,,,,,,,,,,,,,,,,,,,,,,,,,,,,,,,,,,,,,,,,,,,,,,,,,,,,,,,,,,,,,,,,,,,,,,
1739356805.614914,1739356805.614918,87.000000,0.000000,4290.256348,4258.077148,4312.563965,4335.897461,4233.717773,4229.487305,4219.487305,4259.743652,4223.333496,4219.615234,4583.333496,4499.487305,4381.666504,4498.333496,5627.000000,0.000000,9.000000,,,,0.000000,4.000000,4.000000,4.000000,4.000000,4.000000,4.000000,4.000000,4.000000,4.000000,4.000000,4.000000,4.000000,4.000000,4.000000,100.000000,,,,,,,,,,,,,,,,,,,,,,,,,,,,,,,,,,,,,,,,,,,,,,,,,,,,,,,,,,,,,,,,,,,,,,,,,,,,,,,,,,,,,,,,,,,,,,,,,,,,,,,,,,,,,,,,,,,,,,,,,,,,,,,,,
1739356805.622722,1739356805.622726,88.000000,0.000000,4284.871582,4250.384766,4311.153809,4327.563965,4234.615234,4233.077148,4217.051270,4263.846191,4229.102539,4220.897461,4585.256348,4508.461426,4379.230957,4507.307617,5704.000000,0.000000,9.000000,,,,0.000000,4.000000,4.000000,4.000000,4.000000,4.000000,4.000000,4.000000,4.000000,4.000000,4.000000,4.000000,4.000000,4.000000,4.000000,100.000000,,,,,,,,,,,,,,,,,22.000000,0.000000,0.626559,0.112671,-0.741150,0.213135,0.961055,-0.173849,-0.114272,-46.617767,-32.370178,36.766602,,,,,,,,,,,,,,,,,,,,,,,,,,,,,,,,2.461441,2.633082,1.317361,0.299892,0.137589,1.433462,1.612150,1.343638,0.248058,0.151195,1.223749,1.726580,0.969179,0.249942,0.095808,1.399081,1.608509,0.893273,0.261496,0.111195,0.549582,0.518234,0.288185,0.131174,0.073559,0.321410,0.257511,0.190813,0.158620,0.058644,1.097267,0.821826,0.409743,0.274248,0.079031,0.120408,0.149051,0.170200,0.108537,0.038009,0.697067,1.053331,0.647046,0.265234,0.097691,1.140618,1.494228,0.917254,0.309330,0.171473,2.117559,2.341835,0.660626,0.240394,0.258807,1.898965,3.246850,1.140471,0.559878,0.139537,1.547610,1.343683,0.430933,0.282817,0.120388,1.729625,2.379665,0.961594,0.320253,0.146013
1739356805.630530,1739356805.630434,89.000000,0.000000,4288.205078,4253.077148,4310.897461,4325.384766,4231.282227,4229.102539,4217.179688,4267.307617,4234.358887,4222.307617,4586.153809,4509.743652,4383.461426,4510.000000,6464.000000,0.000000,9.000000,,,,0.000000,4.000000,4.000000,4.000000,4.000000,4.000000,4.000000,4.000000,4.000000,4.000000,4.000000,4.000000,4.000000,4.000000,4.000000,100.000000,,,,,,,,,,,,,,,,,,,,,,,,,,,,,,,,,,,,,,,,,,,,,,,,,,,,,,,,,,,,,,,,,,,,,,,,,,,,,,,,,,,,,,,,,,,,,,,,,,,,,,,,,,,,,,,,,,,,,,,,,,,,,,,,,
1739356805.638338,1739356805.638342,90.000000,0.000000,4291.794922,4257.820313,4310.641113,4324.871582,4231.153809,4225.769043,4218.717773,4267.179688,4234.230957,4227.051270,4584.230957,4508.589844,4380.384766,4506.282227,4841.000000,0.000000,9.000000,,,,0.000000,4.000000,4.000000,4.000000,4.000000,4.000000,4.000000,4.000000,4.000000,4.000000,4.000000,4.000000,4.000000,4.000000,4.000000,100.000000,,,,,,,,,,,,,,,,,,,,,,,,,,,,,,,,,,,,,,,,,,,,,,,,,,,,,,,,,,,,,,,,,,,,,,,,,,,,,,,,,,,,,,,,,,,,,,,,,,,,,,,,,,,,,,,,,,,,,,,,,,,,,,,,,
1739356805.646146,1739356805.646150,91.000000,0.000000,4284.615234,4252.563965,4307.948730,4315.897461,4232.820313,4229.871582,4223.974121,4263.846191,4226.410156,4218.717773,4576.282227,4505.512695,4371.025879,4506.153809,5627.000000,0.000000,9.000000,,,,0.000000,4.000000,4.000000,4.000000,4.000000,4.000000,4.000000,4.000000,4.000000,4.000000,4.000000,4.000000,4.000000,4.000000,4.000000,100.000000,,,,,,,,,,,,,,,,,,,,,,,,,,,,,,,,,,,,,,,,,,,,,,,,,,,,,,,,,,,,,,,,,,,,,,,,,,,,,,,,,,,,,,,,,,,,,,,,,,,,,,,,,,,,,,,,,,,,,,,,,,,,,,,,,
1739356805.653954,1739356805.654058,92.000000,0.000000,4277.307617,4246.538574,4303.077148,4308.333496,4233.717773,4234.102539,4231.666504,4263.589844,4218.717773,4205.384766,4569.871582,4495.641113,4367.436035,4508.077148,5704.000000,0.000000,9.000000,,,,0.000000,4.000000,4.000000,4.000000,4.000000,4.000000,4.000000,4.000000,4.000000,4.000000,4.000000,4.000000,4.000000,4.000000,4.000000,100.000000,,,,,,,,,,,,,,,,,23.000000,0.000000,0.626551,0.112427,-0.741211,0.213074,0.971798,-0.165059,-0.111830,-46.505993,-32.433159,36.639942,,,,,,,,,,,,,,,,,,,,,,,,,,,,,,,,,,,,,,,,,,,,,,,,,,,,,,,,,,,,,,,,,,,,,,,,,,,,,,,,,,,,,,,,,,,,,,,,,,,,,
1739356805.661762,1739356805.661866,93.000000,0.000000,4274.871582,4245.641113,4295.512695,4309.102539,4233.461426,4235.256348,4234.230957,4263.205078,4211.282227,4200.384766,4565.128418,4489.487305,4367.692383,4501.666504,6464.000000,0.000000,9.000000,,,,0.000000,4.000000,4.000000,4.000000,4.000000,4.000000,4.000000,4.000000,4.000000,4.000000,4.000000,4.000000,4.000000,4.000000,4.000000,100.000000,,,,,,,,,,,,,,,,,,,,,,,,,,,,,,,,,,,,,,,,,,,,,,,,,,,,,,,,,,,,,,,,,,,,,,,,,,,,,,,,,,,,,,,,,,,,,,,,,,,,,,,,,,,,,,,,,,,,,,,,,,,,,,,,,
1739356805.669570,1739356805.669774,94.000000,0.000000,4274.358887,4243.846191,4292.307617,4309.358887,4230.512695,4234.871582,4232.307617,4258.333496,4201.538574,4199.615234,4556.922852,4488.077148,4367.051270,4493.205078,4841.000000,0.000000,9.000000,,,,0.000000,4.000000,4.000000,4.000000,4.000000,4.000000,4.000000,4.000000,4.000000,4.000000,4.000000,4.000000,4.000000,4.000000,4.000000,100.000000,,,,,,,,,,,,,,,,,,,,,,,,,,,,,,,,,,,,,,,,,,,,,,,,,,,,,,,,,,,,,,,,,,,,,,,,,,,,,,,,,,,,,,,,,,,,,,,,,,,,,,,,,,,,,,,,,,,,,,,,,,,,,,,,,
1739356805.677378,1739356805.677583,95.000000,0.000000,4278.077148,4246.922852,4300.384766,4309.358887,4233.717773,4235.256348,4234.102539,4257.820313,4200.384766,4200.256348,4559.615234,4488.717773,4372.051270,4501.282227,5627.000000,0.000000,9.000000,,,,0.000000,4.000000,4.000000,4.000000,4.000000,4.000000,4.000000,4.000000,4.000000,4.000000,4.000000,4.000000,4.000000,4.000000,4.000000,100.000000,,,,,,,,,,,,,,,,,,,,,,,,,,,,,,,,,,,,,,,,,,,,,,,,,,,,,,,,,,,,,,,,,,,,,,,,,,,,,,,,,,,,,,,,,,,,,,,,,,,,,,,,,,,,,,,,,,,,,,,,,,,,,,,,,
1739356805.685187,1739356805.685490,96.000000,0.000000,4278.589844,4250.000000,4303.333496,4307.820313,4234.230957,4235.897461,4232.179688,4259.358887,4207.563965,4202.179688,4567.820313,4489.871582,4378.077148,4508.717773,5704.000000,0.000000,9.000000,,,,0.000000,4.000000,4.000000,4.000000,4.000000,4.000000,4.000000,4.000000,4.000000,4.000000,4.000000,4.000000,4.000000,4.000000,4.000000,100.000000,,,,,,,,,,,,,,,,,24.000000,0.000000,0.626771,0.112122,-0.741089,0.213013,0.972775,-0.166036,-0.116713,-46.622059,-32.373177,36.692616,,,,,,,,,,,,,,,,,,,,,,,,,,,,,,,,,,,,,,,,,,,,,,,,,,,,,,,,,,,,,,,,,,,,,,,,,,,,,,,,,,,,,,,,,,,,,,,,,,,,,
1739356805.692994,1739356805.693298,97.000000,0.000000,4274.102539,4244.358887,4297.820313,4301.153809,4221.538574,4229.358887,4219.615234,4257.051270,4208.205078,4206.153809,4565.512695,4488.333496,4378.974121,4496.410156,6464.000000,0.000000,9.000000,,,,0.000000,4.000000,4.000000,4.000000,4.000000,4.000000,4.000000,4.000000,4.000000,4.000000,4.000000,4.000000,4.000000,4.000000,4.000000,100.000000,,,,,,,,,,,,,,,,,,,,,,,,,,,,,,,,,,,,,,,,,,,,,,,,,,,,,,,,,,,,,,,,,,,,,,,,,,,,,,,,,,,,,,,,,,,,,,,,,,,,,,,,,,,,,,,,,,,,,,,,,,,,,,,,,
1739356805.700802,1739356805.701206,98.000000,0.000000,4274.358887,4243.077148,4297.307617,4295.128418,4211.922852,4217.051270,4211.794922,4257.051270,4208.333496,4213.205078,4564.358887,4487.820313,4381.282227,4492.820313,4841.000000,0.000000,9.000000,,,,0.000000,4.000000,4.000000,4.000000,4.000000,4.000000,4.000000,4.000000,4.000000,4.000000,4.000000,4.000000,4.000000,4.000000,4.000000,100.000000,,,,,,,,,,,,,,,,,,,,,,,,,,,,,,,,,,,,,,,,,,,,,,,,,,,,,,,,,,,,,,,,,,,,,,,,,,,,,,,,,,,,,,,,,,,,,,,,,,,,,,,,,,,,,,,,,,,,,,,,,,,,,,,,,
1739356805.708611,1739356805.709014,99.000000,0.000000,4276.410156,4247.051270,4298.333496,4295.897461,4213.077148,4212.179688,4213.205078,4257.948730,4215.384766,4217.692383,4571.538574,4490.128418,4381.410156,4505.769043,5627.000000,0.000000,9.000000,,,,0.000000,4.000000,4.000000,4.000000,4.000000,4.000000,4.000000,4.000000,4.000000,4.000000,4.000000,4.000000,4.000000,4.000000,4.000000,100.000000,,,,,,,,,,,,,,,,,,,,,,,,,,,,,,,,,,,,,,,,,,,,,,,,,,,,,,,,,,,,,,,,,,,,,,,,,,,,,,,,,,,,,,,,,,,,,,,,,,,,,,,,,,,,,,,,,,,,,,,,,,,,,,,,,
1739356805.716419,1739356805.716922,100.000000,0.000000,4276.153809,4246.666504,4297.436035,4301.282227,4215.000000,4217.563965,4207.820313,4256.410156,4217.051270,4213.077148,4575.641113,4490.512695,4378.333496,4510.256348,5704.000000,0.000000,9.000000,,,,0.000000,4.000000,4.000000,4.000000,4.000000,4.000000,4.000000,4.000000,4.000000,4.000000,4.000000,4.000000,4.000000,4.000000,4.000000,100.000000,,,,,,,,,,,,,,,,,25.000000,0.000000,0.626884,0.112122,-0.741028,0.212891,0.982053,-0.174826,-0.119155,-46.743187,-32.369190,36.806686,,,,,,,,,,,,,,,,,,,,,,,,,,,,,,,,,,,,,,,,,,,,,,,,,,,,,,,,,,,,,,,,,,,,,,,,,,,,,,,,,,,,,,,,,,,,,,,,,,,,,
1739356805.724227,1739356805.724730,101.000000,0.000000,4275.769043,4246.794922,4303.461426,4306.282227,4214.743652,4217.436035,4200.128418,4257.179688,4214.102539,4206.794922,4572.179688,4488.077148,4375.256348,4502.563965,6464.000000,0.000000,9.000000,,,,0.000000,4.000000,4.000000,4.000000,4.000000,4.000000,4.000000,4.000000,4.000000,4.000000,4.000000,4.000000,4.000000,4.000000,4.000000,100.000000,,,,,,,,,,,,,,,,,,,,,,,,,,,,,,,,,,,,,,,,,,,,,,,,,,,,,,,,,,,,,,,,,,,,,,,,,,,,,,,,,,,,,,,,,,,,,,,,,,,,,,,,,,,,,,,,,,,,,,,,,,,,,,,,,
1739356805.732035,1739356805.732438,102.000000,0.000000,4270.384766,4247.179688,4307.307617,4305.897461,4213.461426,4214.871582,4205.000000,4259.743652,4215.897461,4206.410156,4562.307617,4490.128418,4371.153809,4497.051270,4841.000000,0.000000,9.000000,,,,0.000000,4.000000,4.000000,4.000000,4.000000,4.000000,4.000000,4.000000,4.000000,4.000000,4.000000,4.000000,4.000000,4.000000,4.000000,100.000000,,,,,,,,,,,,,,,,,,,,,,,,,,,,,,,,,,,,,,,,,,,,,,,,,,,,,,,,,,,,,,,,,,,,,,,,,,,,,,,,,,,,,,,,,,,,,,,,,,,,,,,,,,,,,,,,,,,,,,,,,,,,,,,,,
1739356805.739843,1739356805.740246,103.000000,0.000000,4262.948730,4239.358887,4297.179688,4303.461426,4214.358887,4222.692383,4216.666504,4258.846191,4219.230957,4202.948730,4556.538574,4486.410156,4362.820313,4494.102539,5627.000000,0.000000,9.000000,,,,0.000000,4.000000,4.000000,4.000000,4.000000,4.000000,4.000000,4.000000,4.000000,4.000000,4.000000,4.000000,4.000000,4.000000,4.000000,100.000000,,,,,,,,,,,,,,,,,,,,,,,,,,,,,,,,,,,,,,,,,,,,,,,,,,,,,,,,,,,,,,,,,,,,,,,,,,,,,,,,,,,,,,,,,,,,,,,,,,,,,,,,,,,,,,,,,,,,,,,,,,,,,,,,,
1739356805.747651,1739356805.747954,104.000000,0.000000,4259.487305,4230.641113,4291.666504,4304.487305,4223.589844,4233.974121,4227.692383,4257.307617,4219.102539,4202.307617,4563.589844,4477.692383,4356.538574,4487.436035,5704.000000,0.000000,9.000000,,,,0.000000,4.000000,4.000000,4.000000,4.000000,4.000000,4.000000,4.000000,4.000000,4.000000,4.000000,4.000000,4.000000,4.000000,4.000000,100.000000,,,,,,,,,,,,,,,,,26.000000,0.000000,0.626987,0.112183,-0.740967,0.212769,0.977658,-0.157246,-0.113783,-46.835533,-32.482273,36.842686,,,,,,,,,,,,,,,,,,,,,,,,,,,,,,,,2.173074,2.799408,1.392819,0.274634,0.146758,1.031800,1.851891,1.378338,0.229136,0.168468,1.491168,2.002086,1.009171,0.228416,0.102604,1.390379,1.961594,0.941990,0.259261,0.126128,0.438200,0.618748,0.311953,0.131154,0.079363,0.257324,0.335944,0.154977,0.136664,0.056408,0.800234,1.212249,0.348506,0.206437,0.081084,0.214136,0.207968,0.200936,0.128666,0.037015,0.618501,0.974456,0.592044,0.260579,0.097828,1.083255,1.623460,0.993481,0.278988,0.157572,2.450983,2.785460,0.804348,0.243435,0.264976,2.160109,3.540492,1.340322,0.545959,0.145564,1.516046,1.539814,0.469690,0.231978,0.122107,1.622683,2.574612,0.975407,0.300194,0.170200
1739356805.755459,1739356805.755762,105.000000,0.000000,4258.205078,4231.410156,4294.615234,4306.666504,4228.589844,4237.307617,4233.846191,4258.846191,4217.820313,4209.358887,4570.384766,4478.717773,4361.153809,4483.846191,6464.000000,0.000000,9.000000,,,,0.000000,4.000000,4.000000,4.000000,4.000000,4.000000,4.000000,4.000000,4.000000,4.000000,4.000000,4.000000,4.000000,4.000000,4.000000,100.000000,,,,,,,,,,,,,,,,,,,,,,,,,,,,,,,,,,,,,,,,,,,,,,,,,,,,,,,,,,,,,,,,,,,,,,,,,,,,,,,,,,,,,,,,,,,,,,,,,,,,,,,,,,,,,,,,,,,,,,,,,,,,,,,,,
1739356805.763267,1739356805.763470,106.000000,0.000000,4257.436035,4233.205078,4294.487305,4308.077148,4222.692383,4235.512695,4232.948730,4260.128418,4218.333496,4209.615234,4569.102539,4480.512695,4367.179688,4488.589844,4841.000000,0.000000,9.000000,,,,0.000000,4.000000,4.000000,4.000000,4.000000,4.000000,4.000000,4.000000,4.000000,4.000000,4.000000,4.000000,4.000000,4.000000,4.000000,100.000000,,,,,,,,,,,,,,,,,,,,,,,,,,,,,,,,,,,,,,,,,,,,,,,,,,,,,,,,,,,,,,,,,,,,,,,,,,,,,,,,,,,,,,,,,,,,,,,,,,,,,,,,,,,,,,,,,,,,,,,,,,,,,,,,,
1739356805.771075,1739356805.771378,107.000000,0.000000,4257.820313,4234.102539,4293.077148,4310.641113,4221.922852,4236.025879,4231.922852,4256.410156,4217.179688,4201.153809,4563.974121,4475.512695,4363.461426,4492.820313,5627.000000,0.000000,9.000000,,,,0.000000,4.000000,4.000000,4.000000,4.000000,4.000000,4.000000,4.000000,4.000000,4.000000,4.000000,4.000000,4.000000,4.000000,4.000000,100.000000,,,,,,,,,,,,,,,,,,,,,,,,,,,,,,,,,,,,,,,,,,,,,,,,,,,,,,,,,,,,,,,,,,,,,,,,,,,,,,,,,,,,,,,,,,,,,,,,,,,,,,,,,,,,,,,,,,,,,,,,,,,,,,,,,
1739356805.778883,1739356805.779187,108.000000,0.000000,4259.615234,4240.256348,4293.846191,4312.436035,4223.205078,4235.769043,4227.179688,4251.666504,4211.538574,4198.333496,4561.794922,4473.077148,4360.641113,4487.948730,5704.000000,0.000000,9.000000,,,,0.000000,4.000000,4.000000,4.000000,4.000000,4.000000,4.000000,4.000000,4.000000,4.000000,4.000000,4.000000,4.000000,4.000000,4.000000,100.000000,,,,,,,,,,,,,,,,,27.000000,0.000000,0.627087,0.112488,-0.740906,0.212524,0.959101,-0.153339,-0.113783,-46.851982,-32.600712,36.908417,,,,,,,,,,,,,,,,,,,,,,,,,,,,,,,,,,,,,,,,,,,,,,,,,,,,,,,,,,,,,,,,,,,,,,,,,,,,,,,,,,,,,,,,,,,,,,,,,,,,,
1739356805.786692,1739356805.787095,109.000000,0.000000,4263.974121,4246.025879,4296.538574,4316.025879,4219.615234,4231.410156,4218.077148,4253.717773,4211.153809,4205.897461,4566.153809,4476.666504,4370.128418,4487.948730,6464.000000,0.000000,9.000000,,,,0.000000,4.000000,4.000000,4.000000,4.000000,4.000000,4.000000,4.000000,4.000000,4.000000,4.000000,4.000000,4.000000,4.000000,4.000000,100.000000,,,,,,,,,,,,,,,,,,,,,,,,,,,,,,,,,,,,,,,,,,,,,,,,,,,,,,,,,,,,,,,,,,,,,,,,,,,,,,,,,,,,,,,,,,,,,,,,,,,,,,,,,,,,,,,,,,,,,,,,,,,,,,,,,
1739356805.794500,1739356805.794903,110.000000,0.000000,4268.077148,4246.282227,4303.333496,4322.436035,4219.102539,4229.615234,4215.769043,4258.589844,4218.077148,4218.205078,4582.307617,4485.512695,4380.256348,4501.794922,4841.000000,0.000000,9.000000,,,,0.000000,4.000000,4.000000,4.000000,4.000000,4.000000,4.000000,4.000000,4.000000,4.000000,4.000000,4.000000,4.000000,4.000000,4.000000,100.000000,,,,,,,,,,,,,,,,,,,,,,,,,,,,,,,,,,,,,,,,,,,,,,,,,,,,,,,,,,,,,,,,,,,,,,,,,,,,,,,,,,,,,,,,,,,,,,,,,,,,,,,,,,,,,,,,,,,,,,,,,,,,,,,,,
1739356805.802308,1739356805.802811,111.000000,0.000000,4266.666504,4246.794922,4305.897461,4320.512695,4218.717773,4227.179688,4217.436035,4256.282227,4219.871582,4224.487305,4592.179688,4494.102539,4377.948730,4506.410156,5627.000000,0.000000,9.000000,,,,0.000000,4.000000,4.000000,4.000000,4.000000,4.000000,4.000000,4.000000,4.000000,4.000000,4.000000,4.000000,4.000000,4.000000,4.000000,100.000000,,,,,,,,,,,,,,,,,,,,,,,,,,,,,,,,,,,,,,,,,,,,,,,,,,,,,,,,,,,,,,,,,,,,,,,,,,,,,,,,,,,,,,,,,,,,,,,,,,,,,,,,,,,,,,,,,,,,,,,,,,,,,,,,,
1739356805.810116,1739356805.810619,112.000000,0.000000,4265.769043,4246.538574,4301.282227,4313.589844,4214.358887,4220.769043,4211.025879,4251.025879,4215.769043,4219.871582,4583.205078,4491.666504,4377.179688,4497.820313,5704.000000,0.000000,9.000000,,,,0.000000,4.000000,4.000000,4.000000,4.000000,4.000000,4.000000,4.000000,4.000000,4.000000,4.000000,4.000000,4.000000,4.000000,4.000000,100.000000,,,,,,,,,,,,,,,,,28.000000,0.000000,0.627157,0.112732,-0.740845,0.212402,0.985960,-0.161641,-0.104017,-46.883450,-32.473976,36.817574,,,,,,,,,,,,,,,,,,,,,,,,,,,,,,,,,,,,,,,,,,,,,,,,,,,,,,,,,,,,,,,,,,,,,,,,,,,,,,,,,,,,,,,,,,,,,,,,,,,,,
1739356805.817924,1739356805.818527,113.000000,0.000000,4262.948730,4240.384766,4297.563965,4312.307617,4214.102539,4216.666504,4207.307617,4251.922852,4214.871582,4211.666504,4574.871582,4481.025879,4380.000000,4491.282227,6464.000000,0.000000,9.000000,,,,0.000000,4.000000,4.000000,4.000000,4.000000,4.000000,4.000000,4.000000,4.000000,4.000000,4.000000,4.000000,4.000000,4.000000,4.000000,100.000000,,,,,,,,,,,,,,,,,,,,,,,,,,,,,,,,,,,,,,,,,,,,,,,,,,,,,,,,,,,,,,,,,,,,,,,,,,,,,,,,,,,,,,,,,,,,,,,,,,,,,,,,,,,,,,,,,,,,,,,,,,,,,,,,,
1739356805.825732,1739356805.826335,114.000000,0.000000,4251.282227,4233.333496,4288.717773,4311.666504,4215.769043,4216.538574,4207.820313,4253.846191,4215.897461,4207.179688,4572.307617,4470.512695,4370.256348,4482.948730,4841.000000,0.000000,9.000000,,,,0.000000,4.000000,4.000000,4.000000,4.000000,4.000000,4.000000,4.000000,4.000000,4.000000,4.000000,4.000000,4.000000,4.000000,4.000000,100.000000,,,,,,,,,,,,,,,,,,,,,,,,,,,,,,,,,,,,,,,,,,,,,,,,,,,,,,,,,,,,,,,,,,,,,,,,,,,,,,,,,,,,,,,,,,,,,,,,,,,,,,,,,,,,,,,,,,,,,,,,,,,,,,,,,
1739356805.833540,1739356805.834244,115.000000,0.000000,4243.974121,4230.128418,4278.589844,4308.333496,4213.846191,4218.205078,4204.358887,4253.846191,4215.769043,4206.153809,4568.461426,4466.410156,4360.897461,4474.871582,5627.000000,0.000000,9.000000,,,,0.000000,4.000000,4.000000,4.000000,4.000000,4.000000,4.000000,4.000000,4.000000,4.000000,4.000000,4.000000,4.000000,4.000000,4.000000,100.000000,,,,,,,,,,,,,,,,,,,,,,,,,,,,,,,,,,,,,,,,,,,,,,,,,,,,,,,,,,,,,,,,,,,,,,,,,,,,,,,,,,,,,,,,,,,,,,,,,,,,,,,,,,,,,,,,,,,,,,,,,,,,,,,,,
1739356805.841348,1739356805.842052,116.000000,0.000000,4248.205078,4229.102539,4283.461426,4307.307617,4213.077148,4219.871582,4207.307617,4255.128418,4215.512695,4203.205078,4566.025879,4470.769043,4363.717773,4479.871582,5704.000000,0.000000,9.000000,,,,0.000000,4.000000,4.000000,4.000000,4.000000,4.000000,4.000000,4.000000,4.000000,4.000000,4.000000,4.000000,4.000000,4.000000,4.000000,100.000000,,,,,,,,,,,,,,,,,29.000000,0.000000,0.627557,0.112854,-0.740540,0.212219,0.977658,-0.167989,-0.114760,-46.811771,-32.376575,36.802483,,,,,,,,,,,,,,,,,,,,,,,,,,,,,,,,,,,,,,,,,,,,,,,,,,,,,,,,,,,,,,,,,,,,,,,,,,,,,,,,,,,,,,,,,,,,,,,,,,,,,
1739356805.849156,1739356805.849960,117.000000,0.000000,4246.922852,4227.307617,4290.897461,4306.153809,4214.743652,4219.230957,4213.974121,4257.692383,4216.538574,4200.641113,4567.563965,4473.589844,4366.153809,4490.384766,6464.000000,0.000000,9.000000,,,,0.000000,4.000000,4.000000,4.000000,4.000000,4.000000,4.000000,4.000000,4.000000,4.000000,4.000000,4.000000,4.000000,4.000000,4.000000,100.000000,,,,,,,,,,,,,,,,,,,,,,,,,,,,,,,,,,,,,,,,,,,,,,,,,,,,,,,,,,,,,,,,,,,,,,,,,,,,,,,,,,,,,,,,,,,,,,,,,,,,,,,,,,,,,,,,,,,,,,,,,,,,,,,,,
1739356805.856964,1739356805.857768,118.000000,0.000000,4245.769043,4228.077148,4292.820313,4305.256348,4215.384766,4220.384766,4217.948730,4261.794922,4219.743652,4211.410156,4572.307617,4478.717773,4369.230957,4494.102539,4841.000000,0.000000,9.000000,,,,0.000000,4.000000,4.000000,4.000000,4.000000,4.000000,4.000000,4.000000,4.000000,4.000000,4.000000,4.000000,4.000000,4.000000,4.000000,100.000000,,,,,,,,,,,,,,,,,,,,,,,,,,,,,,,,,,,,,,,,,,,,,,,,,,,,,,,,,,,,,,,,,,,,,,,,,,,,,,,,,,,,,,,,,,,,,,,,,,,,,,,,,,,,,,,,,,,,,,,,,,,,,,,,,
1739356805.864772,1739356805.865676,119.000000,0.000000,4255.512695,4233.205078,4300.256348,4310.000000,4216.410156,4229.102539,4223.333496,4261.410156,4221.153809,4219.358887,4576.025879,4489.358887,4373.333496,4493.461426,5627.000000,0.000000,9.000000,,,,0.000000,4.000000,4.000000,4.000000,4.000000,4.000000,4.000000,4.000000,4.000000,4.000000,4.000000,4.000000,4.000000,4.000000,4.000000,100.000000,,,,,,,,,,,,,,,,,,,,,,,,,,,,,,,,,,,,,,,,,,,,,,,,,,,,,,,,,,,,,,,,,,,,,,,,,,,,,,,,,,,,,,,,,,,,,,,,,,,,,,,,,,,,,,,,,,,,,,,,,,,,,,,,,
1739356805.872580,1739356805.873484,120.000000,0.000000,4258.333496,4230.641113,4304.743652,4310.897461,4219.230957,4235.769043,4224.358887,4257.692383,4217.563965,4207.820313,4573.974121,4493.846191,4369.102539,4490.128418,5704.000000,0.000000,9.000000,,,,0.000000,4.000000,4.000000,4.000000,4.000000,4.000000,4.000000,4.000000,4.000000,4.000000,4.000000,4.000000,4.000000,4.000000,4.000000,100.000000,,,,,,,,,,,,,,,,,30.000000,0.000000,0.627701,0.112915,-0.740479,0.211975,0.973752,-0.164571,-0.113295,-46.947262,-32.238918,36.805569,,,,,,,,,,,,,,,,,,,,,,,,,,,,,,,,2.306069,3.513798,1.427139,0.252476,0.154815,1.061813,2.438039,1.357393,0.214348,0.183342,1.875476,2.535899,1.030512,0.203028,0.109052,1.454431,2.485241,0.973396,0.259268,0.140259,0.364104,0.741713,0.336942,0.126844,0.082383,0.252050,0.523534,0.158874,0.124662,0.056306,0.689738,2.013376,0.341902,0.163901,0.084454,0.359416,0.347500,0.224897,0.157352,0.036702,0.582910,1.330056,0.567004,0.272192,0.099898,1.026439,2.184838,1.055340,0.261003,0.147691,2.645519,3.842258,0.930621,0.261432,0.262672,2.588828,4.382512,1.505371,0.518252,0.150653,1.681154,2.138190,0.503151,0.196758,0.120791,1.850369,3.318821,0.990573,0.284959,0.192926
1739356805.880388,1739356805.881392,121.000000,0.000000,4250.641113,4219.743652,4298.333496,4302.307617,4215.256348,4229.102539,4218.846191,4258.846191,4214.487305,4199.487305,4572.179688,4488.077148,4372.051270,4490.256348,6464.000000,0.000000,9.000000,,,,0.000000,4.000000,4.000000,4.000000,4.000000,4.000000,4.000000,4.000000,4.000000,4.000000,4.000000,4.000000,4.000000,4.000000,4.000000,100.000000,,,,,,,,,,,,,,,,,,,,,,,,,,,,,,,,,,,,,,,,,,,,,,,,,,,,,,,,,,,,,,,,,,,,,,,,,,,,,,,,,,,,,,,,,,,,,,,,,,,,,,,,,,,,,,,,,,,,,,,,,,,,,,,,,
1739356805.888197,1739356805.889200,122.000000,0.000000,4249.230957,4213.846191,4292.948730,4292.436035,4203.846191,4218.717773,4213.846191,4258.974121,4214.743652,4203.717773,4576.794922,4482.307617,4383.205078,4492.051270,4841.000000,0.000000,9.000000,,,,0.000000,4.000000,4.000000,4.000000,4.000000,4.000000,4.000000,4.000000,4.000000,4.000000,4.000000,4.000000,4.000000,4.000000,4.000000,100.000000,,,,,,,,,,,,,,,,,,,,,,,,,,,,,,,,,,,,,,,,,,,,,,,,,,,,,,,,,,,,,,,,,,,,,,,,,,,,,,,,,,,,,,,,,,,,,,,,,,,,,,,,,,,,,,,,,,,,,,,,,,,,,,,,,
1739356805.896005,1739356805.897008,123.000000,0.000000,4248.077148,4210.128418,4289.230957,4287.179688,4198.974121,4216.922852,4208.846191,4257.051270,4210.512695,4203.589844,4573.974121,4478.205078,4380.512695,4482.436035,5627.000000,0.000000,9.000000,,,,0.000000,4.000000,4.000000,4.000000,4.000000,4.000000,4.000000,4.000000,4.000000,4.000000,4.000000,4.000000,4.000000,4.000000,4.000000,100.000000,,,,,,,,,,,,,,,,,,,,,,,,,,,,,,,,,,,,,,,,,,,,,,,,,,,,,,,,,,,,,,,,,,,,,,,,,,,,,,,,,,,,,,,,,,,,,,,,,,,,,,,,,,,,,,,,,,,,,,,,,,,,,,,,,
1739356805.903813,1739356805.904816,124.000000,0.000000,4242.179688,4205.897461,4285.000000,4288.846191,4200.641113,4218.589844,4202.820313,4259.230957,4203.589844,4200.769043,4568.333496,4470.897461,4367.820313,4474.358887,5704.000000,0.000000,9.000000,,,,0.000000,4.000000,4.000000,4.000000,4.000000,4.000000,4.000000,4.000000,4.000000,4.000000,4.000000,4.000000,4.000000,4.000000,4.000000,100.000000,,,,,,,,,,,,,,,,,31.000000,0.000000,0.627979,0.112915,-0.740295,0.211792,0.983030,-0.172873,-0.117690,-46.902534,-32.298359,36.991680,,,,,,,,,,,,,,,,,,,,,,,,,,,,,,,,,,,,,,,,,,,,,,,,,,,,,,,,,,,,,,,,,,,,,,,,,,,,,,,,,,,,,,,,,,,,,,,,,,,,,
1739356805.911621,1739356805.912524,125.000000,0.000000,4243.461426,4210.897461,4285.256348,4292.948730,4200.641113,4216.153809,4202.307617,4261.666504,4201.922852,4202.179688,4570.641113,4467.820313,4362.820313,4476.538574,6464.000000,0.000000,9.000000,,,,0.000000,4.000000,4.000000,4.000000,4.000000,4.000000,4.000000,4.000000,4.000000,4.000000,4.000000,4.000000,4.000000,4.000000,4.000000,100.000000,,,,,,,,,,,,,,,,,,,,,,,,,,,,,,,,,,,,,,,,,,,,,,,,,,,,,,,,,,,,,,,,,,,,,,,,,,,,,,,,,,,,,,,,,,,,,,,,,,,,,,,,,,,,,,,,,,,,,,,,,,,,,,,,,
1739356805.919429,1739356805.920332,126.000000,0.000000,4246.922852,4216.794922,4283.077148,4294.487305,4200.256348,4214.358887,4202.820313,4257.179688,4198.974121,4197.179688,4567.436035,4469.102539,4362.948730,4477.692383,4841.000000,0.000000,9.000000,,,,0.000000,4.000000,4.000000,4.000000,4.000000,4.000000,4.000000,4.000000,4.000000,4.000000,4.000000,4.000000,4.000000,4.000000,4.000000,100.000000,,,,,,,,,,,,,,,,,,,,,,,,,,,,,,,,,,,,,,,,,,,,,,,,,,,,,,,,,,,,,,,,,,,,,,,,,,,,,,,,,,,,,,,,,,,,,,,,,,,,,,,,,,,,,,,,,,,,,,,,,,,,,,,,,
1739356805.927237,1739356805.928040,127.000000,0.000000,4247.563965,4216.666504,4279.615234,4294.487305,4203.589844,4217.948730,4201.666504,4256.794922,4195.256348,4190.000000,4557.051270,4467.692383,4361.922852,4478.589844,9.000000,0.000000,9.000000,,,,0.000000,4.000000,4.000000,4.000000,4.000000,4.000000,4.000000,4.000000,4.000000,4.000000,4.000000,4.000000,4.000000,4.000000,4.000000,100.000000,,,,,,,,,,,,,,,,,,,,,,,,,,,,,,,,,,,,,,,,,,,,,,,,,,,,,,,,,,,,,,,,,,,,,,,,,,,,,,,,,,,,,,,,,,,,,,,,,,,,,,,,,,,,,,,,,,,,,,,,,,,,,,,,,
1739356805.935045,1739356805.935948,0.000000,0.000000,4244.102539,4218.205078,4281.153809,4294.230957,4202.820313,4217.692383,4203.077148,4259.230957,4195.897461,4187.692383,4553.077148,4461.794922,4360.128418,4480.128418,4954.000000,0.000000,9.000000,,,,0.000000,4.000000,4.000000,4.000000,4.000000,4.000000,4.000000,4.000000,4.000000,4.000000,4.000000,4.000000,4.000000,4.000000,4.000000,100.000000,,,,,,,,,,,,,,,,,0.000000,0.000000,0.628347,0.113037,-0.740051,0.211487,0.988402,-0.163594,-0.117690,-46.762280,-32.285191,36.975845,,,,,,,,,,,,,,,,,,,,,,,,,,,,,,,,,,,,,,,,,,,,,,,,,,,,,,,,,,,,,,,,,,,,,,,,,,,,,,,,,,,,,,,,,,,,,,,,,,,,,
1739356805.942853,1739356805.943757,1.000000,0.000000,4235.512695,4215.000000,4279.615234,4295.128418,4200.512695,4217.307617,4206.538574,4258.589844,4195.641113,4185.641113,4555.384766,4456.282227,4363.077148,4473.846191,5589.000000,0.000000,9.000000,,,,0.000000,4.000000,4.000000,4.000000,4.000000,4.000000,4.000000,4.000000,4.000000,4.000000,4.000000,4.000000,4.000000,4.000000,4.000000,100.000000,,,,,,,,,,,,,,,,,,,,,,,,,,,,,,,,,,,,,,,,,,,,,,,,,,,,,,,,,,,,,,,,,,,,,,,,,,,,,,,,,,,,,,,,,,,,,,,,,,,,,,,,,,,,,,,,,,,,,,,,,,,,,,,,,
1739356805.950661,1739356805.951565,2.000000,0.000000,4237.948730,4214.230957,4279.358887,4303.461426,4210.384766,4227.307617,4212.563965,4260.769043,4198.589844,4190.512695,4558.717773,4460.897461,4369.871582,4471.922852,5599.000000,0.000000,9.000000,,,,0.000000,4.000000,4.000000,4.000000,4.000000,4.000000,4.000000,4.000000,4.000000,4.000000,4.000000,4.000000,4.000000,4.000000,4.000000,100.000000,,,,,,,,,,,,,,,,,,,,,,,,,,,,,,,,,,,,,,,,,,,,,,,,,,,,,,,,,,,,,,,,,,,,,,,,,,,,,,,,,,,,,,,,,,,,,,,,,,,,,,,,,,,,,,,,,,,,,,,,,,,,,,,,,
1739356805.958469,1739356805.959273,3.000000,0.000000,4249.743652,4224.102539,4286.922852,4312.820313,4218.974121,4231.794922,4216.666504,4262.820313,4211.153809,4202.820313,4563.205078,4469.615234,4369.230957,4479.358887,5542.000000,0.000000,9.000000,,,,0.000000,4.000000,4.000000,4.000000,4.000000,4.000000,4.000000,4.000000,4.000000,4.000000,4.000000,4.000000,4.000000,4.000000,4.000000,100.000000,,,,,,,,,,,,,,,,,,,,,,,,,,,,,,,,,,,,,,,,,,,,,,,,,,,,,,,,,,,,,,,,,,,,,,,,,,,,,,,,,,,,,,,,,,,,,,,,,,,,,,,,,,,,,,,,,,,,,,,,,,,,,,,,,
1739356805.966277,1739356805.967081,4.000000,0.000000,4252.179688,4224.487305,4288.077148,4310.128418,4211.282227,4224.743652,4214.487305,4260.256348,4219.871582,4206.794922,4567.948730,4471.666504,4367.948730,4481.666504,5517.000000,0.000000,9.000000,,,,0.000000,4.000000,4.000000,4.000000,4.000000,4.000000,4.000000,4.000000,4.000000,4.000000,4.000000,4.000000,4.000000,4.000000,4.000000,100.000000,,,,,,,,,,,,,,,,,1.000000,0.000000,0.628717,0.113037,-0.739807,0.211243,0.981565,-0.166524,-0.109388,-46.702721,-32.340004,36.978260,,,,,,,,,,,,,,,,,,,,,,,,,,,,,,,,,,,,,,,,,,,,,,,,,,,,,,,,,,,,,,,,,,,,,,,,,,,,,,,,,,,,,,,,,,,,,,,,,,,,,
1739356805.974085,1739356805.974789,5.000000,0.000000,4246.922852,4215.769043,4282.051270,4300.384766,4201.282227,4220.384766,4208.717773,4259.358887,4213.461426,4199.871582,4569.358887,4468.461426,4374.487305,4482.436035,5477.000000,0.000000,9.000000,,,,0.000000,4.000000,4.000000,4.000000,4.000000,4.000000,4.000000,4.000000,4.000000,4.000000,4.000000,4.000000,4.000000,4.000000,4.000000,100.000000,,,,,,,,,,,,,,,,,,,,,,,,,,,,,,,,,,,,,,,,,,,,,,,,,,,,,,,,,,,,,,,,,,,,,,,,,,,,,,,,,,,,,,,,,,,,,,,,,,,,,,,,,,,,,,,,,,,,,,,,,,,,,,,,,
1739356805.981893,1739356805.982597,6.000000,0.000000,4247.051270,4216.153809,4283.205078,4295.641113,4201.794922,4220.769043,4203.974121,4262.563965,4205.000000,4198.974121,4566.282227,4472.179688,4373.974121,4490.641113,5465.000000,0.000000,9.000000,,,,0.000000,4.000000,4.000000,4.000000,4.000000,4.000000,4.000000,4.000000,4.000000,4.000000,4.000000,4.000000,4.000000,4.000000,4.000000,100.000000,,,,,,,,,,,,,,,,,,,,,,,,,,,,,,,,,,,,,,,,,,,,,,,,,,,,,,,,,,,,,,,,,,,,,,,,,,,,,,,,,,,,,,,,,,,,,,,,,,,,,,,,,,,,,,,,,,,,,,,,,,,,,,,,,
1739356805.989702,1739356805.990305,7.000000,0.000000,4251.410156,4219.871582,4286.410156,4296.153809,4202.692383,4219.102539,4202.563965,4260.256348,4201.282227,4201.410156,4553.589844,4474.743652,4363.589844,4494.487305,2059.000000,0.000000,9.000000,,,,0.000000,4.000000,4.000000,4.000000,4.000000,4.000000,4.000000,4.000000,4.000000,4.000000,4.000000,4.000000,4.000000,4.000000,4.000000,100.000000,,,,,,,,,,,,,,,,,,,,,,,,,,,,,,,,,,,,,,,,,,,,,,,,,,,,,,,,,,,,,,,,,,,,,,,,,,,,,,,,,,,,,,,,,,,,,,,,,,,,,,,,,,,,,,,,,,,,,,,,,,,,,,,,,
1739356805.997510,1739356805.998113,8.000000,0.000000,4245.897461,4216.282227,4280.641113,4293.717773,4199.102539,4216.666504,4202.051270,4254.615234,4199.615234,4193.589844,4538.461426,4463.846191,4358.846191,4485.000000,5275.000000,0.000000,9.000000,,,,0.000000,4.000000,4.000000,4.000000,4.000000,4.000000,4.000000,4.000000,4.000000,4.000000,4.000000,4.000000,4.000000,4.000000,4.000000,100.000000,1.000000,91.666664,4.000000,4.000000,4.000000,4.000000,4.000000,4.000000,4.000000,4.000000,4.000000,3.000000,4.000000,4.000000,4.000000,4.000000,2.000000,0.000000,0.629073,0.113220,-0.739563,0.210938,0.968380,-0.155781,-0.113295,-46.515781,-32.472672,36.980434,,,,,,,,,,,,,,,,,,,,,,,,,,,,,,,,2.518227,4.683101,1.429291,0.231631,0.157083,1.156037,3.265288,1.283774,0.210845,0.190304,2.269977,3.306350,1.056567,0.178383,0.111397,1.526448,3.137042,0.989149,0.256863,0.147261,0.361657,0.818236,0.349080,0.116464,0.080230,0.327447,0.817031,0.201799,0.121342,0.057716,0.788141,3.208823,0.419938,0.153670,0.088017,0.524040,0.578662,0.239639,0.187311,0.037181,0.607092,2.201639,0.582426,0.285116,0.100909,0.985844,3.187715,1.073166,0.249333,0.142583,2.688504,5.447649,1.009048,0.285107,0.250624,3.110778,5.849623,1.633530,0.475821,0.149641,1.909039,3.057255,0.532862,0.178040,0.115046,2.142654,4.504692,1.017815,0.272621,0.204809
1739356806.005318,1739356806.005821,9.000000,0.000000,4235.000000,4213.461426,4271.666504,4290.000000,4197.307617,4214.102539,4198.589844,4251.153809,4200.000000,4184.743652,4535.256348,4451.922852,4360.000000,4475.128418,5612.000000,0.000000,9.000000,,,,0.000000,4.000000,4.000000,4.000000,4.000000,4.000000,4.000000,4.000000,4.000000,4.000000,4.000000,4.000000,4.000000,4.000000,4.000000,100.000000,,,,,,,,,,,,,,,,,,,,,,,,,,,,,,,,,,,,,,,,,,,,,,,,,,,,,,,,,,,,,,,,,,,,,,,,,,,,,,,,,,,,,,,,,,,,,,,,,,,,,,,,,,,,,,,,,,,,,,,,,,,,,,,,,
1739356806.013126,1739356806.013629,10.000000,0.000000,4238.077148,4215.769043,4267.307617,4292.179688,4197.563965,4212.051270,4199.102539,4243.974121,4196.538574,4185.128418,4538.589844,4448.717773,4356.538574,4475.256348,4841.000000,0.000000,9.000000,,,,0.000000,4.000000,4.000000,4.000000,4.000000,4.000000,4.000000,4.000000,4.000000,4.000000,4.000000,4.000000,4.000000,4.000000,4.000000,100.000000,,,,,,,,,,,,,,,,,,,,,,,,,,,,,,,,,,,,,,,,,,,,,,,,,,,,,,,,,,,,,,,,,,,,,,,,,,,,,,,,,,,,,,,,,,,,,,,,,,,,,,,,,,,,,,,,,,,,,,,,,,,,,,,,,
1739356806.020934,1739356806.021337,11.000000,0.000000,4245.000000,4217.820313,4267.563965,4296.410156,4200.256348,4215.128418,4201.666504,4241.025879,4188.205078,4184.615234,4536.410156,4448.205078,4351.538574,4474.358887,5627.000000,0.000000,9.000000,,,,0.000000,4.000000,4.000000,4.000000,4.000000,4.000000,4.000000,4.000000,4.000000,4.000000,4.000000,4.000000,4.000000,4.000000,4.000000,100.000000,,,,,,,,,,,,,,,,,,,,,,,,,,,,,,,,,,,,,,,,,,,,,,,,,,,,,,,,,,,,,,,,,,,,,,,,,,,,,,,,,,,,,,,,,,,,,,,,,,,,,,,,,,,,,,,,,,,,,,,,,,,,,,,,,
1739356806.028742,1739356806.029245,12.000000,0.000000,4235.128418,4218.333496,4261.794922,4294.230957,4201.794922,4213.717773,4199.102539,4248.333496,4181.922852,4174.487305,4535.384766,4439.871582,4350.512695,4465.512695,5704.000000,0.000000,9.000000,,,,0.000000,4.000000,4.000000,4.000000,4.000000,4.000000,4.000000,4.000000,4.000000,4.000000,4.000000,4.000000,4.000000,4.000000,4.000000,100.000000,,,,,,,,,,,,,,,,,3.000000,0.000000,0.629278,0.113220,-0.739441,0.210754,0.979123,-0.149432,-0.110853,-46.547535,-32.325405,37.082390,,,,,,,,,,,,,,,,,,,,,,,,,,,,,,,,,,,,,,,,,,,,,,,,,,,,,,,,,,,,,,,,,,,,,,,,,,,,,,,,,,,,,,,,,,,,,,,,,,,,,
1739356806.036550,1739356806.037053,13.000000,0.000000,4225.769043,4214.102539,4253.589844,4289.487305,4201.410156,4205.128418,4197.563965,4256.922852,4184.102539,4172.692383,4536.410156,4431.794922,4351.666504,4457.436035,6467.000000,0.000000,9.000000,,,,0.000000,4.000000,4.000000,4.000000,4.000000,4.000000,4.000000,4.000000,4.000000,4.000000,4.000000,4.000000,4.000000,4.000000,4.000000,100.000000,,,,,,,,,,,,,,,,,,,,,,,,,,,,,,,,,,,,,,,,,,,,,,,,,,,,,,,,,,,,,,,,,,,,,,,,,,,,,,,,,,,,,,,,,,,,,,,,,,,,,,,,,,,,,,,,,,,,,,,,,,,,,,,,,
1739356806.044358,1739356806.044962,14.000000,0.000000,4228.333496,4207.563965,4257.307617,4288.077148,4200.384766,4205.897461,4198.205078,4259.487305,4191.153809,4185.384766,4537.436035,4436.153809,4354.230957,4459.871582,4841.000000,0.000000,9.000000,,,,0.000000,4.000000,4.000000,4.000000,4.000000,4.000000,4.000000,4.000000,4.000000,4.000000,4.000000,4.000000,4.000000,4.000000,4.000000,100.000000,,,,,,,,,,,,,,,,,,,,,,,,,,,,,,,,,,,,,,,,,,,,,,,,,,,,,,,,,,,,,,,,,,,,,,,,,,,,,,,,,,,,,,,,,,,,,,,,,,,,,,,,,,,,,,,,,,,,,,,,,,,,,,,,,
1739356806.052166,1739356806.052770,15.000000,0.000000,4230.769043,4207.692383,4266.794922,4291.922852,4198.589844,4211.538574,4198.461426,4263.333496,4197.051270,4192.563965,4544.487305,4450.000000,4358.461426,4467.692383,5627.000000,0.000000,9.000000,,,,0.000000,4.000000,4.000000,4.000000,4.000000,4.000000,4.000000,4.000000,4.000000,4.000000,4.000000,4.000000,4.000000,4.000000,4.000000,100.000000,,,,,,,,,,,,,,,,,,,,,,,,,,,,,,,,,,,,,,,,,,,,,,,,,,,,,,,,,,,,,,,,,,,,,,,,,,,,,,,,,,,,,,,,,,,,,,,,,,,,,,,,,,,,,,,,,,,,,,,,,,,,,,,,,
1739356806.059974,1739356806.060678,16.000000,0.000000,4231.922852,4211.922852,4267.307617,4295.256348,4198.846191,4208.205078,4200.512695,4265.256348,4199.358887,4188.333496,4552.051270,4459.615234,4358.717773,4472.692383,0.000000,0.000000,9.000000,,,,0.000000,4.000000,4.000000,4.000000,4.000000,4.000000,4.000000,4.000000,4.000000,4.000000,4.000000,4.000000,4.000000,4.000000,4.000000,100.000000,,,,,,,,,,,,,,,,,4.000000,0.000000,0.629798,0.113403,-0.739075,0.210388,0.974240,-0.169943,-0.116713,-46.576115,-32.442863,37.007484,,,,,,,,,,,,,,,,,,,,,,,,,,,,,,,,,,,,,,,,,,,,,,,,,,,,,,,,,,,,,,,,,,,,,,,,,,,,,,,,,,,,,,,,,,,,,,,,,,,,,
1739356806.067782,1739356806.068486,17.000000,0.000000,4234.358887,4207.692383,4266.025879,4292.179688,4197.307617,4200.641113,4201.153809,4260.256348,4198.205078,4186.538574,4553.846191,4456.282227,4358.461426,4475.256348,0.000000,0.000000,9.000000,,,,0.000000,4.000000,4.000000,4.000000,4.000000,4.000000,4.000000,4.000000,4.000000,4.000000,4.000000,4.000000,4.000000,4.000000,4.000000,100.000000,,,,,,,,,,,,,,,,,,,,,,,,,,,,,,,,,,,,,,,,,,,,,,,,,,,,,,,,,,,,,,,,,,,,,,,,,,,,,,,,,,,,,,,,,,,,,,,,,,,,,,,,,,,,,,,,,,,,,,,,,,,,,,,,,
1739356806.075590,1739356806.076393,18.000000,0.000000,4233.717773,4200.512695,4266.153809,4288.717773,4190.128418,4199.871582,4193.717773,4257.436035,4197.820313,4190.512695,4552.051270,4448.461426,4355.897461,4476.538574,0.000000,0.000000,9.000000,,,,0.000000,4.000000,4.000000,4.000000,4.000000,4.000000,4.000000,4.000000,4.000000,4.000000,4.000000,4.000000,4.000000,4.000000,4.000000,100.000000,,,,,,,,,,,,,,,,,,,,,,,,,,,,,,,,,,,,,,,,,,,,,,,,,,,,,,,,,,,,,,,,,,,,,,,,,,,,,,,,,,,,,,,,,,,,,,,,,,,,,,,,,,,,,,,,,,,,,,,,,,,,,,,,,
1739356806.083398,1739356806.084201,19.000000,0.000000,4231.794922,4203.205078,4265.769043,4288.077148,4186.410156,4202.563965,4187.563965,4260.000000,4199.487305,4188.717773,4545.128418,4447.179688,4345.641113,4469.487305,0.000000,0.000000,9.000000,,,,0.000000,4.000000,4.000000,4.000000,4.000000,4.000000,4.000000,4.000000,4.000000,4.000000,4.000000,4.000000,4.000000,4.000000,4.000000,100.000000,,,,,,,,,,,,,,,,,,,,,,,,,,,,,,,,,,,,,,,,,,,,,,,,,,,,,,,,,,,,,,,,,,,,,,,,,,,,,,,,,,,,,,,,,,,,,,,,,,,,,,,,,,,,,,,,,,,,,,,,,,,,,,,,,
1739356806.091207,1739356806.091909,20.000000,0.000000,4229.615234,4204.487305,4261.282227,4283.205078,4189.230957,4197.563965,4187.179688,4258.205078,4199.102539,4182.436035,4536.666504,4447.179688,4341.282227,4461.666504,0.000000,0.000000,9.000000,,,,0.000000,4.000000,4.000000,4.000000,4.000000,4.000000,4.000000,4.000000,4.000000,4.000000,4.000000,4.000000,4.000000,4.000000,4.000000,100.000000,,,,,,,,,,,,,,,,,5.000000,0.000000,0.630124,0.113464,-0.738892,0.210022,0.979612,-0.159199,-0.110365,-46.685169,-32.465244,37.023403,,,,,,,,,,,,,,,,,,,,,,,,,,,,,,,,,,,,,,,,,,,,,,,,,,,,,,,,,,,,,,,,,,,,,,,,,,,,,,,,,,,,,,,,,,,,,,,,,,,,,
1739356806.099015,1739356806.099717,21.000000,0.000000,4229.230957,4201.538574,4252.436035,4279.358887,4187.692383,4188.846191,4180.641113,4253.205078,4193.589844,4182.563965,4535.769043,4441.025879,4349.358887,4464.615234,0.000000,0.000000,9.000000,,,,0.000000,4.000000,4.000000,4.000000,4.000000,4.000000,4.000000,4.000000,4.000000,4.000000,4.000000,4.000000,4.000000,4.000000,4.000000,100.000000,,,,,,,,,,,,,,,,,,,,,,,,,,,,,,,,,,,,,,,,,,,,,,,,,,,,,,,,,,,,,,,,,,,,,,,,,,,,,,,,,,,,,,,,,,,,,,,,,,,,,,,,,,,,,,,,,,,,,,,,,,,,,,,,,
1739356806.106823,1739356806.107425,22.000000,0.000000,4230.256348,4207.179688,4251.410156,4284.487305,4183.589844,4183.333496,4176.025879,4251.538574,4186.025879,4186.922852,4537.051270,4438.974121,4354.102539,4467.179688,0.000000,0.000000,9.000000,,,,0.000000,4.000000,4.000000,4.000000,4.000000,4.000000,4.000000,4.000000,4.000000,4.000000,4.000000,4.000000,4.000000,4.000000,4.000000,100.000000,,,,,,,,,,,,,,,,,,,,,,,,,,,,,,,,,,,,,,,,,,,,,,,,,,,,,,,,,,,,,,,,,,,,,,,,,,,,,,,,,,,,,,,,,,,,,,,,,,,,,,,,,,,,,,,,,,,,,,,,,,,,,,,,,
1739356806.114631,1739356806.115233,23.000000,0.000000,4232.436035,4216.153809,4263.077148,4291.282227,4187.179688,4185.769043,4181.410156,4251.922852,4184.358887,4184.230957,4536.410156,4445.384766,4353.077148,4465.384766,0.000000,0.000000,9.000000,,,,0.000000,4.000000,4.000000,4.000000,4.000000,4.000000,4.000000,4.000000,4.000000,4.000000,4.000000,4.000000,4.000000,4.000000,4.000000,100.000000,,,,,,,,,,,,,,,,,,,,,,,,,,,,,,,,,,,,,,,,,,,,,,,,,,,,,,,,,,,,,,,,,,,,,,,,,,,,,,,,,,,,,,,,,,,,,,,,,,,,,,,,,,,,,,,,,,,,,,,,,,,,,,,,,
1739356806.122439,1739356806.122942,24.000000,0.000000,4241.410156,4219.487305,4275.897461,4300.512695,4195.897461,4193.589844,4186.922852,4252.179688,4191.922852,4183.205078,4542.692383,4455.641113,4359.102539,4474.615234,0.000000,0.000000,9.000000,,,,0.000000,4.000000,4.000000,4.000000,4.000000,4.000000,4.000000,4.000000,4.000000,4.000000,4.000000,4.000000,4.000000,4.000000,4.000000,100.000000,,,,,,,,,,,,,,,,,6.000000,0.000000,0.630480,0.113525,-0.738647,0.209778,0.978147,-0.137712,-0.097668,-46.849987,-32.368721,36.937729,,,,,,,,,,,,,,,,,,,,,,,,,,,,,,,,2.703477,6.055791,1.412424,0.211083,0.151287,1.242562,4.142399,1.180432,0.218671,0.186410,2.552675,4.186457,1.115150,0.160049,0.108294,1.602800,3.814630,1.001239,0.250449,0.144296,0.413042,0.825042,0.345300,0.101030,0.074369,0.462401,1.186828,0.269779,0.123351,0.060359,1.026077,4.607609,0.580702,0.169826,0.090647,0.661402,0.869782,0.243173,0.207766,0.038320,0.692151,3.480423,0.632863,0.284126,0.098496,0.985622,4.447819,1.034302,0.241066,0.142266,2.576196,7.279680,1.033368,0.307513,0.231894,3.597589,7.730838,1.741360,0.424457,0.141262,2.138551,4.103897,0.555459,0.170193,0.105890,2.437710,5.869302,1.062731,0.261703,0.202582
1739356806.130247,1739356806.130750,25.000000,0.000000,4249.871582,4218.589844,4278.205078,4307.692383,4200.384766,4198.461426,4188.077148,4254.615234,4201.025879,4191.794922,4548.846191,4463.333496,4360.384766,4482.948730,0.000000,0.000000,9.000000,,,,0.000000,4.000000,4.000000,4.000000,4.000000,4.000000,4.000000,4.000000,4.000000,4.000000,4.000000,4.000000,4.000000,4.000000,4.000000,100.000000,,,,,,,,,,,,,,,,,,,,,,,,,,,,,,,,,,,,,,,,,,,,,,,,,,,,,,,,,,,,,,,,,,,,,,,,,,,,,,,,,,,,,,,,,,,,,,,,,,,,,,,,,,,,,,,,,,,,,,,,,,,,,,,,,
1739356806.138055,1739356806.138458,26.000000,0.000000,4245.128418,4218.077148,4271.410156,4302.179688,4200.128418,4200.256348,4195.512695,4257.692383,4203.077148,4199.743652,4544.358887,4460.897461,4352.436035,4473.461426,0.000000,0.000000,9.000000,,,,0.000000,4.000000,4.000000,4.000000,4.000000,4.000000,4.000000,4.000000,4.000000,4.000000,4.000000,4.000000,4.000000,4.000000,4.000000,100.000000,,,,,,,,,,,,,,,,,,,,,,,,,,,,,,,,,,,,,,,,,,,,,,,,,,,,,,,,,,,,,,,,,,,,,,,,,,,,,,,,,,,,,,,,,,,,,,,,,,,,,,,,,,,,,,,,,,,,,,,,,,,,,,,,,
1739356806.145863,1739356806.146266,27.000000,0.000000,4236.538574,4215.641113,4265.128418,4294.102539,4200.000000,4204.102539,4209.230957,4258.974121,4202.051270,4200.128418,4539.487305,4454.871582,4349.358887,4464.230957,0.000000,0.000000,9.000000,,,,0.000000,4.000000,4.000000,4.000000,4.000000,4.000000,4.000000,4.000000,4.000000,4.000000,4.000000,4.000000,4.000000,4.000000,4.000000,100.000000,,,,,,,,,,,,,,,,,,,,,,,,,,,,,,,,,,,,,,,,,,,,,,,,,,,,,,,,,,,,,,,,,,,,,,,,,,,,,,,,,,,,,,,,,,,,,,,,,,,,,,,,,,,,,,,,,,,,,,,,,,,,,,,,,
1739356806.153671,1739356806.153974,28.000000,0.000000,4228.846191,4205.128418,4263.717773,4288.205078,4201.666504,4209.871582,4217.692383,4258.461426,4202.436035,4193.077148,4538.205078,4451.538574,4345.256348,4460.897461,0.000000,0.000000,9.000000,,,,0.000000,4.000000,4.000000,4.000000,4.000000,4.000000,4.000000,4.000000,4.000000,4.000000,4.000000,4.000000,4.000000,4.000000,4.000000,100.000000,,,,,,,,,,,,,,,,,7.000000,0.000000,0.630888,0.113525,-0.738403,0.209412,0.978147,-0.136247,-0.114760,-46.864990,-32.198513,37.027290,,,,,,,,,,,,,,,,,,,,,,,,,,,,,,,,,,,,,,,,,,,,,,,,,,,,,,,,,,,,,,,,,,,,,,,,,,,,,,,,,,,,,,,,,,,,,,,,,,,,,
1739356806.161479,1739356806.161782,29.000000,0.000000,4222.563965,4192.307617,4262.051270,4279.615234,4201.282227,4212.307617,4218.589844,4256.025879,4200.512695,4187.051270,4532.692383,4447.820313,4340.256348,4455.641113,0.000000,0.000000,9.000000,,,,0.000000,4.000000,4.000000,4.000000,4.000000,4.000000,4.000000,4.000000,4.000000,4.000000,4.000000,4.000000,4.000000,4.000000,4.000000,100.000000,,,,,,,,,,,,,,,,,,,,,,,,,,,,,,,,,,,,,,,,,,,,,,,,,,,,,,,,,,,,,,,,,,,,,,,,,,,,,,,,,,,,,,,,,,,,,,,,,,,,,,,,,,,,,,,,,,,,,,,,,,,,,,,,,
1739356806.169287,1739356806.169490,30.000000,0.000000,4220.641113,4187.563965,4257.948730,4277.436035,4198.589844,4213.077148,4216.666504,4253.589844,4198.461426,4185.128418,4525.512695,4446.282227,4340.256348,4456.025879,0.000000,0.000000,9.000000,,,,0.000000,4.000000,4.000000,4.000000,4.000000,4.000000,4.000000,4.000000,4.000000,4.000000,4.000000,4.000000,4.000000,4.000000,4.000000,100.000000,,,,,,,,,,,,,,,,,,,,,,,,,,,,,,,,,,,,,,,,,,,,,,,,,,,,,,,,,,,,,,,,,,,,,,,,,,,,,,,,,,,,,,,,,,,,,,,,,,,,,,,,,,,,,,,,,,,,,,,,,,,,,,,,,
1739356806.177096,1739356806.177298,31.000000,0.000000,4222.179688,4187.820313,4259.743652,4279.871582,4199.615234,4216.282227,4218.077148,4254.487305,4200.384766,4185.128418,4523.846191,4450.000000,4341.922852,4459.871582,0.000000,0.000000,9.000000,,,,0.000000,4.000000,4.000000,4.000000,4.000000,4.000000,4.000000,4.000000,4.000000,4.000000,4.000000,4.000000,4.000000,4.000000,4.000000,100.000000,,,,,,,,,,,,,,,,,,,,,,,,,,,,,,,,,,,,,,,,,,,,,,,,,,,,,,,,,,,,,,,,,,,,,,,,,,,,,,,,,,,,,,,,,,,,,,,,,,,,,,,,,,,,,,,,,,,,,,,,,,,,,,,,,
1739356806.184904,1739356806.185006,32.000000,0.000000,4220.000000,4187.307617,4257.692383,4269.871582,4201.922852,4213.974121,4217.307617,4254.871582,4200.769043,4190.641113,4521.153809,4449.358887,4345.000000,4460.897461,0.000000,0.000000,9.000000,,,,0.000000,4.000000,4.000000,4.000000,4.000000,4.000000,4.000000,4.000000,4.000000,4.000000,4.000000,4.000000,4.000000,4.000000,4.000000,100.000000,,,,,,,,,,,,,,,,,8.000000,0.000000,0.631139,0.113770,-0.738220,0.209167,0.971798,-0.142107,-0.110853,-46.811825,-32.278664,36.957893,,,,,,,,,,,,,,,,,,,,,,,,,,,,,,,,,,,,,,,,,,,,,,,,,,,,,,,,,,,,,,,,,,,,,,,,,,,,,,,,,,,,,,,,,,,,,,,,,,,,,
1739356806.192712,1739356806.192814,33.000000,0.000000,4214.871582,4188.205078,4250.000000,4259.358887,4199.230957,4204.615234,4206.025879,4253.589844,4198.205078,4194.102539,4516.794922,4439.871582,4349.358887,4458.077148,0.000000,0.000000,9.000000,,,,0.000000,4.000000,4.000000,4.000000,4.000000,4.000000,4.000000,4.000000,4.000000,4.000000,4.000000,4.000000,4.000000,4.000000,4.000000,100.000000,,,,,,,,,,,,,,,,,,,,,,,,,,,,,,,,,,,,,,,,,,,,,,,,,,,,,,,,,,,,,,,,,,,,,,,,,,,,,,,,,,,,,,,,,,,,,,,,,,,,,,,,,,,,,,,,,,,,,,,,,,,,,,,,,
1739356806.200520,1739356806.200522,34.000000,0.000000,4223.205078,4198.333496,4253.205078,4270.897461,4196.538574,4197.948730,4195.512695,4253.846191,4198.461426,4193.974121,4520.384766,4443.333496,4355.512695,4459.743652,0.000000,0.000000,9.000000,,,,0.000000,4.000000,4.000000,4.000000,4.000000,4.000000,4.000000,4.000000,4.000000,4.000000,4.000000,4.000000,4.000000,4.000000,4.000000,100.000000,,,,,,,,,,,,,,,,,,,,,,,,,,,,,,,,,,,,,,,,,,,,,,,,,,,,,,,,,,,,,,,,,,,,,,,,,,,,,,,,,,,,,,,,,,,,,,,,,,,,,,,,,,,,,,,,,,,,,,,,,,,,,,,,,
1739356806.208328,1739356806.208430,35.000000,0.000000,4240.000000,4214.487305,4266.410156,4291.538574,4201.666504,4200.512695,4196.922852,4257.307617,4200.512695,4198.846191,4528.589844,4460.897461,4359.743652,4467.436035,0.000000,0.000000,9.000000,,,,0.000000,4.000000,4.000000,4.000000,4.000000,4.000000,4.000000,4.000000,4.000000,4.000000,4.000000,4.000000,4.000000,4.000000,4.000000,100.000000,,,,,,,,,,,,,,,,,,,,,,,,,,,,,,,,,,,,,,,,,,,,,,,,,,,,,,,,,,,,,,,,,,,,,,,,,,,,,,,,,,,,,,,,,,,,,,,,,,,,,,,,,,,,,,,,,,,,,,,,,,,,,,,,,
1739356806.216136,1739356806.216238,36.000000,0.000000,4241.922852,4217.179688,4270.000000,4298.846191,4203.205078,4200.897461,4198.846191,4258.461426,4197.692383,4202.820313,4527.948730,4463.461426,4353.461426,4469.743652,0.000000,0.000000,9.000000,,,,0.000000,4.000000,4.000000,4.000000,4.000000,4.000000,4.000000,4.000000,4.000000,4.000000,4.000000,4.000000,4.000000,4.000000,4.000000,100.000000,,,,,,,,,,,,,,,,,9.000000,0.000000,0.631401,0.113953,-0.738037,0.208923,0.977170,-0.155781,-0.106947,-46.813972,-32.350796,36.862106,,,,,,,,,,,,,,,,,,,,,,,,,,,,,,,,,,,,,,,,,,,,,,,,,,,,,,,,,,,,,,,,,,,,,,,,,,,,,,,,,,,,,,,,,,,,,,,,,,,,,
1739356806.223944,1739356806.224146,37.000000,0.000000,4232.948730,4211.153809,4264.230957,4294.615234,4201.282227,4199.871582,4198.461426,4255.128418,4199.743652,4198.333496,4521.282227,4454.615234,4347.692383,4462.179688,0.000000,0.000000,9.000000,,,,0.000000,4.000000,4.000000,4.000000,4.000000,4.000000,4.000000,4.000000,4.000000,4.000000,4.000000,4.000000,4.000000,4.000000,4.000000,100.000000,,,,,,,,,,,,,,,,,,,,,,,,,,,,,,,,,,,,,,,,,,,,,,,,,,,,,,,,,,,,,,,,,,,,,,,,,,,,,,,,,,,,,,,,,,,,,,,,,,,,,,,,,,,,,,,,,,,,,,,,,,,,,,,,,
1739356806.231752,1739356806.231954,38.000000,0.000000,4232.307617,4210.641113,4268.846191,4293.461426,4208.974121,4210.384766,4207.820313,4256.794922,4211.794922,4199.743652,4524.871582,4458.461426,4354.871582,4461.025879,0.000000,0.000000,9.000000,,,,0.000000,4.000000,4.000000,4.000000,4.000000,4.000000,4.000000,4.000000,4.000000,4.000000,4.000000,4.000000,4.000000,4.000000,4.000000,100.000000,,,,,,,,,,,,,,,,,,,,,,,,,,,,,,,,,,,,,,,,,,,,,,,,,,,,,,,,,,,,,,,,,,,,,,,,,,,,,,,,,,,,,,,,,,,,,,,,,,,,,,,,,,,,,,,,,,,,,,,,,,,,,,,,,
1739356806.239560,1739356806.239862,39.000000,0.000000,4235.000000,4207.692383,4278.461426,4292.307617,4218.333496,4219.743652,4218.461426,4261.666504,4218.589844,4206.538574,4534.102539,4465.769043,4359.487305,4467.948730,0.000000,0.000000,9.000000,,,,0.000000,4.000000,4.000000,4.000000,4.000000,4.000000,4.000000,4.000000,4.000000,4.000000,4.000000,4.000000,4.000000,4.000000,4.000000,100.000000,,,,,,,,,,,,,,,,,,,,,,,,,,,,,,,,,,,,,,,,,,,,,,,,,,,,,,,,,,,,,,,,,,,,,,,,,,,,,,,,,,,,,,,,,,,,,,,,,,,,,,,,,,,,,,,,,,,,,,,,,,,,,,,,,
1739356806.247368,1739356806.247671,40.000000,0.000000,4229.230957,4199.358887,4273.077148,4284.487305,4218.333496,4218.333496,4219.487305,4259.102539,4216.794922,4205.512695,4531.922852,4463.461426,4352.436035,4464.102539,0.000000,0.000000,9.000000,,,,0.000000,4.000000,4.000000,4.000000,4.000000,4.000000,4.000000,4.000000,4.000000,4.000000,4.000000,4.000000,4.000000,4.000000,4.000000,100.000000,,,,,,,,,,,,,,,,,10.000000,0.000000,0.631816,0.114075,-0.737732,0.208679,0.979123,-0.157734,-0.101087,-46.782578,-32.265717,37.009228,,,,,,,,,,,,,,,,,,,,,,,,,,,,,,,,2.723195,7.227753,1.381769,0.191643,0.138800,1.281724,4.805413,1.084996,0.232483,0.172050,2.616680,4.974525,1.205818,0.150061,0.100586,1.666256,4.338405,1.015662,0.241653,0.132464,0.491372,0.782865,0.331067,0.084305,0.068388,0.630325,1.573523,0.340073,0.126410,0.063863,1.317641,5.888033,0.780588,0.197065,0.091059,0.726141,1.153222,0.234063,0.209494,0.039658,0.805520,4.876214,0.699389,0.262101,0.091632,1.020958,5.636649,0.949794,0.239839,0.145067,2.345571,8.856278,1.010353,0.324934,0.211254,3.878580,9.570452,1.829847,0.370792,0.127406,2.270955,5.006253,0.571122,0.166089,0.096441,2.598805,7.025902,1.120605,0.252037,0.189044
1739356806.255176,1739356806.255579,41.000000,0.000000,4225.897461,4198.589844,4264.230957,4279.743652,4211.794922,4217.051270,4218.974121,4256.538574,4213.205078,4204.615234,4524.102539,4461.410156,4350.256348,4456.666504,0.000000,0.000000,9.000000,,,,0.000000,4.000000,4.000000,4.000000,4.000000,4.000000,4.000000,4.000000,4.000000,4.000000,4.000000,4.000000,4.000000,4.000000,4.000000,100.000000,,,,,,,,,,,,,,,,,,,,,,,,,,,,,,,,,,,,,,,,,,,,,,,,,,,,,,,,,,,,,,,,,,,,,,,,,,,,,,,,,,,,,,,,,,,,,,,,,,,,,,,,,,,,,,,,,,,,,,,,,,,,,,,,,
1739356806.262984,1739356806.263387,42.000000,0.000000,4227.563965,4202.692383,4270.128418,4281.282227,4211.282227,4218.077148,4220.512695,4259.871582,4208.589844,4202.051270,4522.948730,4459.230957,4354.615234,4457.692383,0.000000,0.000000,9.000000,,,,0.000000,4.000000,4.000000,4.000000,4.000000,4.000000,4.000000,4.000000,4.000000,4.000000,4.000000,4.000000,4.000000,4.000000,4.000000,100.000000,,,,,,,,,,,,,,,,,,,,,,,,,,,,,,,,,,,,,,,,,,,,,,,,,,,,,,,,,,,,,,,,,,,,,,,,,,,,,,,,,,,,,,,,,,,,,,,,,,,,,,,,,,,,,,,,,,,,,,,,,,,,,,,,,
1739356806.270793,1739356806.271294,43.000000,0.000000,4227.820313,4200.897461,4276.538574,4280.897461,4212.051270,4217.563965,4218.333496,4259.743652,4202.692383,4197.436035,4522.820313,4454.743652,4356.153809,4459.743652,0.000000,0.000000,9.000000,,,,0.000000,4.000000,4.000000,4.000000,4.000000,4.000000,4.000000,4.000000,4.000000,4.000000,4.000000,4.000000,4.000000,4.000000,4.000000,100.000000,,,,,,,,,,,,,,,,,,,,,,,,,,,,,,,,,,,,,,,,,,,,,,,,,,,,,,,,,,,,,,,,,,,,,,,,,,,,,,,,,,,,,,,,,,,,,,,,,,,,,,,,,,,,,,,,,,,,,,,,,,,,,,,,,
1739356806.278601,1739356806.279102,44.000000,0.000000,4227.051270,4199.615234,4273.846191,4279.102539,4206.922852,4217.051270,4214.615234,4258.077148,4200.512695,4198.717773,4518.589844,4454.743652,4353.333496,4457.563965,0.000000,0.000000,9.000000,,,,0.000000,4.000000,4.000000,4.000000,4.000000,4.000000,4.000000,4.000000,4.000000,4.000000,4.000000,4.000000,4.000000,4.000000,4.000000,100.000000,,,,,,,,,,,,,,,,,11.000000,0.000000,0.631939,0.114014,-0.737671,0.208557,0.971310,-0.150897,-0.105970,-46.737652,-32.339146,36.824970,,,,,,,,,,,,,,,,,,,,,,,,,,,,,,,,,,,,,,,,,,,,,,,,,,,,,,,,,,,,,,,,,,,,,,,,,,,,,,,,,,,,,,,,,,,,,,,,,,,,,
1739356806.286409,1739356806.286810,45.000000,0.000000,4229.230957,4201.025879,4275.256348,4277.179688,4207.436035,4219.102539,4216.922852,4259.615234,4206.410156,4200.128418,4519.615234,4458.333496,4354.743652,4458.205078,0.000000,0.000000,9.000000,,,,0.000000,4.000000,4.000000,4.000000,4.000000,4.000000,4.000000,4.000000,4.000000,4.000000,4.000000,4.000000,4.000000,4.000000,4.000000,100.000000,,,,,,,,,,,,,,,,,,,,,,,,,,,,,,,,,,,,,,,,,,,,,,,,,,,,,,,,,,,,,,,,,,,,,,,,,,,,,,,,,,,,,,,,,,,,,,,,,,,,,,,,,,,,,,,,,,,,,,,,,,,,,,,,,
1739356806.294217,1739356806.294618,46.000000,0.000000,4234.615234,4204.743652,4280.512695,4279.487305,4214.230957,4217.948730,4215.256348,4260.512695,4213.205078,4196.153809,4528.974121,4467.436035,4366.666504,4465.897461,0.000000,0.000000,9.000000,,,,0.000000,4.000000,4.000000,4.000000,4.000000,4.000000,4.000000,4.000000,4.000000,4.000000,4.000000,4.000000,4.000000,4.000000,4.000000,100.000000,,,,,,,,,,,,,,,,,,,,,,,,,,,,,,,,,,,,,,,,,,,,,,,,,,,,,,,,,,,,,,,,,,,,,,,,,,,,,,,,,,,,,,,,,,,,,,,,,,,,,,,,,,,,,,,,,,,,,,,,,,,,,,,,,
1739356806.302025,1739356806.302326,47.000000,0.000000,4240.769043,4214.230957,4284.487305,4287.051270,4217.692383,4216.666504,4204.487305,4260.256348,4215.128418,4199.358887,4533.846191,4480.000000,4374.102539,4473.205078,0.000000,0.000000,9.000000,,,,0.000000,4.000000,4.000000,4.000000,4.000000,4.000000,4.000000,4.000000,4.000000,4.000000,4.000000,4.000000,4.000000,4.000000,4.000000,100.000000,,,,,,,,,,,,,,,,,,,,,,,,,,,,,,,,,,,,,,,,,,,,,,,,,,,,,,,,,,,,,,,,,,,,,,,,,,,,,,,,,,,,,,,,,,,,,,,,,,,,,,,,,,,,,,,,,,,,,,,,,,,,,,,,,
1739356806.309833,1739356806.310134,48.000000,0.000000,4252.436035,4228.589844,4296.410156,4297.692383,4221.410156,4222.051270,4203.077148,4261.410156,4222.563965,4217.692383,4540.384766,4495.128418,4377.948730,4481.410156,0.000000,0.000000,9.000000,,,,0.000000,4.000000,4.000000,4.000000,4.000000,4.000000,4.000000,4.000000,4.000000,4.000000,4.000000,4.000000,4.000000,4.000000,4.000000,100.000000,,,,,,,,,,,,,,,,,12.000000,0.000000,0.632087,0.114258,-0.737610,0.208191,0.982542,-0.129410,-0.107435,-46.847221,-32.221897,36.892475,,,,,,,,,,,,,,,,,,,,,,,,,,,,,,,,,,,,,,,,,,,,,,,,,,,,,,,,,,,,,,,,,,,,,,,,,,,,,,,,,,,,,,,,,,,,,,,,,,,,,
1739356806.317641,1739356806.317843,49.000000,0.000000,4266.794922,4238.717773,4313.717773,4307.563965,4231.282227,4228.974121,4215.384766,4265.128418,4242.051270,4235.256348,4557.436035,4511.410156,4391.282227,4492.436035,0.000000,0.000000,9.000000,,,,0.000000,4.000000,4.000000,4.000000,4.000000,4.000000,4.000000,4.000000,4.000000,4.000000,4.000000,4.000000,4.000000,4.000000,4.000000,100.000000,,,,,,,,,,,,,,,,,,,,,,,,,,,,,,,,,,,,,,,,,,,,,,,,,,,,,,,,,,,,,,,,,,,,,,,,,,,,,,,,,,,,,,,,,,,,,,,,,,,,,,,,,,,,,,,,,,,,,,,,,,,,,,,,,
1739356806.325449,1739356806.325651,50.000000,0.000000,4272.179688,4239.230957,4320.512695,4310.897461,4234.743652,4232.307617,4229.871582,4269.102539,4252.179688,4240.512695,4564.230957,4518.205078,4395.256348,4493.589844,0.000000,0.000000,9.000000,,,,0.000000,4.000000,4.000000,4.000000,4.000000,4.000000,4.000000,4.000000,4.000000,4.000000,4.000000,4.000000,4.000000,4.000000,4.000000,100.000000,,,,,,,,,,,,,,,,,,,,,,,,,,,,,,,,,,,,,,,,,,,,,,,,,,,,,,,,,,,,,,,,,,,,,,,,,,,,,,,,,,,,,,,,,,,,,,,,,,,,,,,,,,,,,,,,,,,,,,,,,,,,,,,,,
1739356806.333257,1739356806.333359,51.000000,0.000000,4261.538574,4232.179688,4313.717773,4301.666504,4231.666504,4238.846191,4243.589844,4269.487305,4242.948730,4233.205078,4550.641113,4510.897461,4380.897461,4480.256348,0.000000,0.000000,9.000000,,,,0.000000,4.000000,4.000000,4.000000,4.000000,4.000000,4.000000,4.000000,4.000000,4.000000,4.000000,4.000000,4.000000,4.000000,4.000000,100.000000,,,,,,,,,,,,,,,,,,,,,,,,,,,,,,,,,,,,,,,,,,,,,,,,,,,,,,,,,,,,,,,,,,,,,,,,,,,,,,,,,,,,,,,,,,,,,,,,,,,,,,,,,,,,,,,,,,,,,,,,,,,,,,,,,
1739356806.341065,1739356806.341167,52.000000,0.000000,4247.692383,4219.615234,4300.769043,4285.128418,4231.153809,4249.230957,4249.743652,4266.666504,4232.051270,4221.538574,4536.153809,4499.358887,4370.897461,4466.282227,0.000000,0.000000,9.000000,,,,0.000000,4.000000,4.000000,4.000000,4.000000,4.000000,4.000000,4.000000,4.000000,4.000000,4.000000,4.000000,4.000000,4.000000,4.000000,100.000000,,,,,,,,,,,,,,,,,13.000000,0.000000,0.632356,0.114502,-0.737427,0.207886,0.972287,-0.144549,-0.105482,-46.729164,-32.149708,36.953228,,,,,,,,,,,,,,,,,,,,,,,,,,,,,,,,,,,,,,,,,,,,,,,,,,,,,,,,,,,,,,,,,,,,,,,,,,,,,,,,,,,,,,,,,,,,,,,,,,,,,
1739356806.348873,1739356806.348875,53.000000,0.000000,4241.025879,4211.282227,4294.487305,4278.333496,4233.077148,4251.794922,4251.410156,4264.871582,4230.641113,4215.769043,4531.153809,4492.436035,4373.461426,4458.461426,0.000000,0.000000,9.000000,,,,0.000000,4.000000,4.000000,4.000000,4.000000,4.000000,4.000000,4.000000,4.000000,4.000000,4.000000,4.000000,4.000000,4.000000,4.000000,100.000000,,,,,,,,,,,,,,,,,,,,,,,,,,,,,,,,,,,,,,,,,,,,,,,,,,,,,,,,,,,,,,,,,,,,,,,,,,,,,,,,,,,,,,,,,,,,,,,,,,,,,,,,,,,,,,,,,,,,,,,,,,,,,,,,,
1739356806.356681,1739356806.356783,54.000000,0.000000,4237.051270,4211.025879,4298.077148,4276.666504,4232.820313,4249.230957,4255.384766,4266.282227,4231.538574,4210.384766,4532.436035,4490.256348,4377.563965,4454.615234,0.000000,0.000000,9.000000,,,,0.000000,4.000000,4.000000,4.000000,4.000000,4.000000,4.000000,4.000000,4.000000,4.000000,4.000000,4.000000,4.000000,4.000000,4.000000,100.000000,,,,,,,,,,,,,,,,,,,,,,,,,,,,,,,,,,,,,,,,,,,,,,,,,,,,,,,,,,,,,,,,,,,,,,,,,,,,,,,,,,,,,,,,,,,,,,,,,,,,,,,,,,,,,,,,,,,,,,,,,,,,,,,,,
1739356806.364489,1739356806.364591,55.000000,0.000000,4235.128418,4212.307617,4303.077148,4273.717773,4231.922852,4253.077148,4256.666504,4265.897461,4227.948730,4205.897461,4530.641113,4494.487305,4380.512695,4454.358887,0.000000,0.000000,9.000000,,,,0.000000,4.000000,4.000000,4.000000,4.000000,4.000000,4.000000,4.000000,4.000000,4.000000,4.000000,4.000000,4.000000,4.000000,4.000000,100.000000,,,,,,,,,,,,,,,,,,,,,,,,,,,,,,,,,,,,,,,,,,,,,,,,,,,,,,,,,,,,,,,,,,,,,,,,,,,,,,,,,,,,,,,,,,,,,,,,,,,,,,,,,,,,,,,,,,,,,,,,,,,,,,,,,
1739356806.372298,1739356806.372499,56.000000,0.000000,4245.641113,4221.538574,4313.333496,4281.538574,4239.487305,4260.256348,4253.589844,4264.487305,4226.153809,4208.974121,4531.794922,4506.666504,4389.871582,4458.077148,0.000000,0.000000,9.000000,,,,0.000000,4.000000,4.000000,4.000000,4.000000,4.000000,4.000000,4.000000,4.000000,4.000000,4.000000,4.000000,4.000000,4.000000,4.000000,100.000000,,,,,,,,,,,,,,,,,14.000000,0.000000,0.632621,0.114502,-0.737183,0.207947,0.986449,-0.142107,-0.102063,-46.622913,-32.084736,36.874569,,,,,,,,,,,,,,,,,,,,,,,,,,,,,,,,2.527121,7.812345,1.326564,0.176236,0.124236,1.272087,5.043020,1.016648,0.243559,0.150987,2.432940,5.452922,1.298264,0.148901,0.091242,1.725465,4.544899,1.021295,0.235631,0.115878,0.575164,0.735344,0.310005,0.071012,0.065708,0.813958,1.902053,0.390455,0.128350,0.068155,1.590927,6.726460,0.950241,0.219909,0.088435,0.704126,1.356005,0.217789,0.190689,0.040534,0.898324,6.001980,0.752908,0.225425,0.081393,1.057323,6.400674,0.844595,0.250064,0.148656,2.031919,9.710141,0.950322,0.338433,0.192127,3.857727,10.827394,1.884294,0.322457,0.112452,2.238189,5.514176,0.586998,0.160873,0.090160,2.591326,7.613411,1.174577,0.244195,0.170725
1739356806.380106,1739356806.380307,57.000000,0.000000,4265.897461,4241.666504,4325.000000,4297.307617,4250.256348,4264.358887,4253.846191,4266.410156,4230.512695,4218.974121,4544.487305,4518.846191,4404.358887,4468.333496,0.000000,0.000000,9.000000,,,,0.000000,4.000000,4.000000,4.000000,4.000000,4.000000,4.000000,4.000000,4.000000,4.000000,4.000000,4.000000,4.000000,4.000000,4.000000,100.000000,,,,,,,,,,,,,,,,,,,,,,,,,,,,,,,,,,,,,,,,,,,,,,,,,,,,,,,,,,,,,,,,,,,,,,,,,,,,,,,,,,,,,,,,,,,,,,,,,,,,,,,,,,,,,,,,,,,,,,,,,,,,,,,,,
1739356806.387914,1739356806.388215,58.000000,0.000000,4277.563965,4251.410156,4328.589844,4299.871582,4253.333496,4263.717773,4250.769043,4267.179688,4235.769043,4222.948730,4550.641113,4527.179688,4410.000000,4476.666504,0.000000,0.000000,9.000000,,,,0.000000,4.000000,4.000000,4.000000,4.000000,4.000000,4.000000,4.000000,4.000000,4.000000,4.000000,4.000000,4.000000,4.000000,4.000000,100.000000,,,,,,,,,,,,,,,,,,,,,,,,,,,,,,,,,,,,,,,,,,,,,,,,,,,,,,,,,,,,,,,,,,,,,,,,,,,,,,,,,,,,,,,,,,,,,,,,,,,,,,,,,,,,,,,,,,,,,,,,,,,,,,,,,
1739356806.395722,1739356806.396024,59.000000,0.000000,4280.384766,4249.615234,4330.512695,4292.692383,4257.051270,4262.307617,4246.922852,4269.358887,4245.384766,4230.512695,4551.666504,4535.769043,4412.820313,4476.282227,0.000000,0.000000,9.000000,,,,0.000000,4.000000,4.000000,4.000000,4.000000,4.000000,4.000000,4.000000,4.000000,4.000000,4.000000,4.000000,4.000000,4.000000,4.000000,100.000000,,,,,,,,,,,,,,,,,,,,,,,,,,,,,,,,,,,,,,,,,,,,,,,,,,,,,,,,,,,,,,,,,,,,,,,,,,,,,,,,,,,,,,,,,,,,,,,,,,,,,,,,,,,,,,,,,,,,,,,,,,,,,,,,,
1739356806.403530,1739356806.403832,60.000000,0.000000,4281.922852,4256.922852,4334.871582,4294.102539,4262.820313,4265.512695,4250.256348,4274.230957,4261.538574,4246.410156,4558.846191,4541.666504,4423.205078,4476.538574,0.000000,0.000000,9.000000,,,,0.000000,4.000000,4.000000,4.000000,4.000000,4.000000,4.000000,4.000000,4.000000,4.000000,4.000000,4.000000,4.000000,4.000000,4.000000,100.000000,,,,,,,,,,,,,,,,,15.000000,0.000000,0.632765,0.114380,-0.737061,0.208008,0.974728,-0.157246,-0.101575,-46.660625,-31.942930,36.887115,,,,,,,,,,,,,,,,,,,,,,,,,,,,,,,,,,,,,,,,,,,,,,,,,,,,,,,,,,,,,,,,,,,,,,,,,,,,,,,,,,,,,,,,,,,,,,,,,,,,,
1739356806.411338,1739356806.411540,61.000000,0.000000,4282.307617,4267.436035,4333.717773,4292.179688,4261.282227,4271.922852,4255.897461,4278.333496,4273.461426,4252.820313,4561.410156,4539.743652,4428.333496,4477.692383,0.000000,0.000000,9.000000,,,,0.000000,4.000000,4.000000,4.000000,4.000000,4.000000,4.000000,4.000000,4.000000,4.000000,4.000000,4.000000,4.000000,4.000000,4.000000,100.000000,,,,,,,,,,,,,,,,,,,,,,,,,,,,,,,,,,,,,,,,,,,,,,,,,,,,,,,,,,,,,,,,,,,,,,,,,,,,,,,,,,,,,,,,,,,,,,,,,,,,,,,,,,,,,,,,,,,,,,,,,,,,,,,,,
1739356806.419146,1739356806.419448,62.000000,0.000000,4281.538574,4258.589844,4336.153809,4280.897461,4263.077148,4280.512695,4269.487305,4282.436035,4283.205078,4257.179688,4558.077148,4545.769043,4428.205078,4477.179688,0.000000,0.000000,9.000000,,,,0.000000,4.000000,4.000000,4.000000,4.000000,4.000000,4.000000,4.000000,4.000000,4.000000,4.000000,4.000000,4.000000,4.000000,4.000000,100.000000,,,,,,,,,,,,,,,,,,,,,,,,,,,,,,,,,,,,,,,,,,,,,,,,,,,,,,,,,,,,,,,,,,,,,,,,,,,,,,,,,,,,,,,,,,,,,,,,,,,,,,,,,,,,,,,,,,,,,,,,,,,,,,,,,
1739356806.426954,1739356806.427256,63.000000,0.000000,4280.000000,4249.230957,4344.615234,4275.384766,4273.077148,4293.461426,4287.692383,4283.846191,4290.384766,4265.512695,4559.871582,4558.077148,4433.717773,4477.692383,0.000000,0.000000,9.000000,,,,0.000000,4.000000,4.000000,4.000000,4.000000,4.000000,4.000000,4.000000,4.000000,4.000000,4.000000,4.000000,4.000000,4.000000,4.000000,100.000000,,,,,,,,,,,,,,,,,,,,,,,,,,,,,,,,,,,,,,,,,,,,,,,,,,,,,,,,,,,,,,,,,,,,,,,,,,,,,,,,,,,,,,,,,,,,,,,,,,,,,,,,,,,,,,,,,,,,,,,,,,,,,,,,,
1739356806.434762,1739356806.435164,64.000000,0.000000,4280.769043,4262.692383,4347.563965,4276.282227,4277.692383,4305.641113,4296.538574,4277.948730,4283.333496,4263.461426,4555.512695,4559.358887,4430.512695,4475.000000,4956.000000,0.000000,9.000000,,,,0.000000,4.000000,4.000000,4.000000,4.000000,4.000000,4.000000,4.000000,4.000000,4.000000,4.000000,4.000000,4.000000,4.000000,4.000000,100.000000,,,,,,,,,,,,,,,,,16.000000,0.000000,0.632798,0.114197,-0.737061,0.208008,0.974240,-0.148456,-0.100110,-46.694561,-31.981970,36.781734,,,,,,,,,,,,,,,,,,,,,,,,,,,,,,,,,,,,,,,,,,,,,,,,,,,,,,,,,,,,,,,,,,,,,,,,,,,,,,,,,,,,,,,,,,,,,,,,,,,,,
1739356806.442570,1739356806.442972,65.000000,0.000000,4285.384766,4280.384766,4351.282227,4275.000000,4281.538574,4310.641113,4302.563965,4276.410156,4272.307617,4254.487305,4542.179688,4561.282227,4422.692383,4470.897461,5589.000000,0.000000,9.000000,,,,0.000000,4.000000,4.000000,4.000000,4.000000,4.000000,4.000000,4.000000,4.000000,4.000000,4.000000,4.000000,4.000000,4.000000,4.000000,100.000000,,,,,,,,,,,,,,,,,,,,,,,,,,,,,,,,,,,,,,,,,,,,,,,,,,,,,,,,,,,,,,,,,,,,,,,,,,,,,,,,,,,,,,,,,,,,,,,,,,,,,,,,,,,,,,,,,,,,,,,,,,,,,,,,,
1739356806.450378,1739356806.450880,66.000000,0.000000,4294.871582,4283.589844,4363.717773,4274.230957,4290.897461,4314.487305,4307.948730,4281.922852,4274.358887,4258.461426,4540.256348,4572.179688,4432.051270,4475.256348,5599.000000,0.000000,9.000000,,,,0.000000,4.000000,4.000000,4.000000,4.000000,4.000000,4.000000,4.000000,4.000000,4.000000,4.000000,4.000000,4.000000,4.000000,4.000000,100.000000,,,,,,,,,,,,,,,,,,,,,,,,,,,,,,,,,,,,,,,,,,,,,,,,,,,,,,,,,,,,,,,,,,,,,,,,,,,,,,,,,,,,,,,,,,,,,,,,,,,,,,,,,,,,,,,,,,,,,,,,,,,,,,,,,
1739356806.458187,1739356806.458688,67.000000,0.000000,4303.205078,4285.769043,4373.205078,4278.717773,4297.820313,4323.077148,4311.794922,4285.256348,4284.230957,4270.384766,4546.025879,4582.563965,4442.948730,4486.538574,5539.000000,0.000000,9.000000,,,,0.000000,4.000000,4.000000,4.000000,4.000000,4.000000,4.000000,4.000000,4.000000,4.000000,4.000000,4.000000,4.000000,4.000000,4.000000,100.000000,,,,,,,,,,,,,,,,,,,,,,,,,,,,,,,,,,,,,,,,,,,,,,,,,,,,,,,,,,,,,,,,,,,,,,,,,,,,,,,,,,,,,,,,,,,,,,,,,,,,,,,,,,,,,,,,,,,,,,,,,,,,,,,,,
1739356806.465994,1739356806.466596,68.000000,0.000000,4307.563965,4296.666504,4378.333496,4281.794922,4298.717773,4328.846191,4316.794922,4285.256348,4292.948730,4279.102539,4547.307617,4593.333496,4443.077148,4491.153809,5519.000000,0.000000,9.000000,,,,0.000000,4.000000,4.000000,4.000000,4.000000,4.000000,4.000000,4.000000,4.000000,4.000000,4.000000,4.000000,4.000000,4.000000,4.000000,100.000000,,,,,,,,,,,,,,,,,17.000000,0.000000,0.632915,0.113831,-0.737000,0.208069,0.983518,-0.135759,-0.099133,-46.608440,-31.833773,36.820229,,,,,,,,,,,,,,,,,,,,,,,,,,,,,,,,,,,,,,,,,,,,,,,,,,,,,,,,,,,,,,,,,,,,,,,,,,,,,,,,,,,,,,,,,,,,,,,,,,,,,
1739356806.473803,1739356806.474404,69.000000,0.000000,4315.128418,4303.461426,4389.743652,4282.051270,4301.794922,4326.794922,4317.051270,4290.000000,4302.307617,4290.256348,4550.000000,4609.487305,4447.948730,4493.333496,5474.000000,0.000000,9.000000,,,,0.000000,4.000000,4.000000,4.000000,4.000000,4.000000,4.000000,4.000000,4.000000,4.000000,4.000000,4.000000,4.000000,4.000000,4.000000,100.000000,,,,,,,,,,,,,,,,,,,,,,,,,,,,,,,,,,,,,,,,,,,,,,,,,,,,,,,,,,,,,,,,,,,,,,,,,,,,,,,,,,,,,,,,,,,,,,,,,,,,,,,,,,,,,,,,,,,,,,,,,,,,,,,,,
1739356806.481611,1739356806.482312,70.000000,0.000000,4323.974121,4304.230957,4397.692383,4280.641113,4306.025879,4323.589844,4311.282227,4298.333496,4310.256348,4297.179688,4551.666504,4619.615234,4460.256348,4498.333496,5462.000000,0.000000,9.000000,,,,0.000000,4.000000,4.000000,4.000000,4.000000,4.000000,4.000000,4.000000,4.000000,4.000000,4.000000,4.000000,4.000000,4.000000,4.000000,100.000000,,,,,,,,,,,,,,,,,,,,,,,,,,,,,,,,,,,,,,,,,,,,,,,,,,,,,,,,,,,,,,,,,,,,,,,,,,,,,,,,,,,,,,,,,,,,,,,,,,,,,,,,,,,,,,,,,,,,,,,,,,,,,,,,,
1739356806.489419,1739356806.490120,71.000000,0.000000,4325.769043,4310.000000,4395.512695,4276.538574,4305.769043,4327.563965,4312.051270,4299.615234,4319.358887,4300.128418,4547.436035,4619.230957,4463.974121,4498.333496,2059.000000,0.000000,9.000000,,,,0.000000,4.000000,4.000000,4.000000,4.000000,4.000000,4.000000,4.000000,4.000000,4.000000,4.000000,4.000000,4.000000,4.000000,4.000000,100.000000,,,,,,,,,,,,,,,,,,,,,,,,,,,,,,,,,,,,,,,,,,,,,,,,,,,,,,,,,,,,,,,,,,,,,,,,,,,,,,,,,,,,,,,,,,,,,,,,,,,,,,,,,,,,,,,,,,,,,,,,,,,,,,,,,
1739356806.497227,1739356806.497828,72.000000,0.000000,4329.871582,4322.563965,4401.153809,4279.102539,4308.974121,4337.307617,4319.615234,4297.179688,4328.461426,4304.615234,4543.717773,4623.846191,4460.000000,4501.538574,5270.000000,0.000000,9.000000,,,,0.000000,4.000000,4.000000,4.000000,4.000000,4.000000,4.000000,4.000000,4.000000,4.000000,4.000000,4.000000,4.000000,4.000000,4.000000,100.000000,1.000000,100.000000,4.000000,4.000000,4.000000,4.000000,4.000000,4.000000,4.000000,4.000000,4.000000,4.000000,4.000000,4.000000,4.000000,4.000000,18.000000,0.000000,0.632915,0.113831,-0.737000,0.208069,0.975705,-0.151874,-0.105970,-46.630928,-31.917063,36.904873,,,,,,,,,,,,,,,,,,,,,,,,,,,,,,,,2.163788,7.621438,1.235116,0.167964,0.112990,1.230438,4.820161,0.967474,0.244343,0.128855,2.055707,5.487381,1.349691,0.154699,0.084712,1.798299,4.396667,0.992813,0.237959,0.100251,0.648749,0.728503,0.284978,0.064307,0.067713,0.993191,2.118995,0.409542,0.129281,0.073405,1.785948,6.948558,1.033542,0.228545,0.083218,0.608890,1.429673,0.200530,0.157858,0.040371,0.918644,6.541898,0.751803,0.191176,0.070909,1.047430,6.516249,0.732296,0.272238,0.151428,1.710100,9.598901,0.866884,0.348535,0.175510,3.532462,11.119388,1.883232,0.283222,0.102233,2.019027,5.503162,0.613053,0.154465,0.089156,2.391472,7.455101,1.211794,0.238711,0.154794
1739356806.505035,1739356806.505636,73.000000,0.000000,4340.000000,4329.871582,4413.077148,4287.051270,4318.077148,4342.307617,4323.461426,4299.615234,4329.230957,4307.179688,4544.358887,4631.410156,4461.153809,4505.000000,5611.000000,0.000000,9.000000,,,,0.000000,4.000000,4.000000,4.000000,4.000000,4.000000,4.000000,4.000000,4.000000,4.000000,4.000000,4.000000,4.000000,4.000000,4.000000,100.000000,,,,,,,,,,,,,,,,,,,,,,,,,,,,,,,,,,,,,,,,,,,,,,,,,,,,,,,,,,,,,,,,,,,,,,,,,,,,,,,,,,,,,,,,,,,,,,,,,,,,,,,,,,,,,,,,,,,,,,,,,,,,,,,,,
1739356806.512843,1739356806.513344,74.000000,0.000000,4337.948730,4325.512695,4413.077148,4282.820313,4323.205078,4345.384766,4326.538574,4300.641113,4325.897461,4307.563965,4540.512695,4631.410156,4461.282227,4499.871582,4841.000000,0.000000,9.000000,,,,0.000000,4.000000,4.000000,4.000000,4.000000,4.000000,4.000000,4.000000,4.000000,4.000000,4.000000,4.000000,4.000000,4.000000,4.000000,100.000000,,,,,,,,,,,,,,,,,,,,,,,,,,,,,,,,,,,,,,,,,,,,,,,,,,,,,,,,,,,,,,,,,,,,,,,,,,,,,,,,,,,,,,,,,,,,,,,,,,,,,,,,,,,,,,,,,,,,,,,,,,,,,,,,,
1739356806.520651,1739356806.521152,75.000000,0.000000,4329.871582,4321.153809,4408.461426,4275.641113,4324.871582,4356.025879,4337.436035,4298.461426,4327.179688,4310.897461,4531.922852,4630.769043,4457.563965,4497.307617,5627.000000,0.000000,9.000000,,,,0.000000,4.000000,4.000000,4.000000,4.000000,4.000000,4.000000,4.000000,4.000000,4.000000,4.000000,4.000000,4.000000,4.000000,4.000000,100.000000,,,,,,,,,,,,,,,,,,,,,,,,,,,,,,,,,,,,,,,,,,,,,,,,,,,,,,,,,,,,,,,,,,,,,,,,,,,,,,,,,,,,,,,,,,,,,,,,,,,,,,,,,,,,,,,,,,,,,,,,,,,,,,,,,
1739356806.528459,1739356806.528860,76.000000,0.000000,4334.230957,4321.794922,4414.102539,4276.538574,4329.743652,4370.128418,4354.358887,4298.205078,4333.205078,4310.641113,4528.717773,4636.538574,4457.179688,4499.615234,5704.000000,0.000000,9.000000,,,,0.000000,4.000000,4.000000,4.000000,4.000000,4.000000,4.000000,4.000000,4.000000,4.000000,4.000000,4.000000,4.000000,4.000000,4.000000,100.000000,,,,,,,,,,,,,,,,,19.000000,0.000000,0.633077,0.113831,-0.736877,0.208008,0.982542,-0.144061,-0.105482,-46.651169,-32.025356,37.014385,,,,,,,,,,,,,,,,,,,,,,,,,,,,,,,,,,,,,,,,,,,,,,,,,,,,,,,,,,,,,,,,,,,,,,,,,,,,,,,,,,,,,,,,,,,,,,,,,,,,,
1739356806.536267,1739356806.536668,77.000000,0.000000,4340.384766,4323.846191,4421.410156,4269.615234,4337.436035,4378.589844,4368.589844,4301.153809,4336.282227,4307.692383,4526.410156,4641.410156,4459.102539,4498.717773,6452.000000,0.000000,9.000000,,,,0.000000,4.000000,4.000000,4.000000,4.000000,4.000000,4.000000,4.000000,4.000000,4.000000,4.000000,4.000000,4.000000,4.000000,4.000000,100.000000,,,,,,,,,,,,,,,,,,,,,,,,,,,,,,,,,,,,,,,,,,,,,,,,,,,,,,,,,,,,,,,,,,,,,,,,,,,,,,,,,,,,,,,,,,,,,,,,,,,,,,,,,,,,,,,,,,,,,,,,,,,,,,,,,
1739356806.544075,1739356806.544376,78.000000,0.000000,4342.948730,4325.512695,4425.256348,4262.948730,4344.615234,4384.743652,4374.743652,4305.384766,4338.589844,4315.384766,4525.000000,4647.436035,4460.000000,4500.384766,4841.000000,0.000000,9.000000,,,,0.000000,4.000000,4.000000,4.000000,4.000000,4.000000,4.000000,4.000000,4.000000,4.000000,4.000000,4.000000,4.000000,4.000000,4.000000,100.000000,,,,,,,,,,,,,,,,,,,,,,,,,,,,,,,,,,,,,,,,,,,,,,,,,,,,,,,,,,,,,,,,,,,,,,,,,,,,,,,,,,,,,,,,,,,,,,,,,,,,,,,,,,,,,,,,,,,,,,,,,,,,,,,,,
1739356806.551883,1739356806.552184,79.000000,0.000000,4346.538574,4328.205078,4431.153809,4271.153809,4353.589844,4393.589844,4383.077148,4311.025879,4348.333496,4325.256348,4523.461426,4658.461426,4460.128418,4508.974121,5627.000000,0.000000,9.000000,,,,0.000000,4.000000,4.000000,4.000000,4.000000,4.000000,4.000000,4.000000,4.000000,4.000000,4.000000,4.000000,4.000000,4.000000,4.000000,100.000000,,,,,,,,,,,,,,,,,,,,,,,,,,,,,,,,,,,,,,,,,,,,,,,,,,,,,,,,,,,,,,,,,,,,,,,,,,,,,,,,,,,,,,,,,,,,,,,,,,,,,,,,,,,,,,,,,,,,,,,,,,,,,,,,,
1739356806.559692,1739356806.559892,80.000000,0.000000,4350.641113,4333.333496,4441.153809,4277.436035,4362.307617,4405.000000,4395.000000,4313.333496,4358.205078,4328.846191,4517.948730,4667.436035,4464.487305,4513.974121,5704.000000,0.000000,9.000000,,,,0.000000,4.000000,4.000000,4.000000,4.000000,4.000000,4.000000,4.000000,4.000000,4.000000,4.000000,4.000000,4.000000,4.000000,4.000000,100.000000,,,,,,,,,,,,,,,,,20.000000,0.000000,0.633199,0.113831,-0.736755,0.208069,0.988890,-0.149432,-0.099622,-46.702717,-31.872820,37.112946,,,,,,,,,,,,,,,,,,,,,,,,,,,,,,,,,,,,,,,,,,,,,,,,,,,,,,,,,,,,,,,,,,,,,,,,,,,,,,,,,,,,,,,,,,,,,,,,,,,,,
1739356806.567500,1739356806.567700,81.000000,0.000000,4362.820313,4342.436035,4453.717773,4275.000000,4367.179688,4412.051270,4398.205078,4314.102539,4364.230957,4337.820313,4519.358887,4679.871582,4478.461426,4523.333496,6452.000000,0.000000,9.000000,,,,0.000000,4.000000,4.000000,4.000000,4.000000,4.000000,4.000000,4.000000,4.000000,4.000000,4.000000,4.000000,4.000000,4.000000,4.000000,100.000000,,,,,,,,,,,,,,,,,,,,,,,,,,,,,,,,,,,,,,,,,,,,,,,,,,,,,,,,,,,,,,,,,,,,,,,,,,,,,,,,,,,,,,,,,,,,,,,,,,,,,,,,,,,,,,,,,,,,,,,,,,,,,,,,,
1739356806.575308,1739356806.575408,82.000000,0.000000,4379.743652,4352.563965,4464.871582,4276.025879,4370.641113,4409.230957,4393.205078,4317.563965,4372.692383,4351.922852,4530.897461,4697.563965,4496.794922,4537.179688,4841.000000,0.000000,9.000000,,,,0.000000,4.000000,4.000000,4.000000,4.000000,4.000000,4.000000,4.000000,4.000000,4.000000,4.000000,4.000000,4.000000,4.000000,4.000000,100.000000,,,,,,,,,,,,,,,,,,,,,,,,,,,,,,,,,,,,,,,,,,,,,,,,,,,,,,,,,,,,,,,,,,,,,,,,,,,,,,,,,,,,,,,,,,,,,,,,,,,,,,,,,,,,,,,,,,,,,,,,,,,,,,,,,
1739356806.583116,1739356806.583316,83.000000,0.000000,4387.563965,4360.641113,4477.436035,4279.358887,4374.871582,4412.051270,4397.948730,4323.461426,4381.794922,4361.794922,4537.820313,4712.051270,4505.128418,4540.128418,5627.000000,0.000000,9.000000,,,,0.000000,4.000000,4.000000,4.000000,4.000000,4.000000,4.000000,4.000000,4.000000,4.000000,4.000000,4.000000,4.000000,4.000000,4.000000,100.000000,,,,,,,,,,,,,,,,,,,,,,,,,,,,,,,,,,,,,,,,,,,,,,,,,,,,,,,,,,,,,,,,,,,,,,,,,,,,,,,,,,,,,,,,,,,,,,,,,,,,,,,,,,,,,,,,,,,,,,,,,,,,,,,,,
1739356806.590924,1739356806.591125,84.000000,0.000000,4397.692383,4371.666504,4496.153809,4286.666504,4384.102539,4424.358887,4409.615234,4330.000000,4393.205078,4376.410156,4541.153809,4731.410156,4508.077148,4545.641113,5704.000000,0.000000,9.000000,,,,0.000000,4.000000,4.000000,4.000000,4.000000,4.000000,4.000000,4.000000,4.000000,4.000000,4.000000,4.000000,4.000000,4.000000,4.000000,100.000000,,,,,,,,,,,,,,,,,21.000000,0.000000,0.633409,0.114075,-0.736572,0.207947,0.971798,-0.144549,-0.095226,-46.615780,-31.785538,37.251652,,,,,,,,,,,,,,,,,,,,,,,,,,,,,,,,,,,,,,,,,,,,,,,,,,,,,,,,,,,,,,,,,,,,,,,,,,,,,,,,,,,,,,,,,,,,,,,,,,,,,
1739356806.598732,1739356806.598933,85.000000,0.000000,4418.717773,4386.922852,4513.846191,4299.358887,4394.743652,4427.820313,4413.461426,4334.615234,4406.025879,4396.794922,4549.487305,4755.641113,4516.538574,4561.666504,6452.000000,0.000000,9.000000,,,,0.000000,4.000000,4.000000,4.000000,4.000000,4.000000,4.000000,4.000000,4.000000,4.000000,4.000000,4.000000,4.000000,4.000000,4.000000,100.000000,,,,,,,,,,,,,,,,,,,,,,,,,,,,,,,,,,,,,,,,,,,,,,,,,,,,,,,,,,,,,,,,,,,,,,,,,,,,,,,,,,,,,,,,,,,,,,,,,,,,,,,,,,,,,,,,,,,,,,,,,,,,,,,,,
1739356806.606540,1739356806.606641,86.000000,0.000000,4430.769043,4395.897461,4524.871582,4308.333496,4402.692383,4430.641113,4416.282227,4336.794922,4414.743652,4407.948730,4550.384766,4769.871582,4523.205078,4572.948730,4841.000000,0.000000,9.000000,,,,0.000000,4.000000,4.000000,4.000000,4.000000,4.000000,4.000000,4.000000,4.000000,4.000000,4.000000,4.000000,4.000000,4.000000,4.000000,100.000000,,,,,,,,,,,,,,,,,,,,,,,,,,,,,,,,,,,,,,,,,,,,,,,,,,,,,,,,,,,,,,,,,,,,,,,,,,,,,,,,,,,,,,,,,,,,,,,,,,,,,,,,,,,,,,,,,,,,,,,,,,,,,,,,,
1739356806.614348,1739356806.614549,87.000000,0.000000,4430.128418,4397.436035,4529.871582,4310.256348,4409.871582,4446.410156,4430.897461,4340.897461,4427.307617,4411.410156,4544.358887,4774.615234,4524.615234,4576.282227,5627.000000,0.000000,9.000000,,,,0.000000,4.000000,4.000000,4.000000,4.000000,4.000000,4.000000,4.000000,4.000000,4.000000,4.000000,4.000000,4.000000,4.000000,4.000000,100.000000,,,,,,,,,,,,,,,,,,,,,,,,,,,,,,,,,,,,,,,,,,,,,,,,,,,,,,,,,,,,,,,,,,,,,,,,,,,,,,,,,,,,,,,,,,,,,,,,,,,,,,,,,,,,,,,,,,,,,,,,,,,,,,,,,
1739356806.622156,1739356806.622357,88.000000,0.000000,4426.794922,4397.948730,4527.179688,4306.025879,4419.102539,4460.512695,4448.461426,4346.025879,4444.615234,4418.974121,4536.153809,4775.256348,4523.717773,4577.948730,5704.000000,0.000000,9.000000,,,,0.000000,4.000000,4.000000,4.000000,4.000000,4.000000,4.000000,4.000000,4.000000,4.000000,4.000000,4.000000,4.000000,4.000000,4.000000,100.000000,,,,,,,,,,,,,,,,,22.000000,0.000000,0.633661,0.114075,-0.736389,0.207825,0.985960,-0.153339,-0.098157,-46.587536,-31.790318,37.293152,,,,,,,,,,,,,,,,,,,,,,,,,,,,,,,,1.715117,6.752533,1.116257,0.171345,0.108458,1.184859,4.303219,0.923664,0.236418,0.111026,1.606287,5.078610,1.339016,0.168489,0.084670,1.861145,3.998688,0.923313,0.255234,0.090280,0.696817,0.781574,0.259869,0.064218,0.073261,1.151645,2.212902,0.397727,0.129568,0.079566,1.874493,6.631455,1.008451,0.220859,0.077133,0.480268,1.369066,0.184838,0.122560,0.039059,0.851919,6.409868,0.678347,0.177950,0.063868,0.978349,6.015152,0.629315,0.303984,0.152493,1.451870,8.614098,0.783309,0.356752,0.161038,2.996449,10.385285,1.830684,0.258033,0.101126,1.674317,5.029555,0.650799,0.150527,0.093361,2.033849,6.631754,1.233115,0.235900,0.145102
1739356806.629964,1739356806.630265,89.000000,0.000000,4424.487305,4396.153809,4521.282227,4297.179688,4431.282227,4469.487305,4459.743652,4345.384766,4448.077148,4426.153809,4519.230957,4772.051270,4525.128418,4571.538574,6452.000000,0.000000,9.000000,,,,0.000000,4.000000,4.000000,4.000000,4.000000,4.000000,4.000000,4.000000,4.000000,4.000000,4.000000,4.000000,4.000000,4.000000,4.000000,100.000000,,,,,,,,,,,,,,,,,,,,,,,,,,,,,,,,,,,,,,,,,,,,,,,,,,,,,,,,,,,,,,,,,,,,,,,,,,,,,,,,,,,,,,,,,,,,,,,,,,,,,,,,,,,,,,,,,,,,,,,,,,,,,,,,,
1739356806.637772,1739356806.638073,90.000000,0.000000,4425.000000,4395.000000,4524.615234,4292.948730,4440.128418,4484.102539,4471.282227,4343.333496,4438.974121,4427.307617,4504.230957,4774.743652,4528.077148,4564.358887,4841.000000,0.000000,9.000000,,,,0.000000,4.000000,4.000000,4.000000,4.000000,4.000000,4.000000,4.000000,4.000000,4.000000,4.000000,4.000000,4.000000,4.000000,4.000000,100.000000,,,,,,,,,,,,,,,,,,,,,,,,,,,,,,,,,,,,,,,,,,,,,,,,,,,,,,,,,,,,,,,,,,,,,,,,,,,,,,,,,,,,,,,,,,,,,,,,,,,,,,,,,,,,,,,,,,,,,,,,,,,,,,,,,
1739356806.645580,1739356806.645981,91.000000,0.000000,4427.563965,4403.333496,4535.641113,4293.846191,4449.358887,4498.205078,4482.948730,4344.743652,4439.487305,4425.512695,4497.948730,4787.820313,4527.436035,4569.358887,5627.000000,0.000000,9.000000,,,,0.000000,4.000000,4.000000,4.000000,4.000000,4.000000,4.000000,4.000000,4.000000,4.000000,4.000000,4.000000,4.000000,4.000000,4.000000,100.000000,,,,,,,,,,,,,,,,,,,,,,,,,,,,,,,,,,,,,,,,,,,,,,,,,,,,,,,,,,,,,,,,,,,,,,,,,,,,,,,,,,,,,,,,,,,,,,,,,,,,,,,,,,,,,,,,,,,,,,,,,,,,,,,,,
1739356806.653388,1739356806.653789,92.000000,0.000000,4429.615234,4412.179688,4544.487305,4291.410156,4457.179688,4505.000000,4492.563965,4350.000000,4451.153809,4426.794922,4490.641113,4799.743652,4527.948730,4575.128418,5704.000000,0.000000,9.000000,,,,0.000000,4.000000,4.000000,4.000000,4.000000,4.000000,4.000000,4.000000,4.000000,4.000000,4.000000,4.000000,4.000000,4.000000,4.000000,100.000000,,,,,,,,,,,,,,,,,23.000000,0.000000,0.633783,0.114014,-0.736328,0.207703,0.982053,-0.155781,-0.089855,-46.512115,-31.877953,37.330505,,,,,,,,,,,,,,,,,,,,,,,,,,,,,,,,,,,,,,,,,,,,,,,,,,,,,,,,,,,,,,,,,,,,,,,,,,,,,,,,,,,,,,,,,,,,,,,,,,,,,
1739356806.661197,1739356806.661697,93.000000,0.000000,4435.128418,4413.974121,4550.769043,4290.128418,4460.384766,4513.077148,4501.922852,4354.743652,4458.077148,4436.538574,4487.051270,4805.000000,4531.538574,4577.179688,6452.000000,0.000000,9.000000,,,,0.000000,4.000000,4.000000,4.000000,4.000000,4.000000,4.000000,4.000000,4.000000,4.000000,4.000000,4.000000,4.000000,4.000000,4.000000,100.000000,,,,,,,,,,,,,,,,,,,,,,,,,,,,,,,,,,,,,,,,,,,,,,,,,,,,,,,,,,,,,,,,,,,,,,,,,,,,,,,,,,,,,,,,,,,,,,,,,,,,,,,,,,,,,,,,,,,,,,,,,,,,,,,,,
1739356806.669005,1739356806.669505,94.000000,0.000000,4447.436035,4418.717773,4561.282227,4291.410156,4465.769043,4519.871582,4507.692383,4357.563965,4462.948730,4451.666504,4492.307617,4813.589844,4535.512695,4584.358887,4841.000000,0.000000,9.000000,,,,0.000000,4.000000,4.000000,4.000000,4.000000,4.000000,4.000000,4.000000,4.000000,4.000000,4.000000,4.000000,4.000000,4.000000,4.000000,100.000000,,,,,,,,,,,,,,,,,,,,,,,,,,,,,,,,,,,,,,,,,,,,,,,,,,,,,,,,,,,,,,,,,,,,,,,,,,,,,,,,,,,,,,,,,,,,,,,,,,,,,,,,,,,,,,,,,,,,,,,,,,,,,,,,,
1739356806.676813,1739356806.677213,95.000000,0.000000,4457.692383,4428.974121,4572.436035,4291.538574,4475.769043,4525.256348,4511.922852,4364.358887,4477.179688,4458.461426,4491.794922,4828.974121,4541.410156,4595.512695,5627.000000,0.000000,9.000000,,,,0.000000,4.000000,4.000000,4.000000,4.000000,4.000000,4.000000,4.000000,4.000000,4.000000,4.000000,4.000000,4.000000,4.000000,4.000000,100.000000,,,,,,,,,,,,,,,,,,,,,,,,,,,,,,,,,,,,,,,,,,,,,,,,,,,,,,,,,,,,,,,,,,,,,,,,,,,,,,,,,,,,,,,,,,,,,,,,,,,,,,,,,,,,,,,,,,,,,,,,,,,,,,,,,
1739356806.684621,1739356806.685021,96.000000,0.000000,4468.717773,4438.846191,4582.051270,4299.230957,4483.589844,4531.666504,4518.974121,4371.153809,4491.794922,4464.102539,4484.102539,4842.692383,4550.769043,4605.384766,5704.000000,0.000000,9.000000,,,,0.000000,4.000000,4.000000,4.000000,4.000000,4.000000,4.000000,4.000000,4.000000,4.000000,4.000000,4.000000,4.000000,4.000000,4.000000,100.000000,,,,,,,,,,,,,,,,,24.000000,0.000000,0.633896,0.113831,-0.736328,0.207458,0.967892,-0.153339,-0.094738,-46.477570,-31.923491,37.297455,,,,,,,,,,,,,,,,,,,,,,,,,,,,,,,,,,,,,,,,,,,,,,,,,,,,,,,,,,,,,,,,,,,,,,,,,,,,,,,,,,,,,,,,,,,,,,,,,,,,,
1739356806.692429,1739356806.692729,97.000000,0.000000,4482.692383,4450.000000,4592.692383,4312.179688,4488.589844,4537.179688,4530.128418,4369.358887,4493.333496,4482.563965,4480.897461,4853.974121,4563.589844,4614.487305,6452.000000,0.000000,9.000000,,,,0.000000,4.000000,4.000000,4.000000,4.000000,4.000000,4.000000,4.000000,4.000000,4.000000,4.000000,4.000000,4.000000,4.000000,4.000000,100.000000,,,,,,,,,,,,,,,,,,,,,,,,,,,,,,,,,,,,,,,,,,,,,,,,,,,,,,,,,,,,,,,,,,,,,,,,,,,,,,,,,,,,,,,,,,,,,,,,,,,,,,,,,,,,,,,,,,,,,,,,,,,,,,,,,
1739356806.700237,1739356806.700537,98.000000,0.000000,4491.922852,4460.000000,4602.563965,4318.205078,4500.512695,4548.589844,4537.307617,4366.794922,4494.487305,4495.256348,4483.205078,4867.051270,4575.769043,4622.307617,4841.000000,0.000000,9.000000,,,,0.000000,4.000000,4.000000,4.000000,4.000000,4.000000,4.000000,4.000000,4.000000,4.000000,4.000000,4.000000,4.000000,4.000000,4.000000,100.000000,,,,,,,,,,,,,,,,,,,,,,,,,,,,,,,,,,,,,,,,,,,,,,,,,,,,,,,,,,,,,,,,,,,,,,,,,,,,,,,,,,,,,,,,,,,,,,,,,,,,,,,,,,,,,,,,,,,,,,,,,,,,,,,,,
1739356806.708045,1739356806.708245,99.000000,0.000000,4496.794922,4464.487305,4608.589844,4319.102539,4510.128418,4558.846191,4537.692383,4371.666504,4500.897461,4493.717773,4478.461426,4874.871582,4581.538574,4626.025879,5627.000000,0.000000,9.000000,,,,0.000000,4.000000,4.000000,4.000000,4.000000,4.000000,4.000000,4.000000,4.000000,4.000000,4.000000,4.000000,4.000000,4.000000,4.000000,100.000000,,,,,,,,,,,,,,,,,,,,,,,,,,,,,,,,,,,,,,,,,,,,,,,,,,,,,,,,,,,,,,,,,,,,,,,,,,,,,,,,,,,,,,,,,,,,,,,,,,,,,,,,,,,,,,,,,,,,,,,,,,,,,,,,,
1739356806.715853,1739356806.716053,100.000000,0.000000,4505.384766,4472.307617,4617.820313,4330.128418,4516.282227,4565.000000,4544.487305,4376.153809,4505.641113,4502.436035,4472.948730,4883.846191,4588.974121,4632.179688,5704.000000,0.000000,9.000000,,,,0.000000,4.000000,4.000000,4.000000,4.000000,4.000000,4.000000,4.000000,4.000000,4.000000,4.000000,4.000000,4.000000,4.000000,4.000000,100.000000,,,,,,,,,,,,,,,,,25.000000,0.000000,0.633998,0.113770,-0.736267,0.207397,0.982053,-0.137712,-0.108412,-46.529812,-31.881142,37.317707,,,,,,,,,,,,,,,,,,,,,,,,,,,,,,,,,,,,,,,,,,,,,,,,,,,,,,,,,,,,,,,,,,,,,,,,,,,,,,,,,,,,,,,,,,,,,,,,,,,,,
1739356806.723661,1739356806.723761,101.000000,0.000000,4526.538574,4496.282227,4642.179688,4353.077148,4537.692383,4582.692383,4568.333496,4380.769043,4521.410156,4527.307617,4483.717773,4912.307617,4607.051270,4651.666504,6452.000000,0.000000,9.000000,,,,0.000000,4.000000,4.000000,4.000000,4.000000,4.000000,4.000000,4.000000,4.000000,4.000000,4.000000,4.000000,4.000000,4.000000,4.000000,100.000000,,,,,,,,,,,,,,,,,,,,,,,,,,,,,,,,,,,,,,,,,,,,,,,,,,,,,,,,,,,,,,,,,,,,,,,,,,,,,,,,,,,,,,,,,,,,,,,,,,,,,,,,,,,,,,,,,,,,,,,,,,,,,,,,,
1739356806.731469,1739356806.731569,102.000000,0.000000,4552.307617,4516.153809,4669.358887,4375.000000,4564.615234,4611.410156,4597.179688,4392.563965,4544.487305,4546.153809,4491.025879,4942.948730,4621.025879,4673.974121,4841.000000,0.000000,9.000000,,,,0.000000,4.000000,4.000000,4.000000,4.000000,4.000000,4.000000,4.000000,4.000000,4.000000,4.000000,4.000000,4.000000,4.000000,4.000000,100.000000,,,,,,,,,,,,,,,,,,,,,,,,,,,,,,,,,,,,,,,,,,,,,,,,,,,,,,,,,,,,,,,,,,,,,,,,,,,,,,,,,,,,,,,,,,,,,,,,,,,,,,,,,,,,,,,,,,,,,,,,,,,,,,,,,
1739356806.739277,1739356806.739277,103.000000,0.000000,4558.461426,4515.897461,4679.487305,4379.230957,4575.128418,4628.205078,4612.051270,4400.641113,4555.256348,4551.666504,4474.358887,4954.358887,4618.717773,4678.333496,5627.000000,0.000000,9.000000,,,,0.000000,4.000000,4.000000,4.000000,4.000000,4.000000,4.000000,4.000000,4.000000,4.000000,4.000000,4.000000,4.000000,4.000000,4.000000,100.000000,,,,,,,,,,,,,,,,,,,,,,,,,,,,,,,,,,,,,,,,,,,,,,,,,,,,,,,,,,,,,,,,,,,,,,,,,,,,,,,,,,,,,,,,,,,,,,,,,,,,,,,,,,,,,,,,,,,,,,,,,,,,,,,,,
1739356806.747085,1739356806.747085,104.000000,0.000000,4544.743652,4506.282227,4673.717773,4365.000000,4572.179688,4630.641113,4621.922852,4400.128418,4559.358887,4551.538574,4451.922852,4952.820313,4610.384766,4671.410156,5704.000000,0.000000,9.000000,,,,0.000000,4.000000,4.000000,4.000000,4.000000,4.000000,4.000000,4.000000,4.000000,4.000000,4.000000,4.000000,4.000000,4.000000,4.000000,100.000000,,,,,,,,,,,,,,,,,26.000000,0.000000,0.634040,0.113708,-0.736206,0.207520,0.978635,-0.138200,-0.100598,-46.560165,-31.793028,37.219273,,,,,,,,,,,,,,,,,,,,,,,,,,,,,,,,1.266338,5.552759,1.008874,0.189675,0.110918,1.141024,3.767114,0.889963,0.229964,0.101311,1.183987,4.365239,1.276423,0.194211,0.092123,1.854152,3.557126,0.844735,0.290442,0.087712,0.692418,0.872484,0.245625,0.068955,0.079504,1.244212,2.215279,0.361687,0.129459,0.085656,1.857279,6.064164,0.881257,0.202900,0.072026,0.354482,1.211042,0.174396,0.095008,0.037069,0.724483,5.785775,0.568862,0.193605,0.062569,0.862559,5.158467,0.561111,0.337281,0.151187,1.293656,7.130617,0.721158,0.362260,0.147785,2.336952,8.911230,1.751651,0.249455,0.109264,1.270355,4.301072,0.691755,0.152282,0.100817,1.613070,5.446399,1.247813,0.235595,0.140792
1739356806.754893,1739356806.754793,105.000000,0.000000,4538.077148,4498.077148,4671.410156,4358.205078,4571.025879,4635.384766,4635.512695,4400.512695,4570.256348,4556.666504,4437.436035,4953.461426,4608.846191,4670.769043,6452.000000,0.000000,9.000000,,,,0.000000,4.000000,4.000000,4.000000,4.000000,4.000000,4.000000,4.000000,4.000000,4.000000,4.000000,4.000000,4.000000,4.000000,4.000000,100.000000,,,,,,,,,,,,,,,,,,,,,,,,,,,,,,,,,,,,,,,,,,,,,,,,,,,,,,,,,,,,,,,,,,,,,,,,,,,,,,,,,,,,,,,,,,,,,,,,,,,,,,,,,,,,,,,,,,,,,,,,,,,,,,,,,
1739356806.762702,1739356806.762601,106.000000,0.000000,4543.461426,4498.846191,4677.948730,4362.436035,4572.948730,4642.692383,4645.512695,4405.000000,4579.615234,4566.410156,4429.871582,4957.179688,4613.333496,4674.871582,4841.000000,0.000000,9.000000,,,,0.000000,4.000000,4.000000,4.000000,4.000000,4.000000,4.000000,4.000000,4.000000,4.000000,4.000000,4.000000,4.000000,4.000000,4.000000,100.000000,,,,,,,,,,,,,,,,,,,,,,,,,,,,,,,,,,,,,,,,,,,,,,,,,,,,,,,,,,,,,,,,,,,,,,,,,,,,,,,,,,,,,,,,,,,,,,,,,,,,,,,,,,,,,,,,,,,,,,,,,,,,,,,,,
1739356806.770510,1739356806.770309,107.000000,0.000000,4545.256348,4504.871582,4680.641113,4360.000000,4577.436035,4647.051270,4645.128418,4408.077148,4582.436035,4571.666504,4428.333496,4958.333496,4617.692383,4676.922852,5627.000000,0.000000,9.000000,,,,0.000000,4.000000,4.000000,4.000000,4.000000,4.000000,4.000000,4.000000,4.000000,4.000000,4.000000,4.000000,4.000000,4.000000,4.000000,100.000000,,,,,,,,,,,,,,,,,,,,,,,,,,,,,,,,,,,,,,,,,,,,,,,,,,,,,,,,,,,,,,,,,,,,,,,,,,,,,,,,,,,,,,,,,,,,,,,,,,,,,,,,,,,,,,,,,,,,,,,,,,,,,,,,,
1739356806.778318,1739356806.778217,108.000000,0.000000,4548.461426,4505.512695,4681.410156,4357.179688,4579.615234,4646.410156,4639.871582,4408.077148,4586.410156,4579.487305,4428.461426,4963.717773,4624.743652,4678.717773,5704.000000,0.000000,9.000000,,,,0.000000,4.000000,4.000000,4.000000,4.000000,4.000000,4.000000,4.000000,4.000000,4.000000,4.000000,4.000000,4.000000,4.000000,4.000000,100.000000,,,,,,,,,,,,,,,,,27.000000,0.000000,0.633931,0.113586,-0.736267,0.207703,0.976193,-0.144061,-0.094738,-46.620815,-31.880392,37.214012,,,,,,,,,,,,,,,,,,,,,,,,,,,,,,,,,,,,,,,,,,,,,,,,,,,,,,,,,,,,,,,,,,,,,,,,,,,,,,,,,,,,,,,,,,,,,,,,,,,,,
1739356806.786126,1739356806.786025,109.000000,0.000000,4558.974121,4510.000000,4689.871582,4367.692383,4581.410156,4650.256348,4641.922852,4409.230957,4588.717773,4590.769043,4426.794922,4975.641113,4636.538574,4685.256348,6452.000000,0.000000,9.000000,,,,0.000000,4.000000,4.000000,4.000000,4.000000,4.000000,4.000000,4.000000,4.000000,4.000000,4.000000,4.000000,4.000000,4.000000,4.000000,100.000000,,,,,,,,,,,,,,,,,,,,,,,,,,,,,,,,,,,,,,,,,,,,,,,,,,,,,,,,,,,,,,,,,,,,,,,,,,,,,,,,,,,,,,,,,,,,,,,,,,,,,,,,,,,,,,,,,,,,,,,,,,,,,,,,,
1739356806.793934,1739356806.793834,110.000000,0.000000,4568.717773,4522.820313,4701.282227,4382.436035,4591.794922,4659.358887,4646.922852,4413.589844,4587.820313,4592.179688,4425.256348,4986.538574,4646.153809,4695.512695,4841.000000,0.000000,9.000000,,,,0.000000,4.000000,4.000000,4.000000,4.000000,4.000000,4.000000,4.000000,4.000000,4.000000,4.000000,4.000000,4.000000,4.000000,4.000000,100.000000,,,,,,,,,,,,,,,,,,,,,,,,,,,,,,,,,,,,,,,,,,,,,,,,,,,,,,,,,,,,,,,,,,,,,,,,,,,,,,,,,,,,,,,,,,,,,,,,,,,,,,,,,,,,,,,,,,,,,,,,,,,,,,,,,
1739356806.801742,1739356806.801542,111.000000,0.000000,4574.102539,4529.102539,4708.974121,4392.692383,4603.333496,4663.974121,4647.820313,4417.307617,4587.179688,4587.051270,4425.128418,4994.358887,4647.692383,4702.563965,5627.000000,0.000000,9.000000,,,,0.000000,4.000000,4.000000,4.000000,4.000000,4.000000,4.000000,4.000000,4.000000,4.000000,4.000000,4.000000,4.000000,4.000000,4.000000,100.000000,,,,,,,,,,,,,,,,,,,,,,,,,,,,,,,,,,,,,,,,,,,,,,,,,,,,,,,,,,,,,,,,,,,,,,,,,,,,,,,,,,,,,,,,,,,,,,,,,,,,,,,,,,,,,,,,,,,,,,,,,,,,,,,,,
1739356806.809550,1739356806.809450,112.000000,0.000000,4577.948730,4529.615234,4715.128418,4398.205078,4609.358887,4670.512695,4652.563965,4417.051270,4584.487305,4589.358887,4427.948730,5002.563965,4648.717773,4705.128418,5704.000000,0.000000,9.000000,,,,0.000000,4.000000,4.000000,4.000000,4.000000,4.000000,4.000000,4.000000,4.000000,4.000000,4.000000,4.000000,4.000000,4.000000,4.000000,100.000000,,,,,,,,,,,,,,,,,28.000000,0.000000,0.634073,0.113586,-0.736145,0.207703,0.974728,-0.143572,-0.094250,-46.542068,-31.825686,37.209278,,,,,,,,,,,,,,,,,,,,,,,,,,,,,,,,,,,,,,,,,,,,,,,,,,,,,,,,,,,,,,,,,,,,,,,,,,,,,,,,,,,,,,,,,,,,,,,,,,,,,
1739356806.817358,1739356806.817258,113.000000,0.000000,4580.384766,4533.205078,4721.922852,4396.794922,4612.563965,4679.102539,4666.282227,4416.025879,4582.692383,4594.615234,4426.153809,5006.025879,4652.307617,4707.563965,6452.000000,0.000000,9.000000,,,,0.000000,4.000000,4.000000,4.000000,4.000000,4.000000,4.000000,4.000000,4.000000,4.000000,4.000000,4.000000,4.000000,4.000000,4.000000,100.000000,,,,,,,,,,,,,,,,,,,,,,,,,,,,,,,,,,,,,,,,,,,,,,,,,,,,,,,,,,,,,,,,,,,,,,,,,,,,,,,,,,,,,,,,,,,,,,,,,,,,,,,,,,,,,,,,,,,,,,,,,,,,,,,,,
1739356806.825166,1739356806.825166,114.000000,0.000000,4583.077148,4534.230957,4729.358887,4401.538574,4616.538574,4683.717773,4679.487305,4420.897461,4590.128418,4600.256348,4423.974121,5007.051270,4653.205078,4707.051270,4841.000000,0.000000,9.000000,,,,0.000000,4.000000,4.000000,4.000000,4.000000,4.000000,4.000000,4.000000,4.000000,4.000000,4.000000,4.000000,4.000000,4.000000,4.000000,100.000000,,,,,,,,,,,,,,,,,,,,,,,,,,,,,,,,,,,,,,,,,,,,,,,,,,,,,,,,,,,,,,,,,,,,,,,,,,,,,,,,,,,,,,,,,,,,,,,,,,,,,,,,,,,,,,,,,,,,,,,,,,,,,,,,,
1739356806.832974,1739356806.832974,115.000000,0.000000,4586.922852,4534.487305,4734.487305,4412.436035,4619.230957,4693.461426,4688.717773,4427.820313,4605.512695,4615.128418,4433.974121,5017.179688,4653.461426,4702.307617,5627.000000,0.000000,9.000000,,,,0.000000,4.000000,4.000000,4.000000,4.000000,4.000000,4.000000,4.000000,4.000000,4.000000,4.000000,4.000000,4.000000,4.000000,4.000000,100.000000,,,,,,,,,,,,,,,,,,,,,,,,,,,,,,,,,,,,,,,,,,,,,,,,,,,,,,,,,,,,,,,,,,,,,,,,,,,,,,,,,,,,,,,,,,,,,,,,,,,,,,,,,,,,,,,,,,,,,,,,,,,,,,,,,
1739356806.840783,1739356806.840882,116.000000,0.000000,4588.589844,4535.897461,4738.333496,4413.333496,4619.615234,4705.384766,4698.333496,4430.641113,4616.666504,4631.410156,4445.000000,5028.333496,4655.000000,4691.538574,5704.000000,0.000000,9.000000,,,,0.000000,4.000000,4.000000,4.000000,4.000000,4.000000,4.000000,4.000000,4.000000,4.000000,4.000000,4.000000,4.000000,4.000000,4.000000,100.000000,,,,,,,,,,,,,,,,,29.000000,0.000000,0.634084,0.113525,-0.736145,0.207703,0.994262,-0.145037,-0.091808,-46.737862,-31.943117,37.171680,,,,,,,,,,,,,,,,,,,,,,,,,,,,,,,,,,,,,,,,,,,,,,,,,,,,,,,,,,,,,,,,,,,,,,,,,,,,,,,,,,,,,,,,,,,,,,,,,,,,,
1739356806.848590,1739356806.848690,117.000000,0.000000,4588.974121,4535.128418,4745.128418,4413.589844,4621.410156,4707.692383,4704.743652,4432.179688,4620.641113,4635.897461,4445.512695,5032.948730,4657.179688,4681.666504,6452.000000,0.000000,9.000000,,,,0.000000,4.000000,4.000000,4.000000,4.000000,4.000000,4.000000,4.000000,4.000000,4.000000,4.000000,4.000000,4.000000,4.000000,4.000000,100.000000,,,,,,,,,,,,,,,,,,,,,,,,,,,,,,,,,,,,,,,,,,,,,,,,,,,,,,,,,,,,,,,,,,,,,,,,,,,,,,,,,,,,,,,,,,,,,,,,,,,,,,,,,,,,,,,,,,,,,,,,,,,,,,,,,
1739356806.856398,1739356806.856598,118.000000,0.000000,4596.666504,4537.563965,4750.512695,4426.025879,4626.025879,4710.769043,4706.922852,4433.974121,4619.230957,4634.487305,4447.051270,5035.769043,4661.153809,4687.307617,4841.000000,0.000000,9.000000,,,,0.000000,4.000000,4.000000,4.000000,4.000000,4.000000,4.000000,4.000000,4.000000,4.000000,4.000000,4.000000,4.000000,4.000000,4.000000,100.000000,,,,,,,,,,,,,,,,,,,,,,,,,,,,,,,,,,,,,,,,,,,,,,,,,,,,,,,,,,,,,,,,,,,,,,,,,,,,,,,,,,,,,,,,,,,,,,,,,,,,,,,,,,,,,,,,,,,,,,,,,,,,,,,,,
1739356806.864207,1739356806.864406,119.000000,0.000000,4603.974121,4543.589844,4752.563965,4439.487305,4628.589844,4719.102539,4706.794922,4435.256348,4617.436035,4635.897461,4448.589844,5040.256348,4666.666504,4699.743652,5627.000000,0.000000,9.000000,,,,0.000000,4.000000,4.000000,4.000000,4.000000,4.000000,4.000000,4.000000,4.000000,4.000000,4.000000,4.000000,4.000000,4.000000,4.000000,100.000000,,,,,,,,,,,,,,,,,,,,,,,,,,,,,,,,,,,,,,,,,,,,,,,,,,,,,,,,,,,,,,,,,,,,,,,,,,,,,,,,,,,,,,,,,,,,,,,,,,,,,,,,,,,,,,,,,,,,,,,,,,,,,,,,,
1739356806.872015,1739356806.872314,120.000000,0.000000,4603.846191,4549.743652,4758.589844,4444.102539,4629.358887,4719.871582,4704.358887,4433.333496,4618.333496,4635.000000,4440.384766,5046.025879,4666.666504,4705.512695,5704.000000,0.000000,9.000000,,,,0.000000,4.000000,4.000000,4.000000,4.000000,4.000000,4.000000,4.000000,4.000000,4.000000,4.000000,4.000000,4.000000,4.000000,4.000000,100.000000,,,,,,,,,,,,,,,,,30.000000,0.000000,0.634158,0.113281,-0.736084,0.207825,0.984495,-0.153827,-0.103040,-46.747406,-31.848806,37.137848,,,,,,,,,,,,,,,,,,,,,,,,,,,,,,,,1.038198,4.488366,0.964787,0.220631,0.118147,1.185513,3.480485,0.876909,0.235642,0.100756,1.014837,3.593316,1.196472,0.234351,0.104696,1.779461,3.290175,0.800659,0.340783,0.091020,0.675860,0.956120,0.252032,0.076087,0.083247,1.304216,2.187392,0.310994,0.128776,0.090292,1.796991,5.590885,0.688314,0.184062,0.069318,0.283475,1.013193,0.171822,0.079817,0.035035,0.630526,4.991556,0.499544,0.232812,0.067185,0.844883,4.298067,0.561332,0.359655,0.147017,1.267634,5.658651,0.704177,0.360555,0.135739,2.002696,7.230666,1.690475,0.257954,0.122421,1.001629,3.600077,0.732497,0.160345,0.108900,1.324779,4.303162,1.267792,0.239337,0.137902
1739356806.879823,1739356806.880122,121.000000,0.000000,4604.102539,4554.743652,4764.487305,4444.615234,4631.282227,4715.641113,4702.692383,4434.871582,4615.512695,4632.948730,4431.282227,5050.128418,4659.487305,4715.897461,6452.000000,0.000000,9.000000,,,,0.000000,4.000000,4.000000,4.000000,4.000000,4.000000,4.000000,4.000000,4.000000,4.000000,4.000000,4.000000,4.000000,4.000000,4.000000,100.000000,,,,,,,,,,,,,,,,,,,,,,,,,,,,,,,,,,,,,,,,,,,,,,,,,,,,,,,,,,,,,,,,,,,,,,,,,,,,,,,,,,,,,,,,,,,,,,,,,,,,,,,,,,,,,,,,,,,,,,,,,,,,,,,,,
1739356806.887631,1739356806.887830,122.000000,0.000000,4611.153809,4555.512695,4767.051270,4449.615234,4631.666504,4717.051270,4703.333496,4439.743652,4610.769043,4637.179688,4431.538574,5052.307617,4656.410156,4731.922852,4841.000000,0.000000,9.000000,,,,0.000000,4.000000,4.000000,4.000000,4.000000,4.000000,4.000000,4.000000,4.000000,4.000000,4.000000,4.000000,4.000000,4.000000,4.000000,100.000000,,,,,,,,,,,,,,,,,,,,,,,,,,,,,,,,,,,,,,,,,,,,,,,,,,,,,,,,,,,,,,,,,,,,,,,,,,,,,,,,,,,,,,,,,,,,,,,,,,,,,,,,,,,,,,,,,,,,,,,,,,,,,,,,,
1739356806.895439,1739356806.895638,123.000000,0.000000,4612.948730,4556.025879,4770.769043,4457.820313,4629.487305,4716.410156,4700.641113,4439.615234,4608.333496,4637.179688,4428.205078,5053.077148,4656.794922,4743.205078,5627.000000,0.000000,9.000000,,,,0.000000,4.000000,4.000000,4.000000,4.000000,4.000000,4.000000,4.000000,4.000000,4.000000,4.000000,4.000000,4.000000,4.000000,4.000000,100.000000,,,,,,,,,,,,,,,,,,,,,,,,,,,,,,,,,,,,,,,,,,,,,,,,,,,,,,,,,,,,,,,,,,,,,,,,,,,,,,,,,,,,,,,,,,,,,,,,,,,,,,,,,,,,,,,,,,,,,,,,,,,,,,,,,
1739356806.903247,1739356806.903346,124.000000,0.000000,4607.436035,4558.846191,4769.871582,4460.384766,4627.820313,4713.461426,4695.256348,4437.307617,4604.358887,4628.589844,4412.436035,5048.461426,4651.666504,4753.077148,5704.000000,0.000000,9.000000,,,,0.000000,4.000000,4.000000,4.000000,4.000000,4.000000,4.000000,4.000000,4.000000,4.000000,4.000000,4.000000,4.000000,4.000000,4.000000,100.000000,,,,,,,,,,,,,,,,,31.000000,0.000000,0.634131,0.113098,-0.736084,0.208008,0.981077,-0.145037,-0.102552,-46.539333,-31.930592,37.140728,,,,,,,,,,,,,,,,,,,,,,,,,,,,,,,,,,,,,,,,,,,,,,,,,,,,,,,,,,,,,,,,,,,,,,,,,,,,,,,,,,,,,,,,,,,,,,,,,,,,,
1739356806.911055,1739356806.911154,125.000000,0.000000,4607.820313,4561.922852,4766.282227,4460.512695,4628.974121,4716.282227,4698.077148,4440.897461,4600.512695,4634.230957,4404.615234,5044.358887,4649.871582,4766.410156,6452.000000,0.000000,9.000000,,,,0.000000,4.000000,4.000000,4.000000,4.000000,4.000000,4.000000,4.000000,4.000000,4.000000,4.000000,4.000000,4.000000,4.000000,4.000000,100.000000,,,,,,,,,,,,,,,,,,,,,,,,,,,,,,,,,,,,,,,,,,,,,,,,,,,,,,,,,,,,,,,,,,,,,,,,,,,,,,,,,,,,,,,,,,,,,,,,,,,,,,,,,,,,,,,,,,,,,,,,,,,,,,,,,
1739356806.918863,1739356806.918862,126.000000,0.000000,4610.769043,4561.922852,4767.436035,4465.256348,4627.948730,4719.358887,4705.512695,4449.230957,4602.948730,4648.333496,4407.436035,5046.538574,4655.512695,4781.538574,4841.000000,0.000000,9.000000,,,,0.000000,4.000000,4.000000,4.000000,4.000000,4.000000,4.000000,4.000000,4.000000,4.000000,4.000000,4.000000,4.000000,4.000000,4.000000,100.000000,,,,,,,,,,,,,,,,,,,,,,,,,,,,,,,,,,,,,,,,,,,,,,,,,,,,,,,,,,,,,,,,,,,,,,,,,,,,,,,,,,,,,,,,,,,,,,,,,,,,,,,,,,,,,,,,,,,,,,,,,,,,,,,,,
1739356806.926671,1739356806.926770,127.000000,0.000000,4602.692383,4554.487305,4766.025879,4466.666504,4623.205078,4718.077148,4707.051270,4450.384766,4605.128418,4642.051270,4400.897461,5045.256348,4652.820313,4793.077148,9.000000,0.000000,9.000000,,,,0.000000,4.000000,4.000000,4.000000,4.000000,4.000000,4.000000,4.000000,4.000000,4.000000,4.000000,4.000000,4.000000,4.000000,4.000000,100.000000,,,,,,,,,,,,,,,,,,,,,,,,,,,,,,,,,,,,,,,,,,,,,,,,,,,,,,,,,,,,,,,,,,,,,,,,,,,,,,,,,,,,,,,,,,,,,,,,,,,,,,,,,,,,,,,,,,,,,,,,,,,,,,,,,
1739356806.934479,1739356806.934578,0.000000,0.000000,4590.128418,4542.436035,4758.461426,4462.948730,4616.282227,4715.769043,4705.512695,4446.666504,4598.589844,4630.897461,4390.641113,5038.589844,4638.461426,4793.589844,4904.000000,0.000000,9.000000,,,,0.000000,4.000000,4.000000,4.000000,4.000000,4.000000,4.000000,4.000000,4.000000,4.000000,4.000000,4.000000,4.000000,4.000000,4.000000,100.000000,,,,,,,,,,,,,,,,,0.000000,0.000000,0.634052,0.112976,-0.736084,0.208313,0.978635,-0.153827,-0.092296,-46.452068,-32.020866,37.176655,,,,,,,,,,,,,,,,,,,,,,,,,,,,,,,,,,,,,,,,,,,,,,,,,,,,,,,,,,,,,,,,,,,,,,,,,,,,,,,,,,,,,,,,,,,,,,,,,,,,,
1739356806.942288,1739356806.942486,1.000000,0.000000,4581.153809,4532.179688,4751.410156,4459.230957,4607.820313,4712.179688,4702.820313,4447.179688,4592.436035,4632.307617,4390.384766,5030.641113,4629.358887,4792.563965,5566.000000,0.000000,9.000000,,,,0.000000,4.000000,4.000000,4.000000,4.000000,4.000000,4.000000,4.000000,4.000000,4.000000,4.000000,4.000000,4.000000,4.000000,4.000000,100.000000,,,,,,,,,,,,,,,,,,,,,,,,,,,,,,,,,,,,,,,,,,,,,,,,,,,,,,,,,,,,,,,,,,,,,,,,,,,,,,,,,,,,,,,,,,,,,,,,,,,,,,,,,,,,,,,,,,,,,,,,,,,,,,,,,
1739356806.950096,1739356806.950295,2.000000,0.000000,4574.230957,4526.410156,4745.512695,4457.948730,4598.205078,4705.000000,4693.846191,4445.128418,4587.179688,4627.820313,4389.102539,5019.743652,4624.615234,4802.051270,5559.000000,0.000000,9.000000,,,,0.000000,4.000000,4.000000,4.000000,4.000000,4.000000,4.000000,4.000000,4.000000,4.000000,4.000000,4.000000,4.000000,4.000000,4.000000,100.000000,,,,,,,,,,,,,,,,,,,,,,,,,,,,,,,,,,,,,,,,,,,,,,,,,,,,,,,,,,,,,,,,,,,,,,,,,,,,,,,,,,,,,,,,,,,,,,,,,,,,,,,,,,,,,,,,,,,,,,,,,,,,,,,,,
1739356806.957904,1739356806.958203,3.000000,0.000000,4564.102539,4516.922852,4736.282227,4457.948730,4589.358887,4694.487305,4681.025879,4439.487305,4575.256348,4612.307617,4378.333496,5006.282227,4610.128418,4808.077148,5507.000000,0.000000,9.000000,,,,0.000000,4.000000,4.000000,4.000000,4.000000,4.000000,4.000000,4.000000,4.000000,4.000000,4.000000,4.000000,4.000000,4.000000,4.000000,100.000000,,,,,,,,,,,,,,,,,,,,,,,,,,,,,,,,,,,,,,,,,,,,,,,,,,,,,,,,,,,,,,,,,,,,,,,,,,,,,,,,,,,,,,,,,,,,,,,,,,,,,,,,,,,,,,,,,,,,,,,,,,,,,,,,,
1739356806.965712,1739356806.966111,4.000000,0.000000,4557.179688,4512.948730,4726.922852,4458.205078,4580.256348,4685.128418,4671.538574,4438.333496,4560.641113,4604.102539,4369.487305,4993.717773,4596.410156,4808.461426,5477.000000,0.000000,9.000000,,,,0.000000,4.000000,4.000000,4.000000,4.000000,4.000000,4.000000,4.000000,4.000000,4.000000,4.000000,4.000000,4.000000,4.000000,4.000000,100.000000,,,,,,,,,,,,,,,,,1.000000,0.000000,0.634014,0.112854,-0.736084,0.208496,0.979612,-0.159199,-0.099622,-46.440193,-32.002113,37.092323,,,,,,,,,,,,,,,,,,,,,,,,,,,,,,,,,,,,,,,,,,,,,,,,,,,,,,,,,,,,,,,,,,,,,,,,,,,,,,,,,,,,,,,,,,,,,,,,,,,,,
1739356806.973520,1739356806.973919,5.000000,0.000000,4554.230957,4517.563965,4722.051270,4464.871582,4573.717773,4677.307617,4662.948730,4439.358887,4552.051270,4600.128418,4371.282227,4984.615234,4598.077148,4821.025879,5425.000000,0.000000,9.000000,,,,0.000000,4.000000,4.000000,4.000000,4.000000,4.000000,4.000000,4.000000,4.000000,4.000000,4.000000,4.000000,4.000000,4.000000,4.000000,100.000000,,,,,,,,,,,,,,,,,,,,,,,,,,,,,,,,,,,,,,,,,,,,,,,,,,,,,,,,,,,,,,,,,,,,,,,,,,,,,,,,,,,,,,,,,,,,,,,,,,,,,,,,,,,,,,,,,,,,,,,,,,,,,,,,,
1739356806.981328,1739356806.981727,6.000000,0.000000,4548.333496,4515.897461,4719.487305,4474.358887,4568.205078,4670.512695,4652.948730,4437.179688,4545.641113,4590.128418,4373.589844,4982.051270,4597.820313,4838.205078,5410.000000,0.000000,9.000000,,,,0.000000,4.000000,4.000000,4.000000,4.000000,4.000000,4.000000,4.000000,4.000000,4.000000,4.000000,4.000000,4.000000,4.000000,4.000000,100.000000,,,,,,,,,,,,,,,,,,,,,,,,,,,,,,,,,,,,,,,,,,,,,,,,,,,,,,,,,,,,,,,,,,,,,,,,,,,,,,,,,,,,,,,,,,,,,,,,,,,,,,,,,,,,,,,,,,,,,,,,,,,,,,,,,
1739356806.989136,1739356806.989635,7.000000,0.000000,4537.307617,4507.820313,4716.025879,4473.333496,4558.974121,4662.179688,4647.436035,4436.666504,4533.717773,4579.230957,4364.487305,4975.897461,4577.563965,4847.179688,2037.000000,0.000000,9.000000,,,,0.000000,4.000000,4.000000,4.000000,4.000000,4.000000,4.000000,4.000000,4.000000,4.000000,4.000000,4.000000,4.000000,4.000000,4.000000,100.000000,,,,,,,,,,,,,,,,,,,,,,,,,,,,,,,,,,,,,,,,,,,,,,,,,,,,,,,,,,,,,,,,,,,,,,,,,,,,,,,,,,,,,,,,,,,,,,,,,,,,,,,,,,,,,,,,,,,,,,,,,,,,,,,,,
1739356806.996944,1739356806.997443,8.000000,0.000000,4527.436035,4502.692383,4708.461426,4464.743652,4550.512695,4653.717773,4645.641113,4437.179688,4520.769043,4567.948730,4354.743652,4956.794922,4560.512695,4852.051270,5230.000000,0.000000,9.000000,,,,0.000000,4.000000,4.000000,4.000000,4.000000,4.000000,4.000000,4.000000,4.000000,4.000000,4.000000,4.000000,4.000000,4.000000,4.000000,100.000000,1.000000,8.333333,1.000000,1.000000,1.000000,3.000000,1.000000,0.000000,0.000000,1.000000,1.000000,1.000000,4.000000,1.000000,1.000000,1.000000,2.000000,0.000000,0.633936,0.112671,-0.736145,0.208618,0.982542,-0.164083,-0.104993,-46.546173,-31.918568,37.299759,,,,,,,,,,,,,,,,,,,,,,,,,,,,,,,,0.952015,3.913514,1.014653,0.258829,0.126825,1.295419,3.561123,0.899637,0.258298,0.107966,1.039175,2.992429,1.138946,0.285321,0.117821,1.716901,3.331707,0.834212,0.399284,0.097921,0.610802,1.002449,0.281301,0.085038,0.082966,1.268984,2.202639,0.256966,0.127166,0.092885,1.674435,5.452963,0.492506,0.170699,0.070195,0.230507,0.826320,0.177945,0.075300,0.033554,0.625783,4.329245,0.520736,0.282262,0.076449,0.975041,3.703753,0.623233,0.363330,0.140732,1.454888,4.620577,0.740211,0.349059,0.126678,1.807223,5.845661,1.681241,0.281621,0.134573,0.831801,3.144757,0.765676,0.172920,0.115579,1.207991,3.515230,1.300346,0.248326,0.132795
